-4.759 
n/a 
n/a 
n/a 
n/a 
-4.759 
n/a 
n/a 
n/a 
n/a 
-4.759 
n/a 
n/a 
n/a 
n/a 
-4.759 
n/a 
n/a 
n/a 
n/a 
-12.16972 -4.7355 -1.8085 -4.221 -2.0935 -1.4985 -4.31 -1.7695 -3.197 -1.8085 -3.815 -1.756 -7.107501 -3.098 -2.0935 -1.4985 -4.676 -3.793 -3.4075 -3.688 0 
-16.90522 -6.0835 -5.9835 -5.604 -2.9725 -5.7285 -5.658 -3.9565 -4.0385 -4.6365 -5.439 -8.187 -10.8845 -4.748 -2.9725 -5.269 -6.4985 -7.729 -7.1855 -3.688 
-18.25322 -8.746 -7.029 -6.3925 -7.153 -7.2205 -7.7215 -4.93 -7.541501 -6.719 -12.9526 -12.2226 -12.5345 -5.7315 -6.624001 -7.4985 -9.618501 -11.8746 -7.1855 
-20.91572 -9.078001 -7.6565 -10.2915 -8.1335 -9.114 -9.083501 -8.280001 -9.508 -14.585 -16.9882 -13.8726 -13.518 -8.889001 -9.337001 -9.925 -13.7965 -11.8746 
-21.24772 -9.743001 -11.8967 -11.272 -9.4165 -10.586 -12.5323 -9.974501 -17.4494 -18.6206 -18.6382 -14.8561 -16.6755 -11.9828 -11.7811 -14.13 -13.7965 
-12.16972 -4.4655 -1.8085 -4.221 -1.7695 -1.4985 -4.31 -1.934 -3.333 -1.7695 -3.5045 -1.8085 -4.3885 0 -4.0335 -5.286 -3.098 -2.0935 -1.8085 -3.4075 -3.688 
-16.63522 -5.732 -5.9835 -6.009501 -2.7955 -5.7285 -6.104001 -3.9835 -4.022 -4.661 -4.288 -4.904 -4.3885 -4.0335 -6.202001 -10.115 -4.748 -3.385 -4.782001 -7.1855 
-17.90172 -9.095501 -6.9705 -7.1375 -6.8155 -6.63 -8.255501 -4.0425 -6.99 -5.05 -8.4385 -4.904 -9.585501 -6.202001 -10.31 -11.765 -5.8535 -6.209001 -8.074 
-21.26522 -9.642501 -9.055 -11.5193 -8.6435 -9.513 -8.2875 -7.009501 -7.698501 -10.4505 -8.4385 -10.1035 -11.7998 -10.31 -11.96 -12.8705 -9.836 -9.595 
-21.81222 -12.1378 -13.5784 -13.3473 -10.028 -9.582001 -10.6465 -7.745 -13.649 -10.4505 -14.8116 -12.3178 -15.9078 -11.96 -13.0655 -16.853 -13.222 
-12.16972 -4.4725 -1.8085 -4.221 -2.0935 -1.4985 -4.31 -1.7695 -3.197 -1.8085 -3.815 -3.098 -2.0935 -1.8085 -4.378 -2.9705 -2.186 -3.6515 -1.7695 -2.489 -3.793 -4.676 0 
-16.64222 -6.137001 -5.9835 -5.604 -2.9725 -5.7285 -5.658 -3.9565 -4.0385 -4.6365 -6.287001 -4.748 -3.385 -5.653 -7.028 -3.89 -4.575 -3.9135 -3.1405 -4.731 -9.279 -4.676 
-18.30672 -11.0576 -7.029 -6.3925 -7.153 -7.2205 -7.7215 -4.93 -7.541501 -7.2865 -7.493001 -5.8535 -7.1895 -7.937 -7.7745 -6.706 -4.729 -4.621 -5.788 -9.972501 -9.279 
-23.22732 -12.1031 -7.6565 -10.2915 -8.1335 -9.114 -9.083501 -8.280001 -10.1 -7.8285 -8.747001 -9.6005 -9.332001 -8.6685 -10.553 -6.81 -5.193501 -7.6855 -9.989 -9.972501 
-24.27282 -12.7306 -11.8967 -11.272 -9.4165 -10.586 -12.5323 -10.609 -10.8554 -8.9905 -12.8168 -11.7832 -9.9735 -11.683 -10.657 -7.174001 -8.117001 -12.1137 -9.989 
-4.676 -5.166 -3.4075 -3.7425 0 -1.934 -3.815 -3.519 -2.4265 -2.742 -4.008 -1.934 -4.0335 -2.5045 -3.115 -2.3335 -2.3615 -3.098 -2.8645 -1.7695 -2.489 -3.917 -3.0415 -2.925 -4.4725 -2.871 -4.221 -2.0935 -4.31 0 
-9.495001 -8.4505 -7.757501 -3.7425 -1.934 -5.2245 -5.89 -5.9485 -4.095 -5.693 -4.890501 -4.76 -5.985 -6.717501 -4.7415 -4.2805 -5.7775 -5.837 -4.4755 -3.1405 -5.42 -6.9335 -4.8045 -6.2145 -7.331501 -7.6485 -5.604 -6.047501 -4.31 
-12.8129 -13.1579 -7.757501 -5.7275 -5.2245 -7.6945 -8.602501 -7.0625 -6.8335 -6.4705 -9.011001 -6.585001 -9.822001 -8.6455 -6.9995 -7.682001 -7.8245 -7.518 -4.9335 -6.2305 -7.649 -8.973001 -7.8585 -9.029 -12.409 -9.150001 -8.853001 -6.047501 
-17.5203 -13.1579 -9.432501 -8.882501 -7.6945 -9.623 -9.4125 -10.4326 -7.752 -10.0575 -10.9042 -10.7784 -11.8262 -11.2675 -10.6875 -9.182501 -9.274 -7.6705 -7.854 -8.586 -9.602 -12.27 -10.621 -14.1327 -13.9105 -12.5356 -8.853001 
-17.5203 -14.8329 -12.6521 -10.4035 -9.623 -10.5152 -13.3236 -11.3511 -11.6774 -12.1345 -15.0976 -12.7826 -14.4482 -14.9555 -12.188 -10.7722 -9.408 -10.3035 -9.9835 -10.374 -13.213 -15.0325 -15.7247 -15.6342 -17.2961 -12.5356 
