-4.759 
n/a 
n/a 
n/a 
n/a 
-4.759 
n/a 
n/a 
n/a 
n/a 
-4.759 
n/a 
n/a 
n/a 
n/a 
-4.759 
n/a 
n/a 
n/a 
n/a 
-4.617 -5.7385 -3.7805 -4.4895 0 
-10.419 -8.048 -9.450001 -4.4895 
-12.7285 -14.6039 -9.450001 
-19.2844 -14.6039 
-19.2844 
-4.617 0 -4.905 -5.7385 -4.3225 
-4.617 -4.905 -10.66 -8.4005 
-9.5075 -10.66 -13.322 
-15.5169 -13.322 
-18.1789 
-4.617 0 -10.22 -7.1505 -4.4895 
-4.617 -10.22 -17.4405 -12.4618 
-15.2312 -17.4405 -22.7518 
-22.4517 -22.7518 
-27.763 
-4.617 0 -5.896 -1.934 -5.7385 -4.3225 
-4.617 -5.896 -7.571001 -7.3715 -8.4005 
-10.9072 -7.571001 -13.3505 -9.496501 
-12.5822 -13.3505 -15.4755 
-18.3617 -15.4755 
