-4.759 
n/a 
n/a 
n/a 
n/a 
-4.759 
n/a 
n/a 
n/a 
n/a 
-4.759 
n/a 
n/a 
n/a 
n/a 
-4.759 
n/a 
n/a 
n/a 
n/a 
-12.16972 -3.8275 0 -6.2135 -4.5925 0 -8.061501 0 -12.16972 -1.4985 -3.8035 -3.458 -1.4985 -4.9175 -1.756 -1.4985 -4.248 -3.959 -1.4985 -4.934 -1.7565 -1.4985 -4.177 -3.458 -1.4985 -3.1715 -1.756 -1.4985 -3.4225 -3.1715 0 -1.4985 -5.233 -2.9705 -4.4755 -1.934 -1.4985 -2.688 -3.468 -2.4945 -3.922 -1.4985 -4.537 -4.345 
-15.99722 -3.8275 -6.2135 -11.6854 -4.5925 -8.061501 -8.061501 -12.16972 -13.66822 -5.0335 -6.914001 -4.063 -5.785501 -6.62 -3.0405 -5.2845 -8.884001 -5.452 -6.2545 -5.704 -2.4195 -4.9125 -4.8925 -4.063 -3.994 -4.562 -3.0405 -3.9655 -6.440001 -3.1715 -1.4985 -6.387 -7.611501 -7.2445 -6.256 -2.6125 -3.702 -6.863501 -5.546 -7.9535 -4.7665 -6.164001 -7.9645 
-15.99722 -9.442 -11.6854 -11.6854 -13.6506 -8.061501 -20.56822 -13.66822 -17.20322 -8.005501 -7.5525 -8.3225 -7.507 -7.674 -6.6415 -10.733 -10.8424 -9.844 -6.8655 -6.213 -5.835001 -5.134501 -5.488 -6.5005 -5.401 -5.851 -5.355 -6.8525 -6.440001 -5.136 -6.387 -9.1415 -12.1401 -8.925501 -6.808 -4.964 -7.568 -8.379001 -11.5234 -8.726 -10.071 -9.4925 
-21.61172 -15.0709 -11.6854 -20.7435 -13.6506 -20.56822 -22.06672 -17.20322 -20.17522 -8.519501 -12.01 -8.802 -8.071 -11.6788 -12.4576 -12.6914 -15.2344 -10.763 -7.3885 -9.956 -6.0985 -5.7535 -7.5895 -6.82 -6.2675 -7.7345 -8.2395 -6.8525 -8.6055 -10.4535 -9.1415 -13.8187 -13.8211 -9.436501 -8.431 -8.448 -9.0695 -14.6634 -12.2959 -14.1837 -13.5125 
-27.24062 -15.0709 -20.7435 -20.7435 -26.15732 -22.06672 -25.60172 -20.17522 -20.68922 -13.1404 -12.4895 -9.1155 -12.3862 -17.4949 -14.416 -17.0834 -16.1534 -11.286 -11.2077 -10.3325 -6.677001 -7.781001 -7.7485 -7.2115 -8.4495 -11.4004 -8.2395 -8.7365 -14.0044 -13.208 -13.8187 -15.4997 -14.3321 -11.1159 -12.6794 -10.5535 -15.5115 -15.4359 -17.7536 -17.6252 
-1.934 -12.16972 -3.8275 0 -6.2135 -10.3 -1.756 -5.751 -3.7765 -1.4985 -5.309 -3.991 -1.756 -6.43 -3.458 -4.6555 -5.952 -1.4985 -4.461 -2.356 -4.6495 -1.7695 -4.53 
-15.11012 -15.99722 -3.8275 -6.2135 -17.3929 -12.056 -7.437 -9.011001 -5.741 -6.3065 -10.078 -5.0735 -7.739 -10.9446 -7.0255 -9.5625 -7.1245 -5.2755 -6.4455 -5.0705 -4.846 -7.8255 
-18.93762 -15.99722 -9.442 -17.3929 -19.1489 -17.737 -11.1836 -11.9679 -10.95 -11.4539 -11.4913 -12.1987 -12.4462 -14.5121 -12.4953 -10.6485 -10.2645 -7.636001 -8.000501 -5.0755 -9.932501 
-18.93762 -21.61172 -20.7784 -19.1489 -24.8299 -21.4836 -14.1405 -17.1769 -16.0974 -12.8672 -18.6165 -16.9059 -16.0137 -19.9819 -13.5813 -13.7885 -12.6818 -9.252001 -8.004001 -10.31 
-24.55212 -32.94812 -22.5344 -24.8299 -28.5765 -24.4405 -19.3495 -22.3243 -17.5107 -19.9924 -23.3237 -20.4734 -21.4835 -21.0679 -16.7213 -16.2058 -14.2978 -9.258 -13.2861 
-14.4555 -3.8275 0 -6.5465 -3.912 0 -5.751 0 -3.7765 -1.934 -5.3605 -4.157 -1.4985 -5.0725 -3.458 -4.015 -1.756 -3.468 -3.325 -1.4985 -4.1 -1.7565 -2.8965 -3.959 0 -3.074 -1.4985 -4.422 -2.264 -1.4985 -4.177 -3.458 -1.4985 -3.4225 -4.39 -1.756 -5.6925 -3.4635 -1.7695 -4.338 -1.7565 -5.233 -1.934 -2.688 -4.846 
-17.861 -3.8275 -6.5465 -11.117 -3.912 -5.751 -5.751 -3.7765 -5.981 -6.611 -10.5535 -5.535 -5.955 -6.1575 -7.216001 -5.684 -5.8035 -6.399 -3.898 -5.0695 -5.164001 -4.5345 -4.940001 -3.959 -3.074 -4.6505 -5.2065 -5.563001 -2.9195 -4.9125 -4.8925 -4.063 -3.9655 -4.7525 -5.675 -7.4715 -9.0825 -4.2045 -6.637001 -5.2325 -6.0185 -6.341001 -4.282 -6.663 
-18.1538 -11.48 -11.117 -11.117 -10.5135 -5.751 -9.011001 -5.981 -9.6675 -12.4072 -11.9315 -8.755 -6.61 -10.292 -8.116501 -10.5535 -8.869 -6.814001 -6.657 -5.5715 -9.244 -6.351 -4.940001 -6.743 -4.6505 -8.802 -6.2755 -6.053 -6.1885 -5.134501 -5.488 -6.102 -5.0455 -6.1945 -12.3915 -9.5135 -10.6475 -7.9865 -7.420001 -9.7405 -6.913 -8.168 -8.217 
-26.1079 -16.0505 -11.117 -17.7185 -10.5135 -9.011001 -12.2079 -9.6675 -15.5285 -13.7852 -15.1515 -9.4665 -10.6875 -11.1925 -13.6382 -13.619 -9.298 -9.395 -6.859 -9.549001 -10.3685 -6.351 -7.6125 -8.2985 -8.802 -9.584001 -6.775001 -8.599001 -6.3025 -5.7535 -7.389 -7.377 -6.255 -13.6298 -14.4335 -12.1967 -14.4295 -8.5375 -12.086 -10.9688 -8.7745 -9.5015 
-30.6784 -16.0505 -17.7185 -17.7185 -13.7735 -12.2079 -15.8944 -15.5285 -16.9065 -17.0052 -15.863 -13.6502 -11.588 -16.7142 -16.7037 -14.048 -12.1006 -9.5045 -10.0065 -10.648 -10.3685 -8.868501 -9.1265 -12.5182 -9.584001 -10.0805 -9.144501 -8.6485 -6.849 -7.763 -8.566 -7.541 -13.7491 -15.6718 -17.1167 -15.9787 -14.9805 -13.2985 -13.3143 -12.8303 -10.281 
-3.8275 -1.7565 -12.16972 0 -6.2135 -4.5925 -1.756 -5.751 0 -3.7765 -1.934 -5.3605 -1.4985 -4.2605 -2.9705 -5.923 -3.458 -4.9175 -1.756 -4.015 -3.468 -1.756 -3.074 -1.4985 -3.7535 -3.2295 -1.4985 -4.177 -3.458 -3.4225 -4.39 0 -3.43 -1.4985 -5.2015 -1.7695 -3.922 -3.2295 -5.814 -2.688 -3.468 -2.5045 -1.8085 -4.9175 0 
-5.4695 -14.87542 -12.16972 -6.2135 -11.6854 -6.081 -7.437 -5.751 -3.7765 -5.981 -6.611 -7.040501 -4.8355 -6.448501 -7.403001 -8.380501 -8.193001 -6.62 -5.501 -6.336 -4.7175 -4.566 -4.6505 -4.9135 -6.915 -3.844 -4.9125 -4.8925 -7.212 -4.7525 -4.39 -3.43 -4.7635 -6.7375 -6.625 -4.5985 -6.0435 -9.5345 -8.778 -6.863501 -5.6845 -3.3625 -5.892 -4.9175 
-19.89062 -14.87542 -18.38322 -11.6854 -13.1739 -12.5092 -7.437 -9.011001 -5.981 -9.6675 -7.4725 -10.5225 -7.277 -9.034501 -9.312501 -13.3527 -8.467501 -10.4185 -7.792 -7.670001 -7.4455 -5.66 -7.614501 -7.712 -7.445001 -7.91 -5.134501 -8.977 -8.440001 -4.7525 -8.0205 -4.7635 -9.606501 -8.632501 -9.765501 -7.18 -13.3943 -12.5455 -13.2555 -8.747001 -6.465 -6.847 -5.892 
-19.89062 -21.08892 -23.85512 -13.1739 -19.6021 -12.5092 -11.1836 -12.2079 -9.6675 -10.7195 -11.1899 -12.964 -9.252001 -11.2802 -14.4303 -13.6272 -13.2588 -13.3679 -8.9715 -10.543 -8.578 -9.3065 -11.3614 -8.3 -10.3095 -8.134501 -9.328 -10.209 -8.440001 -8.509001 -9.090501 -9.606501 -11.6593 -11.872 -12.303 -15.256 -16.4053 -17.023 -15.139 -9.494 -9.563001 -6.847 
-26.10412 -26.56082 -25.34362 -19.6021 -19.6021 -16.2558 -14.3805 -15.8944 -10.7195 -14.4369 -13.6314 -14.939 -11.6335 -16.398 -14.7048 -18.4185 -16.2082 -14.5474 -12.1465 -11.6755 -12.3705 -12.9144 -11.9494 -11.1411 -10.3915 -12.479 -10.4945 -10.209 -12.7555 -9.447001 -14.0253 -11.6593 -14.8988 -14.4095 -20.379 -18.267 -20.8828 -18.9065 -15.886 -13.0722 -9.563001 
