-4.759 
n/a 
n/a 
n/a 
n/a 
-4.759 
n/a 
n/a 
n/a 
n/a 
-4.759 
n/a 
n/a 
n/a 
n/a 
-4.759 
n/a 
n/a 
n/a 
n/a 
-2.3615 -3.6955 -3.9875 -12.16972 -12.16972 -10.4135 -2.186 -6.4115 
-6.697001 -6.7355 -17.21482 -24.33944 -22.58322 -12.7455 -7.703 
-9.852 -20.71682 -29.38454 -34.75294 -24.91522 -18.2625 
-24.28292 -32.88654 -39.79804 -37.08494 -30.43222 
-36.45264 -43.30004 -42.13004 -42.60194 
-2.3615 -10.6255 -5.903 -3.8245 -4.9225 -2.0935 -5.0815 
-14.2752 -16.7087 -8.776001 -8.9335 -7.311501 -7.594501 
-20.3584 -19.5817 -14.8696 -11.4877 -13.3581 
-23.2314 -25.6753 -17.4238 -17.5343 
-29.325 -28.2295 -23.4704 
-1.4985 -4.929 -2.186 -4.188 -2.3345 -5.8085 -4.002 0 
-5.7165 -8.1 -7.043 -5.915 -7.7565 -10.7225 -4.002 
-8.959501 -13.2704 -9.389501 -12.5026 -12.9791 -10.7225 
-14.4799 -15.6169 -15.9851 -17.7252 -12.9791 
-16.8264 -22.2125 -21.2077 -17.7252 
-2.3615 -4.929 -4.4825 -1.7695 -2.489 -1.8085 -5.3815 -1.7565 -4.002 -2.3335 -3.251 -2.847 -3.4985 
-7.368 -10.5285 -5.05 -3.1405 -3.799 -7.4705 -6.9125 -5.8665 -5.6105 -4.9145 -4.8355 -5.7005 
-13.7929 -11.096 -6.0365 -4.2615 -9.0255 -8.4735 -11.5923 -7.0105 -8.1005 -6.495 -7.0605 
-14.3604 -12.0825 -7.0635 -9.4495 -9.636001 -13.2963 -12.7363 -9.443001 -10.1945 -9.490001 
-15.3469 -13.1095 -12.4681 -9.9965 -14.4384 -14.4403 -15.1688 -11.6498 -13.1895 
