-4.759 
n/a 
n/a 
n/a 
n/a 
-4.759 
n/a 
n/a 
n/a 
n/a 
-4.759 
n/a 
n/a 
n/a 
n/a 
-4.759 
n/a 
n/a 
n/a 
n/a 
-5.7105 -5.9185 -2.186 -4.4695 -3.9225 -1.4985 -4.1865 -4.4925 -4.761 -1.756 -3.074 -4.4695 -3.936 -1.4985 -3.188 0 
-6.078 -7.664001 -6.053 -7.5215 -4.463 -5.177 -8.4315 -9.585501 -5.87 -4.566 -7.081 -8.389 -4.263 -3.619 -3.188 
-7.8035 -10.396 -8.362 -8.112 -7.8995 -9.2615 -13.9781 -11.0711 -8.616 -9.035501 -10.75 -8.584001 -5.761 -3.619 
-10.6381 -12.5508 -9.1615 -10.5535 -12.391 -15.0063 -15.4637 -13.8171 -13.4469 -12.2981 -10.945 -9.168 -5.761 
-12.7929 -13.3503 -11.671 -15.045 -18.1358 -16.4919 -18.2097 -18.648 -16.7095 -12.4931 -11.529 -9.168 
-5.7105 -5.9185 -2.186 -1.4985 -3.188 -2.229 -3.17 -4.4695 -5.0365 -1.934 -3.8735 0 
-6.078 -7.664001 -3.339 -3.619 -4.279 -4.5735 -5.473001 -10.5435 -6.3075 -4.885 -3.8735 
-7.8035 -8.6645 -4.9385 -4.3695 -5.232 -6.022 -12.189 -11.8145 -8.872001 -4.885 
-8.830001 -10.6376 -4.97 -5.299 -6.599 -13.0774 -13.46 -14.379 -8.872001 
-10.9469 -10.6691 -6.485 -6.632 -14.1676 -14.3484 -16.0245 -14.379 
-7.641 -2.186 -1.4985 -4.4695 -3.5125 -3.5015 -1.934 -3.8735 0 
-9.469 -3.339 -5.252501 -8.0905 -7.645 -4.704 -4.885 -3.8735 
-10.3975 -6.966 -8.5555 -12.7522 -9.259001 -7.6875 -4.885 
-14.0245 -10.6875 -13.9324 -14.3662 -12.6701 -7.6875 
-17.746 -16.0644 -15.5464 -17.7773 -12.6701 
-1.934 -1.4985 -3.188 -4.0005 -2.5685 -1.7565 -3.277 -4.4895 -2.3335 -5.7105 -5.9185 -2.5195 -3.8735 -2.186 -2.871 -1.7565 -1.4985 -3.2825 -4.9845 -4.4525 0 
-2.6125 -3.619 -4.969501 -7.1835 -3.887 -4.25 -7.7165 -5.4665 -8.5635 -6.078 -8.475 -5.578 -5.949 -4.247 -3.5385 -2.4195 -3.712 -9.1435 -9.363001 -4.4525 
-4.377 -5.421 -7.862 -8.529 -5.2535 -7.928 -8.650001 -12.1979 -9.2025 -8.536 -10.396 -7.771 -7.517 -4.411 -3.7675 -4.687 -9.3765 -13.7302 -9.363001 
-7.106501 -10.426 -9.106001 -9.5775 -9.803 -9.000001 -15.5256 -12.8369 -11.9609 -10.411 -12.589 -9.6335 -7.5755 -4.5655 -4.982 -9.9055 -14.0544 -13.7302 
-11.8869 -11.67 -9.723001 -14.4778 -10.1665 -15.8522 -16.1646 -15.5953 -13.8359 -12.604 -14.4515 -9.797501 -7.6425 -5.5725 -10.4105 -14.7532 -14.0544 
