-4.759 
n/a 
n/a 
n/a 
n/a 
-4.759 
n/a 
n/a 
n/a 
n/a 
-4.759 
n/a 
n/a 
n/a 
n/a 
-4.759 
n/a 
n/a 
n/a 
n/a 
-3.5315 -9.5135 -4.257 -4.3215 -2.3335 -9.34 -4.3295 -2.5195 -10.1605 -2.186 -4.196 -4.9385 -1.756 -4.0555 -3.325 -2.985 -3.4985 0 
-12.803 -13.042 -7.914 -5.1075 -12.8643 -14.0867 -7.199 -12.747 -12.6965 -5.389 -7.7845 -6.235001 -5.629 -6.2735 -5.788 -6.239 -3.4985 
-16.7604 -17.064 -8.5415 -16.2491 -17.611 -16.9562 -18.4825 -15.5747 -16.2077 -8.8435 -9.1875 -10.016 -7.896 -8.7295 -6.919 -6.239 
-20.5832 -17.6915 -19.8459 -20.9958 -20.4805 -28.2397 -20.604 -19.0859 -19.6622 -10.078 -13.0767 -10.1275 -10.411 -9.469501 -6.919 
-21.2107 -28.9959 -24.5926 -23.8653 -31.764 -30.3612 -24.1152 -22.5404 -20.8967 -13.9672 -13.1882 -13.7447 -11.151 -9.469501 
-3.5315 -2.855 0 -6.6585 -4.9385 -1.4985 -3.75 -5.939 -9.34 -4.417 -1.756 -4.954 -3.222 -2.985 -3.4985 
-5.499 -2.855 -6.6585 -12.3556 -5.916501 -4.8715 -10.8764 -16.4236 -14.1742 -5.9025 -6.601 -9.063501 -5.116 -6.239 
-5.499 -10.159 -12.3556 -13.3336 -9.540501 -12.6045 -21.361 -21.2578 -15.6597 -10.404 -10.419 -11.2821 -8.5815 
-13.6782 -16.0553 -13.3336 -16.9576 -17.4055 -23.0891 -26.1952 -22.7433 -20.1612 -14.4132 -12.562 -14.7476 
-19.5745 -17.0333 -16.9576 -24.8226 -27.8901 -27.9233 -27.6807 -27.2448 -24.1704 -16.5562 -16.0275 
-8.408501 -9.34 -7.1525 -1.934 -7.324501 -6.6585 -2.7415 -4.9385 -1.756 -3.074 -1.4985 -3.962 -4.1225 -6.6585 -2.7415 -4.3155 -3.325 -1.4985 -3.4985 -1.7565 -6.899 -4.257 -3.724 -3.6785 0 
-18.1925 -16.9097 -9.349 -8.871 -14.5126 -9.5905 -6.226501 -6.235001 -4.566 -4.6505 -4.324 -8.0635 -10.6885 -9.5905 -5.688 -6.3995 -3.898 -4.798 -4.622 -8.5275 -9.082001 -8.280001 -6.659 -3.6785 
-25.7622 -19.1062 -16.5474 -16.4493 -17.4446 -13.1719 -7.178 -9.324 -5.66 -7.445 -8.144001 -15.0557 -13.6205 -12.6334 -7.535501 -6.969501 -5.8625 -5.425 -12.063 -10.688 -13.1962 -10.598 -6.659 
-27.9587 -26.3046 -24.1257 -19.3813 -21.026 -14.1234 -10.575 -10.46 -8.506001 -11.2906 -15.2026 -17.9877 -16.6634 -14.4809 -8.112 -8.278501 -5.8915 -13.1084 -14.2235 -14.8022 -15.5142 -10.598 
-35.1571 -33.8829 -27.0577 -22.9627 -21.9775 -17.5204 -11.711 -13.306 -12.4196 -18.3492 -18.1346 -21.0306 -18.5109 -15.0574 -9.3605 -8.291 -14.0489 -15.2689 -18.3377 -17.1202 -15.5142 
-3.5315 -2.855 0 -3.2615 -5.291 -1.4985 -9.34 -4.417 -2.4945 -1.934 -4.2775 -6.6585 0 -1.4985 -6.899 -3.5435 -4.3215 -2.3335 -3.962 -4.2775 -6.6585 -2.186 -3.325 -3.1435 -3.4985 0 
-5.499 -2.855 -3.2615 -7.3975 -5.949501 -10.4675 -14.1742 -6.4915 -4.2645 -5.5535 -10.862 -6.6585 -1.4985 -8.336 -8.7615 -6.5315 -5.1075 -6.1615 -8.141001 -10.862 -8.780001 -5.2405 -5.7535 -6.308001 -3.4985 
-5.499 -6.731 -7.3975 -7.9165 -15.5327 -15.3017 -16.2487 -8.774 -7.919001 -13.1084 -10.862 -8.7425 -8.336 -9.265 -11.9365 -7.214 -9.462501 -10.1305 -15.2469 -12.9835 -12.1427 -8.223001 -6.9385 -6.308001 
-8.875 -10.757 -7.9165 -17.7127 -20.3669 -17.3762 -18.5312 -12.6103 -15.9809 -13.1084 -12.946 -15.8418 -9.265 -12.4804 -12.619 -11.8236 -14.2073 -17.4868 -17.3684 -16.3462 -15.1252 -8.854 -6.9385 
-12.9792 -11.276 -17.7127 -22.5469 -22.4414 -19.6587 -22.3675 -20.6722 -15.9809 -15.1924 -20.0453 -16.7708 -12.4804 -13.1629 -17.2286 -16.5684 -21.5636 -19.6083 -20.7311 -19.3287 -15.7562 -8.854 
