-4.759 
n/a 
n/a 
n/a 
n/a 
-4.759 
n/a 
n/a 
n/a 
n/a 
-4.759 
n/a 
n/a 
n/a 
n/a 
-4.759 
n/a 
n/a 
n/a 
n/a 
-4.7475 -3.8275 -2.5045 -10.546 -5.1645 
-8.158001 -6.1095 -13.9679 -15.7105 
-10.259 -18.1365 -19.1324 
-22.286 -23.301 
-27.4505 
-4.7475 -5.965 -3.7015 -5.1645 -4.931 0 
-10.3745 -10.093 -9.2995 -10.7335 -4.931 
-14.5025 -15.8118 -15.0465 -10.7335 
-20.2213 -21.5588 -15.0465 
-25.9683 -21.5588 
-4.7475 -5.965 -5.1645 -4.8565 -4.866 
-10.3745 -11.117 -10.9575 -9.5705 
-15.5265 -16.91 -15.6715 
-21.3195 -21.624 
-26.0335 
-4.7475 -5.965 -4.931 -3.7015 -5.1645 
-10.3745 -11.7208 -6.0895 -9.2995 
-16.1303 -12.8793 -10.3745 
-17.2888 -17.1643 
-21.5738 
