-4.759 
n/a 
n/a 
n/a 
n/a 
-4.759 
n/a 
n/a 
n/a 
n/a 
-4.759 
n/a 
n/a 
n/a 
n/a 
-4.759 
n/a 
n/a 
n/a 
n/a 
-4.994 -3.9555 -3.898 -1.934 -4.4685 -3.355 0 -4.597 -3.54 -3.75 0 -1.7695 -4.994 -3.8445 -2.0935 -3.502 0 
-9.7605 -6.4915 -4.962501 -6.233 -8.378 -3.355 -4.597 -6.146 -7.6685 -3.75 -1.7695 -6.7145 -6.4965 -6.404 -5.7505 -3.502 
-12.3821 -7.857 -9.138 -9.959001 -8.378 -7.915001 -6.146 -9.8015 -7.6685 -5.794001 -6.7145 -8.154 -8.845 -10.115 -5.7505 
-13.7476 -12.1959 -13.1076 -9.959001 -13.6076 -8.889501 -9.8015 -9.8015 -9.986 -11.1782 -8.154 -10.5035 -13.152 -10.115 
-18.0865 -16.1655 -13.1076 -16.0268 -14.5821 -12.9564 -9.8015 -12.3362 -15.8658 -12.6177 -10.5035 -14.8105 -13.152 
-1.934 -3.304 -4.906 -4.25 -6.2775 -3.1635 -2.4945 -2.5195 -3.641 -1.756 -3.2815 -2.5195 -3.75 
-5.876 -7.524 -5.4735 -8.951 -9.89 -6.825 -5.2275 -5.91 -5.511001 -5.9675 -6.225 -6.0575 
-10.281 -7.5775 -9.046 -13.0301 -13.8299 -9.253 -8.473001 -7.982 -9.786 -8.337 -9.742001 
-10.3135 -12.3654 -13.2939 -16.97 -16.2579 -12.5233 -10.2755 -12.7756 -12.2269 -12.122 
-15.3252 -16.6133 -17.2338 -19.398 -19.5282 -14.3258 -15.0691 -15.2165 -16.0119 
-1.934 -2.5685 -1.4985 -4.994 -4.8385 -4.216 -6.2775 -3.1635 -2.4945 -1.934 -1.4985 -3.641 -1.756 -3.133 -1.934 -1.4985 -3.502 0 
-4.244 -3.7015 -6.1825 -11.0441 -6.712 -10.2755 -9.89 -6.825 -4.2645 -2.6125 -4.644 -5.511001 -5.5925 -5.598001 -2.6125 -4.5955 -3.502 
-5.3815 -8.731 -12.91 -12.9176 -13.0993 -13.888 -13.8299 -8.6105 -4.935 -5.3205 -5.9665 -9.312 -7.3985 -6.451 -5.258 -4.5955 
-9.620501 -15.6147 -14.7835 -19.3049 -16.7118 -17.8279 -15.6154 -9.109 -7.9375 -6.5435 -9.948001 -10.495 -8.02 -9.190001 -5.258 
-16.7034 -17.4882 -21.1708 -22.9174 -20.6517 -19.6134 -16.1139 -12.2291 -8.897 -10.167 -10.6135 -10.69 -10.292 -9.190001 
-3.9225 -1.4985 -3.304 -7.227 -4.25 -3.9555 0 -3.1635 -2.4945 -1.934 -3.641 -1.756 -3.133 -1.934 -3.502 
-4.463 -5.3485 -11.1415 -12.2462 -6.743 -3.9555 -3.1635 -6.825 -4.2645 -5.245 -5.511001 -5.5925 -5.598001 -4.8155 
-7.2815 -14.059 -16.1607 -14.7392 -6.743 -8.0005 -6.825 -8.6105 -8.166 -7.2185 -9.312 -7.3985 -8.913 
-16.6602 -19.0782 -18.6537 -14.7392 -10.6605 -12.1704 -8.6105 -12.5884 -9.9665 -12.1021 -10.495 -10.3155 
-21.6794 -21.5712 -18.6537 -18.6567 -14.8304 -13.9559 -12.5884 -14.3889 -14.7807 -13.2851 -13.7346 
