-4.759 
n/a 
n/a 
n/a 
n/a 
-4.759 
n/a 
n/a 
n/a 
n/a 
-4.759 
n/a 
n/a 
n/a 
n/a 
-4.759 
n/a 
n/a 
n/a 
n/a 
-7.8435 -4.245 0 -4.4175 -4.4205 0 -4.0305 -4.4385 0 
-10.841 -4.245 -4.4175 -8.436001 -4.4205 -4.0305 -8.785001 -4.4385 
-10.841 -9.633501 -8.436001 -8.436001 -8.4975 -8.785001 -8.785001 
-16.2295 -13.8478 -8.436001 -13.0908 -13.5108 -8.785001 
-20.4438 -13.8478 -13.0908 -18.1041 -13.5108 
-4.245 -1.7565 -7.8435 0 -4.4205 -5.804 0 -4.4385 -5.804 0 0 
-6.1035 -8.969001 -7.8435 -4.4205 -8.585501 -4.165 -4.4385 -8.717501 -4.165 0 
-13.9978 -8.969001 -12.8506 -7.9325 -7.9325 -9.087001 -8.301001 -8.301001 -4.165 
-13.9978 -14.2107 -16.3626 -7.9325 -12.8127 -10.2595 -8.301001 -8.301001 
-19.2395 -17.7227 -16.3626 -12.8127 -13.8967 -10.171 -8.301001 
-3.8905 -5.87 0 -4.747 -9.1675 -4.4385 0 
-10.9569 -5.87 -4.546 -14.4655 -14.419 -4.4385 
-10.9569 -11.2739 -11.645 -15.311 -11.885 
-16.3608 -17.0079 -14.2516 -14.2516 
-21.9213 -20.806 -14.0781 
-4.245 -1.7565 -5.547 0 -18.513 0 
-6.1035 -6.643001 -5.547 -19.1605 -19.1605 
-10.4765 -6.643001 -26.1377 -19.8809 
-10.4765 -27.1592 -26.1377 
-30.9927 -27.1592 
