-4.759 
n/a 
n/a 
n/a 
n/a 
-4.759 
n/a 
n/a 
n/a 
n/a 
-4.759 
n/a 
n/a 
n/a 
n/a 
-4.759 
n/a 
n/a 
n/a 
n/a 
0 -3.047 -1.4985 -5.934 -6.1985 -4.703 0 
-3.047 -4.095 -6.943501 -13.2413 -10.9075 -4.703 
-4.095 -10.2325 -14.5026 -17.9503 -10.9075 
-10.2325 -17.7916 -19.2116 -17.9503 
-17.7916 -22.5006 -19.2116 
0 -3.047 -7.466001 -5.5385 -3.998 0 
-3.047 -9.998 -13.5579 -10.4945 -3.998 
-9.998 -16.3567 -18.5139 -10.4945 
-16.3567 -21.3127 -18.5139 
-21.3127 -21.3127 
-3.322 -5.934 -5.0515 -4.1935 
-10.27 -7.920001 -8.245001 
-12.256 -8.3625 
-12.6985 
n/a 
0 -3.047 -2.3335 -7.466001 -4.814 -4.1935 0 0 
-3.047 -4.808 -10.533 -12.8334 -9.024 -4.1935 0 
-4.808 -13.3165 -15.9004 -17.0434 -9.024 -4.1935 
-13.3165 -18.6839 -20.1104 -17.0434 -9.024 
-18.6839 -22.8939 -20.1104 -17.0434 
