-4.759 
n/a 
n/a 
n/a 
n/a 
-4.759 
n/a 
n/a 
n/a 
n/a 
-4.759 
n/a 
n/a 
n/a 
n/a 
-4.759 
n/a 
n/a 
n/a 
n/a 
-5.298 -12.16972 -12.16972 -7.650001 -12.16972 
-18.25732 -24.33944 -19.81972 -20.23892 
-30.42704 -31.98944 -32.40864 
-38.07704 -44.57836 
-50.66596 
-4.247 -12.16972 -12.16972 -8.056001 -12.16972 
-16.70632 -24.33944 -20.22572 -20.41912 
-28.87604 -32.39544 -32.58884 
-36.93204 -44.75856 
-49.29516 
-5.843 -12.16972 -12.16972 -8.4055 -8.854 
-18.52612 -24.33944 -20.57522 -17.6091 
-30.69584 -32.74494 -29.77882 
-39.10134 -41.94854 
-48.30494 
-5.843 -12.16972 -12.16972 -8.056001 -12.16972 
-18.52612 -24.33944 -20.22572 -20.41912 
-30.69584 -32.39544 -32.58884 
-38.75184 -44.75856 
-51.11496 
