-4.759 
n/a 
n/a 
n/a 
n/a 
-4.759 
n/a 
n/a 
n/a 
n/a 
-4.759 
n/a 
n/a 
n/a 
n/a 
-4.759 
n/a 
n/a 
n/a 
n/a 
-3.766 -3.473 -6.844 -6.391 
-7.191 -11.251 -14.1736 
-15.564 -18.5806 
-22.8936 
n/a 
-4.2775 -3.522 0 -6.844 -4.676 
-7.317 -3.522 -6.844 -12.4586 
-7.317 -10.7335 -12.4586 
-14.9945 -17.2949 
-21.5559 
-5.707 -3.718 0 -7.383 -4.328 
-9.179001 -3.718 -7.383 -12.4532 
-9.179001 -12.003 -12.4532 
-17.6782 -17.0732 
-22.7484 
-3.7285 -4.584 0 -6.844 -3.711 
-8.2255 -4.584 -6.844 -10.3225 
-8.2255 -12.3952 -10.3225 
-16.1263 -15.8737 
-19.6048 
