-4.759 
n/a 
n/a 
n/a 
n/a 
-4.759 
n/a 
n/a 
n/a 
n/a 
-4.759 
n/a 
n/a 
n/a 
n/a 
-4.759 
n/a 
n/a 
n/a 
n/a 
-4.4715 -3.034 -1.4985 -4.9005 -1.934 -4.2085 -1.756 -1.4985 -3.4625 -1.7565 -3.873 -3.5785 -1.4985 -2.645 -5.127 -4.296 0 
-7.3255 -3.947 -7.252501 -6.489 -6.139 -5.729001 -3.0405 -4.940001 -4.9855 -5.002 -6.694 -5.4805 -4.4385 -7.2255 -7.829 -4.296 
-8.42 -9.558001 -9.972 -11.4334 -7.6035 -6.810501 -6.5685 -5.959001 -7.95 -8.0655 -8.559 -8.253501 -8.704 -10.281 -7.829 
-14.1144 -12.3137 -15.0868 -12.8979 -9.532501 -10.733 -7.4005 -8.774 -12.0723 -9.7775 -11.4206 -12.7626 -12.3095 -10.281 
-16.8701 -17.4285 -16.5513 -14.8269 -13.6106 -11.565 -9.922 -13.2151 -13.7843 -12.6391 -15.9297 -16.3681 -12.3095 
-5.127 -2.186 -1.4985 -2.9965 -4.5445 -3.436 -1.934 -1.4985 -3.995 
-6.702001 -3.339 -5.3455 -7.854501 -8.158001 -5.8855 -2.6125 -4.712 
-7.812 -7.5315 -9.347 -11.4082 -10.9127 -6.5755 -6.1055 
-12.6207 -11.6906 -13.2637 -14.1629 -11.6027 -9.218 
-16.7798 -15.6073 -16.0184 -14.8529 -14.2452 
-4.2055 -5.127 -4.2305 -1.4985 -4.138 -1.7565 -4.2085 -4.9345 0 
-9.3725 -9.151001 -5.232 -4.746 -5.1845 -5.647 -8.561501 -4.9345 
-13.5785 -10.7335 -7.125 -6.405 -10.3864 -9.420501 -8.561501 
-15.161 -12.6265 -9.922501 -11.5125 -14.1599 -9.420501 
-17.054 -15.424 -15.1104 -15.286 -14.1599 
-4.386 -1.7565 -5.127 -2.186 -5.6595 -3.433 -1.7565 -1.4985 -5.412 -1.7565 -4.2085 
-4.539 -6.071001 -6.702001 -6.5965 -8.899 -4.1845 -2.4195 -7.630501 -7.7685 -5.647 
-8.885501 -7.678 -8.591001 -9.591001 -9.398 -4.6515 -8.6885 -8.235001 -12.0652 
-10.703 -8.996501 -11.9437 -10.1165 -9.7735 -10.553 -9.795501 -12.8907 
-12.0215 -12.8338 -12.4692 -10.4265 -15.675 -11.66 -14.7282 
