-4.759 
n/a 
n/a 
n/a 
n/a 
-4.759 
n/a 
n/a 
n/a 
n/a 
-4.759 
n/a 
n/a 
n/a 
n/a 
-4.759 
n/a 
n/a 
n/a 
n/a 
-4.4225 -1.4985 -4.5845 -4.1335 -2.5045 -4.421 0 
-5.8545 -5.802501 -7.6905 -6.5795 -7.746 -4.421 
-9.9585 -8.712001 -9.8465 -12.5114 -7.746 
-12.868 -10.259 -16.1114 -12.5114 
-14.415 -16.9497 -16.1114 
-3.091 -4.421 -2.186 -4.5845 -4.1335 
-7.197001 -6.2505 -7.2475 -7.6905 
-8.771001 -11.94 -10.5035 
-14.6027 -15.196 
-17.8587 
-4.3805 -2.4265 -4.891 -4.1335 0 
-6.7405 -8.781501 -9.981001 -4.1335 
-13.4747 -14.1517 -9.981001 
-18.8449 -14.1517 
-18.8449 
-4.5845 -8.112 -2.5045 -4.98 
-13.8379 -10.4265 -7.9165 
-16.1524 -15.8385 
-21.5644 
n/a 
