-4.759 
n/a 
n/a 
n/a 
n/a 
-4.759 
n/a 
n/a 
n/a 
n/a 
-4.759 
n/a 
n/a 
n/a 
n/a 
-4.759 
n/a 
n/a 
n/a 
n/a 
-15.91072 -6.5785 -3.251 -3.1125 -9.5955 -4.645 -2.5045 -1.4985 -4.156 -1.7565 -1.4985 -5.9355 -3.6835 -3.2895 -3.9955 -1.934 -3.5315 -4.9455 0 
-23.05822 -9.345 -4.28 -14.299 -14.3987 -6.168001 -3.583 -4.9965 -5.161 -2.4195 -5.900001 -8.995001 -4.478 -5.96 -5.762 -5.027 -6.4085 -4.9455 
-25.82472 -10.689 -15.5851 -19.1022 -15.9217 -6.946001 -6.3435 -5.929 -5.796 -6.726 -8.3785 -7.4825 -6.0265 -7.6155 -8.033 -8.952001 -6.4085 
-27.16872 -21.9941 -20.3883 -20.6252 -16.6997 -9.348501 -7.324 -6.4475 -9.315001 -8.4975 -7.6625 -8.265 -7.665501 -10.001 -12.2528 -8.952001 
-38.47382 -26.7973 -21.9113 -21.4032 -19.1022 -10.0935 -7.833 -9.662001 -10.75 -8.602 -8.544001 -9.1955 -10.0605 -14.2208 -12.2528 
-3.5315 -3.279 0 -8.697001 -6.5785 -2.7415 -4.645 -2.5045 -1.4985 -2.688 -4.2245 -2.0935 -1.4985 -5.9355 -3.6835 -3.2895 -3.774 0 
-5.5205 -3.279 -8.697001 -15.9251 -8.842001 -5.6165 -6.168001 -3.583 -3.702 -6.3995 -6.008 -2.9725 -5.900001 -8.995001 -4.478 -6.5385 -3.774 
-5.5205 -12.5418 -15.9251 -18.1886 -10.7335 -6.704 -6.946001 -5.7095 -7.0435 -7.8585 -6.686501 -7.345 -8.3785 -7.4825 -6.6025 -6.5385 
-15.7427 -19.7699 -18.1886 -20.0801 -11.821 -7.329 -7.848501 -7.9725 -9.101501 -8.5485 -10.659 -9.209001 -7.6625 -8.408501 -6.6025 
-22.9708 -22.0334 -20.0801 -21.1676 -12.446 -8.212001 -9.402501 -9.863501 -9.596001 -12.8696 -12.8283 -9.374001 -8.6905 -8.381001 
-3.5315 -3.279 0 -8.679501 -2.7415 -4.645 -2.5045 -1.8085 -4.2245 -1.7565 -8.5705 -6.953001 -3.0695 -5.0075 -1.7695 -3.502 -4.2125 -8.35 0 
-5.5205 -3.279 -8.679501 -11.8096 -5.6165 -6.168001 -3.3625 -5.274 -5.277 -11.2762 -15.8465 -9.792001 -7.027 -5.113 -5.535 -5.1655 -14.1397 -8.35 
-5.5205 -12.5243 -11.8096 -14.6846 -6.704 -6.811501 -5.9975 -6.4595 -15.7169 -18.5522 -18.6855 -13.7495 -7.127 -8.576 -7.2425 -15.5331 -14.1397 
-15.7252 -15.6544 -14.6846 -15.7721 -7.254001 -9.621501 -7.192 -17.1154 -22.9929 -21.3912 -22.643 -13.8495 -11.303 -10.442 -17.8893 -15.5331 
-18.8553 -18.5294 -15.7721 -16.3221 -10.388 -10.2295 -17.9375 -24.3914 -25.8319 -25.3487 -22.743 -18.0255 -13.169 -21.0888 -17.8893 
-3.5315 -3.279 0 -3.502 -4.2125 -5.1845 -8.679501 -2.674 -3.1125 -3.917 -10.5565 -2.0935 -1.4985 -3.275 -1.7565 -4.1735 -3.774 -3.757 -2.3345 -1.4985 -4.1735 -3.774 0 
-5.5205 -3.279 -3.502 -5.1655 -9.883 -15.1584 -11.7421 -3.6315 -5.639 -15.6145 -12.65 -2.9725 -4.7845 -5.893 -6.146 -6.8725 -6.952001 -6.406 -3.233 -5.115 -6.8725 -3.774 
-5.5205 -7.1475 -5.1655 -9.935 -19.9629 -18.221 -12.6996 -6.112 -18.5479 -17.708 -13.529 -6.071001 -6.356 -9.0085 -9.341001 -11.1605 -10.238 -7.213 -6.362 -7.217 -6.8725 
-9.986 -8.826 -9.935 -20.0303 -23.0255 -19.1785 -15.1801 -19.1799 -20.6414 -18.587 -16.6275 -6.981501 -9.09 -12.8115 -13.4572 -14.4465 -11.667 -11.0608 -8.248501 -7.217 
-11.7317 -13.9853 -20.0303 -23.0929 -23.983 -21.659 -28.248 -21.2734 -21.5204 -21.6855 -17.538 -9.448501 -13.0836 -16.9277 -16.7432 -15.8755 -15.5148 -12.9473 -8.248501 
