-4.759 
n/a 
n/a 
n/a 
n/a 
-4.759 
n/a 
n/a 
n/a 
n/a 
-4.759 
n/a 
n/a 
n/a 
n/a 
-4.759 
n/a 
n/a 
n/a 
n/a 
-2.872 0 -1.4985 -5.4685 -2.186 -7.5405 -1.7695 -3.3715 -1.7565 -1.4985 -4.317 -3.959 0 
-2.872 -1.4985 -7.748 -7.0615 -8.8575 -9.0635 -5.0445 -4.3215 -2.4195 -5.569 -6.091001 -3.959 
-4.035 -7.748 -9.602501 -14.2142 -10.495 -12.5597 -5.9785 -4.7025 -6.3625 -7.505501 -6.091001 
-10.238 -9.602501 -16.7346 -15.8517 -13.9912 -13.4937 -6.2825 -8.4845 -8.141001 -7.505501 
-12.2031 -16.7346 -18.3721 -19.3479 -14.9252 -13.7977 -10.2805 -9.1785 -8.141001 
-2.872 -5.4685 -2.186 -4.4755 -1.7695 -3.3715 -3.959 -1.934 -3.994 -1.756 -3.5725 -6.0495 0 
-8.539501 -7.0615 -6.273001 -5.871 -5.0445 -5.699 -5.2625 -5.238 -5.313 -5.0135 -7.623001 -6.0495 
-9.098001 -10.7175 -8.0115 -7.869 -7.254 -6.806 -6.8705 -6.1495 -9.246 -9.3095 -7.623001 
-12.9516 -12.456 -10.2135 -8.597 -8.186001 -8.097501 -7.497 -9.719501 -13.572 -9.3095 
-14.6901 -14.658 -10.9415 -9.427501 -9.4305 -8.746 -11.5698 -14.0803 -13.572 
-12.16972 -2.186 -4.4695 -1.7695 -2.664 -2.5685 -1.4985 -3.959 0 
-14.35572 -6.053 -7.335 -4.185 -5.128 -3.7015 -5.5 -3.959 
-18.22272 -8.607 -10.2755 -6.5105 -7.817 -6.597 -5.5 
-20.77672 -11.6905 -12.601 -9.608001 -11.0201 -6.597 
-23.86022 -14.016 -15.6985 -13.0047 -11.0201 
-3.433 -12.16972 -4.4755 -1.934 -3.994 -2.356 -4.1265 -4.4755 -4.3705 -3.8685 0 
-16.74772 -16.64522 -6.256 -5.238 -6.655 -7.409 -8.941 -10.3105 -6.844 -3.8685 
-21.22322 -18.42572 -8.998 -7.1675 -12.1816 -12.9853 -15.2098 -12.784 -6.844 
-23.00372 -21.16772 -11.0547 -12.9375 -17.7579 -19.2541 -17.6833 -12.784 
-25.74572 -23.22442 -16.8247 -18.5138 -24.0267 -21.7276 -17.6833 
