-4.759 
n/a 
n/a 
n/a 
n/a 
-4.759 
n/a 
n/a 
n/a 
n/a 
-4.759 
n/a 
n/a 
n/a 
n/a 
-4.759 
n/a 
n/a 
n/a 
n/a 
-3.5725 -4.7765 -5.06 -4.4175 -2.3615 -2.5045 -12.16972 -2.674 -1.4985 -4.7055 -3.7085 -1.4985 -3.9875 0 -4.7475 -2.4265 -12.16972 -3.9875 -1.7695 -3.8275 0 
-9.321501 -7.6335 -8.785001 -6.496 -5.006 -15.59162 -14.84372 -3.998 -5.5415 -9.0905 -4.704 -5.076 -3.9875 -4.7475 -6.0705 -15.79262 -16.15722 -4.6185 -5.686 -3.8275 
-12.2399 -12.1843 -10.703 -8.648001 -18.85992 -18.26562 -16.16772 -6.3915 -11.1575 -10.093 -7.945 -5.076 -9.0795 -6.0705 -20.61702 -19.78012 -16.78822 -7.706 -5.686 
-16.7907 -14.1023 -12.855 -22.98832 -21.53392 -19.58962 -18.56122 -12.9723 -12.16 -13.4448 -7.945 -9.953501 -10.404 -20.61702 -24.60452 -20.41112 -19.87572 -7.706 
-18.7087 -16.2543 -27.19532 -25.66232 -22.85792 -21.98312 -25.14202 -13.9748 -15.5118 -13.4448 -13.1993 -11.3648 -24.90512 -24.60452 -25.23552 -23.49862 -19.87572 
-4.065 -2.674 -2.645 -4.4095 -1.934 -2.8965 -4.415 0 -3.0415 -2.3615 -4.221 -2.186 -2.6165 -3.6845 -3.3235 -3.777 0 
-7.3585 -4.9565 -6.969001 -5.8555 -4.391 -6.1355 -4.415 -3.0415 -5.189 -6.219501 -5.819 -3.5105 -5.3745 -8.021501 -7.561 -3.777 
-9.683001 -8.292 -8.123001 -8.3415 -6.922 -6.1355 -7.564001 -5.189 -9.184 -7.0165 -7.266 -8.342501 -9.992001 -12.4102 -7.561 
-12.9997 -9.2255 -10.9082 -11.1879 -6.922 -8.776 -9.783001 -9.184 -9.525001 -8.363001 -12.4848 -13.2848 -14.5093 -12.4102 
-13.9332 -12.2945 -13.7546 -11.1879 -9.574 -10.9566 -13.8776 -9.525001 -11.0789 -14.1392 -17.4271 -17.8021 -14.5093 
-6.3805 -12.16972 -3.644 -2.3335 -2.925 -4.3455 -1.4985 -4.4095 -2.872 -3.1435 -2.6165 -4.031 -2.0935 -1.4985 -3.8275 
-19.20582 -15.81372 -4.989501 -4.0295 -6.5985 -5.183 -5.283 -6.7255 -5.3225 -5.3155 -7.1485 -4.8935 -2.9725 -4.726 
-22.84982 -17.15922 -6.717 -7.517 -7.5415 -8.124001 -8.5 -9.131001 -6.427 -10.292 -8.396501 -5.596 -6.304 
-24.19532 -18.88672 -10.503 -8.420501 -10.4035 -11.551 -11.1149 -10.7025 -11.6229 -11.54 -9.6475 -8.193001 
-25.92282 -22.67272 -11.7705 -11.4177 -13.7897 -14.1659 -12.6864 -15.8984 -12.8709 -12.791 -12.2445 
-2.872 -5.1095 -11.0905 -4.6845 0 -7.572001 -3.251 -3.519 -2.0935 -1.4985 -3.0835 -3.8685 0 -3.43 -1.4985 -2.6165 -1.4985 -4.031 -1.4985 -3.8275 0 
-8.686501 -16.5062 -15.775 -4.6845 -7.572001 -11.33 -6.976 -5.6555 -2.9725 -3.535 -6.3505 -3.8685 -3.43 -4.7635 -5.68 -4.2225 -4.771 -5.469 -4.726 -3.8275 
-20.2484 -21.1907 -15.775 -13.3015 -11.33 -15.055 -8.9215 -6.438 -4.594501 -6.757501 -6.3505 -7.873001 -4.7635 -8.827001 -7.564001 -6.8925 -6.239 -8.7755 -4.726 
-24.9329 -21.1907 -24.392 -17.0595 -15.055 -17.0005 -9.8225 -7.944 -8.533501 -6.757501 -10.733 -9.216001 -8.827001 -10.9058 -10.3815 -8.241 -9.276 -8.7755 
-24.9329 -29.8077 -28.15 -20.7845 -17.0005 -17.9015 -11.6505 -12.355 -8.533501 -11.3502 -12.076 -13.2795 -10.9058 -13.7233 -11.73 -11.4444 -9.276 
