-4.759 
n/a 
n/a 
n/a 
n/a 
-4.759 
n/a 
n/a 
n/a 
n/a 
-4.759 
n/a 
n/a 
n/a 
n/a 
-4.759 
n/a 
n/a 
n/a 
n/a 
-4.828 -4.9655 -4.834 -2.5645 -3.6885 -6.3565 -3.1335 -4.5675 -2.4945 -4.292 -1.7695 -3.676 -6.5955 -4.5225 -3.0835 -3.5015 
-8.389 -10.0645 -7.871 -6.764501 -9.8505 -7.493 -6.973001 -7.0795 -5.5465 -7.2155 -5.5605 -10.676 -9.0795 -7.541 -5.07 
-13.9464 -14.4543 -12.3726 -13.2355 -11.1 -12.9939 -9.557 -10.7175 -9.109 -11.4929 -12.0735 -12.6505 -12.3755 -10.5097 
-18.3362 -18.9559 -18.8436 -14.485 -16.6009 -15.5779 -13.3544 -14.28 -13.6622 -18.4823 -14.8654 -16.1171 -15.5456 
-22.8378 -25.4269 -20.0931 -19.9859 -19.1849 -19.3753 -16.9169 -18.8332 -20.6516 -20.7978 -18.332 -19.0156 
-3.4975 -4.328 -2.4945 -1.4985 -4.4665 -3.8445 -3.599 -3.1335 -1.934 -1.4985 -3.188 -3.518 -1.934 -4.6745 -1.4985 -4.73 -1.934 -3.299 -7.0155 -3.599 -3.6185 -2.186 -3.0835 0 
-6.924 -5.9755 -3.9315 -4.729 -8.701 -7.856 -6.259501 -5.0035 -2.6125 -3.619 -7.135 -5.322001 -5.963 -5.868 -5.8195 -6.66 -4.976501 -9.198001 -11.0865 -5.908 -6.3065 -5.597 -3.0835 
-8.414001 -7.582 -6.488 -8.964001 -13.1863 -11.0225 -7.870501 -5.602 -4.377 -7.6745 -8.526001 -9.4905 -7.652501 -9.526501 -7.601 -10.4855 -10.6845 -12.4409 -13.0539 -8.196501 -9.9455 -5.597 
-10.564 -9.9805 -10.634 -13.3899 -16.3528 -12.6335 -8.619 -7.252 -9.1745 -9.1035 -12.8957 -11.5684 -10.2865 -11.4718 -11.8999 -16.9189 -15.0666 -14.3533 -15.8532 -12.2239 -9.9455 
-12.9625 -14.1265 -15.0599 -16.5564 -17.9638 -13.382 -10.0885 -12.5197 -10.7901 -13.3926 -14.9736 -14.2024 -12.501 -15.7707 -18.3333 -21.0152 -16.6296 -17.1526 -19.8806 -12.2239 
-3.4975 -5.159 -3.6215 -2.186 -4.4435 -1.4985 -3.177 -2.5645 -4.4665 -5.4195 -2.9705 -4.6015 -1.4985 -4.138 -4.73 -4.194 -3.4975 -4.5225 -2.186 -1.4985 -6.492 -1.934 -2.3335 -3.254 0 
-8.434501 -9.7635 -5.5965 -5.901 -5.475 -4.0915 -5.078 -7.125 -7.862 -7.924001 -6.22 -5.477 -4.746 -8.1255 -6.9485 -8.6575 -5.712 -6.8245 -3.339 -6.689501 -8.701 -4.359 -5.9025 -3.254 
-13.4164 -11.7573 -7.8605 -6.945 -8.013 -6.02 -8.496 -11.4399 -12.3975 -11.5561 -6.785501 -8.355 -8.904 -8.634501 -11.9962 -10.209 -7.617001 -7.645 -8.127501 -9.366501 -11.58 -7.020501 -5.9025 
-15.4102 -14.0213 -9.497001 -9.658 -10.634 -8.908501 -13.1903 -15.9754 -16.0296 -12.1216 -9.698501 -13.0856 -9.458 -14.1592 -13.5477 -12.114 -8.307 -13.2629 -10.028 -12.3439 -14.2415 -7.020501 
-17.6742 -15.6578 -12.5054 -12.4902 -13.5225 -13.8866 -17.7258 -19.6075 -16.5951 -15.0346 -14.8283 -13.6396 -14.9095 -15.7107 -15.4527 -12.804 -14.5911 -15.1634 -13.4914 -15.0054 -14.2415 
-1.4985 -3.177 -2.5645 -3.17 -2.847 -1.7565 -4.9655 -4.504 -2.3345 -1.4985 -4.5225 -3.09 -2.4945 -3.4975 -3.402 -3.599 -3.09 -3.4975 -4.5225 -2.186 -1.4985 -3.177 -3.17 -2.871 0 
-4.0915 -5.078 -6.0905 -7.391 -5.1435 -6.0835 -7.5345 -5.813 -3.233 -6.244 -8.0245 -4.9945 -6.649 -6.887 -7.1855 -6.481501 -6.5625 -5.712 -6.8245 -3.339 -4.0915 -6.564 -6.382 -2.871 
-6.02 -6.8615 -10.389 -9.277 -7.739501 -7.964 -8.400001 -6.3695 -7.453001 -9.772 -10.243 -10.016 -9.276 -10.702 -10.553 -10.1635 -8.910501 -7.617001 -7.645 -6.1245 -6.934501 -9.184 -6.382 
-7.659 -11.8788 -10.61 -11.9988 -10.494 -8.679501 -9.1945 -10.0675 -11.3382 -12.1011 -15.2645 -12.643 -13.3012 -14.0695 -14.235 -13.1673 -10.348 -8.307 -10.064 -8.0645 -9.252501 -9.184 
-12.7855 -12.0998 -14.4144 -14.7533 -11.2095 -9.4565 -10.661 -14.0353 -13.6673 -17.1226 -17.8915 -16.6682 -16.6687 -17.7515 -17.2388 -14.6048 -11.3874 -11.3922 -12.3232 -10.341 -9.252501 
