-4.759 
n/a 
n/a 
n/a 
n/a 
-4.759 
n/a 
n/a 
n/a 
n/a 
-4.759 
n/a 
n/a 
n/a 
n/a 
-4.759 
n/a 
n/a 
n/a 
n/a 
-7.045001 -3.2955 -2.688 -3.586 -4.1145 -1.7695 -3.7115 -3.1385 -4.37 -1.7695 -3.4265 -1.756 -3.6205 -3.352 -3.6815 0 
-10.4595 -5.6755 -3.615 -9.333501 -6.6525 -4.7765 -6.0295 -7.085501 -6.63 -5.1505 -4.4745 -5.532001 -7.151 -6.852 -3.6815 
-13.0597 -8.1425 -9.3715 -12.0563 -9.495001 -6.499001 -9.373 -9.259001 -9.948 -5.9 -7.3625 -9.2945 -11.2902 -6.852 
-15.5267 -14.3362 -12.1163 -14.8988 -10.0725 -9.831501 -11.3813 -12.627 -11.0489 -8.239 -11.5564 -13.5695 -11.2902 
-21.7204 -17.081 -14.9588 -15.4763 -13.63 -11.7776 -14.7493 -13.7279 -13.3879 -12.8881 -15.8314 -13.5695 
-2.688 -3.586 -4.1145 -3.2955 -1.7695 -3.0465 -1.4985 -3.845 0 -4.3615 -2.0935 -3.352 -4.4075 -2.3345 -12.16972 
-3.615 -9.333501 -8.456 -3.9425 -3.683 -4.046 -5.201 -3.845 -4.3615 -6.372001 -5.096 -6.748 -6.9595 -14.83482 
-9.3715 -13.8598 -9.248 -6.146 -4.634 -8.6785 -5.201 -8.277 -6.372001 -9.9755 -8.351501 -9.363001 -20.02602 
-13.9198 -14.6518 -11.6851 -6.937 -8.976501 -8.6785 -10.243 -10.4345 -9.9755 -13.3098 -11.4443 -22.51512 
-14.7118 -17.0889 -12.4761 -11.4741 -8.976501 -13.8413 -12.5387 -14.3278 -13.3098 -16.4026 -24.59642 
-9.469501 -3.2955 -1.4985 -4.1145 -1.7695 -4.879 -1.756 -3.4265 -1.4985 -3.6815 -2.0935 -4.622 -3.2875 -2.3345 -4.672 -1.4985 -3.237 -1.7695 -2.3335 -3.6205 
-12.9942 -4.8715 -5.3525 -6.6525 -5.382 -6.2645 -4.914001 -5.29 -4.9615 -5.993 -6.6965 -5.7545 -5.8675 -6.831 -5.493501 -4.1875 -5.6115 -4.46 -6.247 
-14.5702 -8.725 -7.401 -10.6095 -6.6185 -8.913 -6.6335 -8.7235 -6.853 -9.887501 -7.213 -8.116 -10.103 -7.6125 -7.494 -5.767 -8.670501 -7.6155 
-18.4237 -9.5845 -11.8132 -11.846 -9.173 -10.0605 -10.0405 -10.4595 -10.9421 -9.905001 -10.2579 -12.8607 -10.8845 -8.901 -9.7005 -8.963 -12.3064 
-19.2832 -14.0199 -13.0497 -14.4005 -10.3165 -13.4675 -11.7765 -14.8456 -10.9596 -13.6327 -15.0026 -13.6422 -12.173 -11.4425 -12.9431 -12.6793 
-4.426 -1.7565 -1.4985 -3.0835 -4.7285 -4.1555 -3.147 -3.352 -5.6375 -1.7565 -3.4265 -1.756 -3.1385 -2.688 -3.586 -5.675 -4.079 0 
-5.47 -2.4195 -3.535 -6.042 -8.4455 -5.77 -6.9335 -9.637001 -8.612 -5.329 -4.4745 -5.0125 -6.557 -3.615 -9.395 -11.08 -4.079 
-5.9535 -4.6785 -6.335501 -9.523001 -9.541501 -9.4685 -13.8075 -12.6995 -12.3887 -6.1445 -8.495001 -8.320001 -7.423 -9.502001 -15.0328 -11.08 
-8.021 -7.476501 -10.0095 -10.7035 -13.24 -16.4097 -16.87 -16.4762 -13.2042 -10.2225 -12.1605 -9.063001 -13.7938 -15.2296 -15.0328 
-9.983001 -11.3061 -11.3 -14.402 -20.1812 -19.4722 -20.6467 -17.2917 -17.2822 -13.888 -12.9035 -15.7368 -19.5214 -15.2296 
