-4.759 
n/a 
n/a 
n/a 
n/a 
-4.759 
n/a 
n/a 
n/a 
n/a 
-4.759 
n/a 
n/a 
n/a 
n/a 
-4.759 
n/a 
n/a 
n/a 
n/a 
-4.247 -2.7835 -4.891 
-7.2695 -8.737501 
-13.4675 
n/a 
n/a 
-6.144 -2.229 -4.101 -4.0395 0 
-7.4565 -5.734 -6.463 -4.0395 
-10.459 -7.8745 -6.463 
-12.5995 -7.8745 
-12.5995 
-4.101 -4.0395 -1.7565 -5.3745 -4.5845 
-6.463 -4.862 -6.5 -9.233001 
-6.849 -10.0929 -10.6095 
-12.4755 -14.2024 
-16.585 
-4.891 -4.101 -4.0395 0 
-10.6095 -6.463 -4.0395 
-12.9715 -6.463 
-12.9715 
n/a 
