-4.759 
n/a 
n/a 
n/a 
n/a 
-4.759 
n/a 
n/a 
n/a 
n/a 
-4.759 
n/a 
n/a 
n/a 
n/a 
-4.759 
n/a 
n/a 
n/a 
n/a 
0 -2.0935 -3.668 -13.598 0 -2.4285 -3.7345 -3.7095 
-2.0935 -3.995 -16.378 -12.159 -2.4285 -6.2605 -9.3625 
-3.995 -14.9081 -14.6831 -12.3025 -6.2605 -12.6837 
-15.0663 -15.0663 -16.7521 -16.148 -12.6837 
-15.0663 -17.1353 -20.5976 -22.7638 
-3.668 -3.4165 -15.2045 -6.979001 -2.4285 -4.202 0 
-7.712501 -18.5108 -22.0733 -9.5205 -6.8215 -4.202 
-23.4104 -24.4325 -24.3787 -14.0139 -6.8215 
-29.1593 -26.3395 -28.8721 -14.0139 
-31.0663 -30.8329 -28.8721 
0 -2.0935 -4.3555 -4.809 -1.7565 -4.947 0 -2.4285 -4.482 -4.126 
-2.0935 -4.763 -10.0285 -5.7605 -6.7485 -4.947 -2.4285 -6.852 -9.2475 
-4.763 -10.2645 -10.98 -11.3011 -6.7485 -7.791 -6.852 -11.9477 
-10.2645 -11.216 -16.5206 -11.3011 -9.589001 -12.5123 -11.9477 
-11.216 -16.7566 -16.5206 -14.1416 -14.3673 -17.608 
0 -2.0935 -3.668 -13.921 0 -2.4285 -4.4525 -3.518 
-2.0935 -3.995 -17.5555 -13.587 -2.4285 -6.9065 -9.196001 
-3.995 -18.068 -17.9585 -16.1214 -6.9065 -11.9172 
-18.104 -18.104 -20.2895 -21.322 -11.9172 
-18.104 -20.435 -25.4901 -26.3327 
