-4.759 
n/a 
n/a 
n/a 
n/a 
-4.759 
n/a 
n/a 
n/a 
n/a 
-4.759 
n/a 
n/a 
n/a 
n/a 
-4.759 
n/a 
n/a 
n/a 
n/a 
-3.7895 -1.934 -5.094 -4.157 -4.528 -1.934 -1.4985 -4.0325 -4.602 -4.153 -2.356 -1.4985 -3.0785 -1.7565 -1.4985 -3.4425 -1.7565 -5.094 -4.2745 0 -5.147 -4.5675 -5.5105 -3.8135 -3.152 -4.196 -3.3155 -2.5685 -4.418 -3.1425 -2.489 -4.7075 -1.934 -5.094 
-4.5695 -6.9715 -10.382 -6.36 -6.1035 -2.6125 -4.801001 -6.6885 -5.112 -6.4075 -3.1615 -4.779 -5.1815 -2.4195 -4.548 -4.3385 -6.6375 -7.451 -4.2745 -5.147 -6.759501 -10.368 -7.877501 -6.238 -6.0035 -7.458 -5.548 -5.75 -7.349 -3.7875 -5.793 -5.72 -6.9715 
-9.2115 -10.609 -10.6095 -7.102 -6.5915 -5.2565 -6.955501 -6.741 -7.16 -7.042001 -5.297501 -5.2205 -6.0005 -5.513 -4.8815 -7.4755 -7.4925 -7.451 -9.544001 -6.759501 -10.586 -10.5755 -9.854501 -7.994501 -8.894501 -9.264 -9.040001 -9.163 -7.920001 -7.6815 -6.596 -9.786 
-10.6105 -10.629 -10.641 -7.5835 -8.883501 -7.360001 -7.009 -8.9455 -8.0115 -8.9215 -5.3145 -6.031 -8.937 -5.8045 -7.858 -7.4965 -7.4925 -10.5975 -10.588 -10.586 -10.6165 -10.627 -10.332 -10.142 -10.419 -10.61 -10.419 -9.577001 -9.684501 -8.341001 -10.4505 
-10.6305 -10.649 -10.661 -9.524 -9.998001 -7.414001 -8.977501 -9.4805 -9.7635 -8.9265 -6.127 -8.958 -9.062 -8.652 -7.8665 -7.4965 -10.609 -10.617 -10.6185 -10.6165 -10.636 -10.6585 -10.396 -10.6155 -10.6225 -10.63 -10.5265 -10.47 -10.0735 -10.6085 
-1.4985 -4.579 -2.7415 -4.548 -2.264 -3.531 -3.1205 0 -5.677 0 -2.3345 -1.4985 -4.868 -4.372 -1.934 -6.73 -2.7415 -4.629 -1.4985 -3.4635 -3.158 -1.756 -2.4265 -4.164 -3.222 -3.9675 -3.59 -3.325 -3.7745 -3.5435 
-4.988 -6.503 -5.784 -6.343 -4.8755 -5.4665 -3.1205 -5.677 -5.677 -2.3345 -3.233 -5.6315 -6.457 -5.855 -8.416 -9.380001 -6.033 -5.827 -3.6265 -5.7285 -4.703 -3.949 -6.3095 -6.4655 -8.759501 -7.609 -6.7565 -7.475 -5.717 
-6.820001 -7.4955 -7.120501 -8.079 -6.4175 -5.4665 -7.895 -5.677 -7.9895 -3.233 -7.155 -6.958001 -7.655 -9.9645 -9.229501 -11.4905 -7.781 -7.9505 -5.7395 -7.087501 -6.353001 -7.4145 -8.450001 -12.2524 -12.7374 -11.6131 -10.7335 -8.495501 
-7.860001 -8.76 -8.700001 -9.3055 -6.4175 -8.068501 -7.895 -7.9895 -8.751 -7.155 -8.489 -8.046 -10.172 -10.9855 -11.9854 -13.5679 -9.2935 -9.700001 -7.0965 -8.9195 -9.8295 -9.700001 -14.4793 -16.2303 -16.7415 -15.5901 -11.754 
-9.465501 -9.6645 -9.5375 -9.3055 -8.3725 -8.068501 -9.4475 -8.751 -9.745 -8.489 -9.425501 -10.4474 -12.0797 -14.0738 -13.923 -14.8579 -10.0165 -11.4286 -8.922001 -12.4476 -12.2552 -15.8649 -18.4572 -20.2344 -20.7185 -16.6106 
-3.321 -3.676 -2.7415 -3.0465 -3.3235 -4.09 -3.5435 0 
-7.6245 -6.2495 -7.0885 -5.6225 -5.9935 -8.574501 -3.5435 
-9.273001 -10.9069 -10.068 -10.0605 -9.5635 -8.574501 
-14.0204 -13.8864 -14.6176 -13.7367 -9.5635 
-16.9999 -18.436 -18.2938 -13.7367 
-2.264 -3.531 -3.1205 0 -5.677 -1.4985 -4.1385 -3.794 -1.4985 -4.5175 -3.5035 -2.7415 -4.5485 -3.402 -2.264 -2.3335 0 -2.5685 -1.4985 -3.468 -3.918 -3.894 -1.7695 -3.519 -1.8085 -3.7285 -3.59 -3.325 -1.8085 -4.0205 -3.9675 -3.5435 0 
-4.8755 -5.4665 -3.1205 -5.677 -7.362 -5.0575 -8.274 -5.0895 -6.087 -7.652 -5.9375 -5.5565 -7.6245 -3.793 -4.6785 -2.3335 -2.5685 -3.7015 -5.0815 -7.276501 -6.265 -5.0415 -4.951 -5.0845 -4.2045 -6.758 -6.7565 -4.692 -4.688 -8.440001 -7.7955 -3.5435 
-6.4175 -5.4665 -7.895 -7.362 -11.3994 -9.002001 -9.527501 -9.174001 -9.903501 -10.316 -9.185 -8.6285 -7.6715 -6.160501 -4.6785 -4.5535 -3.7015 -6.76 -8.780001 -8.9645 -6.808001 -6.3285 -5.4345 -6.865 -7.101 -9.7325 -7.934 -7.8155 -8.916 -12.587 -7.7955 
-6.4175 -8.068501 -8.768001 -11.3994 -15.3439 -9.701501 -13.9688 -13.4613 -12.6061 -13.5635 -12.2698 -8.678 -9.9375 -6.160501 -7.6855 -5.5235 -6.76 -10.8595 -10.2865 -9.372001 -7.4865 -6.692 -7.080501 -9.974 -9.818001 -11.077 -10.3675 -12.4601 -13.2006 -12.587 
-8.3725 -8.8575 -13.2818 -15.3439 -16.0434 -14.509 -18.2561 -16.1639 -15.8536 -16.6483 -12.3193 -10.2595 -9.9375 -9.465 -8.6005 -8.4125 -10.8595 -12.366 -10.727 -9.912001 -8.0085 -7.9125 -10.1985 -12.691 -11.2187 -13.5105 -15.0121 -16.7447 -13.2006 
