-4.759 
n/a 
n/a 
n/a 
n/a 
-4.759 
n/a 
n/a 
n/a 
n/a 
-4.759 
n/a 
n/a 
n/a 
n/a 
-4.759 
n/a 
n/a 
n/a 
n/a 
-3.5455 -5.633 -1.4985 -5.409 -2.3335 -5.083 -2.5195 -5.0295 -1.7695 -5.5805 -6.3495 -1.4985 -8.177 -4.5085 -8.1575 
-7.102 -7.064001 -6.511001 -7.588 -6.804501 -6.6985 -6.453 -7.1265 -8.0305 -11.142 -6.885 -9.9835 -12.9755 -13.0058 
-8.428 -9.887501 -8.393001 -12.5556 -8.009501 -11.2226 -9.726501 -9.08 -13.856 -11.6775 -15.941 -14.782 -21.4728 
-10.7175 -11.8367 -13.5358 -13.7606 -12.8056 -14.4961 -11.8052 -15.3351 -14.3915 -20.7335 -20.7395 -23.2793 
-12.6667 -16.9795 -14.7408 -18.5567 -16.0791 -16.5748 -18.0603 -15.8706 -23.4475 -25.532 -29.2368 
-3.8315 -3.5215 -1.7565 -6.041 -3.8015 -1.756 -4.1105 -4.5605 -4.1555 -1.756 -3.737 -1.4985 -4.748 -3.307 -1.7565 -4.215 0 
-8.743501 -5.1615 -8.3605 -9.887501 -5.6205 -5.9565 -8.7845 -9.375 -6.379001 -5.2025 -4.7615 -5.802501 -9.208 -4.8035 -6.14 -4.215 
-10.004 -12.6055 -12.4688 -11.8343 -10.6552 -11.1515 -14.224 -11.7735 -9.953501 -6.271 -9.221001 -9.4165 -11.0409 -9.405001 -6.14 
-17.8918 -16.7138 -14.4156 -16.869 -15.8502 -16.591 -16.6225 -15.348 -11.1732 -10.76 -12.851 -11.778 -15.6424 -9.405001 
-22.0001 -18.6606 -19.4503 -22.064 -21.2897 -18.9895 -20.197 -16.5677 -15.6622 -14.39 -15.2125 -16.3795 -15.6424 
-3.5455 -4.361 -5.633 0 -5.409 -2.5195 -1.4985 -4.1455 -7.2175 -2.742 -3.717 -3.222 -1.4985 -4.1105 -2.229 -5.5805 -1.756 -4.0545 -3.736 
-7.0065 -6.104 -5.633 -5.409 -7.152 -3.1695 -5.503 -9.778 -10.3965 -6.038 -5.268001 -3.7835 -5.1575 -5.194 -7.128 -6.7505 -5.0155 -8.262501 
-7.4705 -6.104 -9.3575 -7.152 -7.7805 -7.217 -11.6723 -12.9784 -13.6925 -6.758501 -6.162001 -7.638 -6.0855 -7.785501 -8.172 -10.7674 -9.4025 
-7.4705 -9.736 -11.2905 -7.7805 -8.970501 -13.7275 -14.8727 -16.2744 -14.413 -7.711 -10.3035 -7.807001 -8.377001 -8.696501 -12.3423 -15.1544 
-10.204 -11.7362 -11.919 -8.970501 -15.7378 -16.9279 -18.1687 -16.9949 -15.3655 -12.0025 -10.357 -8.882501 -9.1415 -13.0374 -16.7293 
-1.4985 -5.831 -1.7565 -3.6385 -3.5455 -5.633 0 -4.066 -2.9905 -1.7565 -5.0295 -1.756 -3.717 -3.222 -4.748 -1.756 -3.2345 -6.594501 
-6.965 -7.712501 -5.035 -7.1285 -7.102 -5.633 -4.066 -5.3895 -3.6185 -6.8935 -6.613 -5.358 -5.268001 -7.6855 -6.181 -4.5715 -11.1992 
-8.068501 -10.2865 -8.536 -9.903501 -7.102 -9.794001 -5.3895 -6.067 -8.6645 -8.3835 -10.354 -6.736 -10.7467 -9.032001 -9.040501 -13.122 
-10.4765 -13.7875 -11.5902 -9.903501 -11.522 -11.1565 -6.067 -10.647 -10.9149 -12.3985 -12.1386 -12.2827 -12.0932 -12.3155 -17.838 
-13.9775 -16.8417 -11.5902 -14.3235 -12.8845 -11.834 -10.647 -12.8974 -14.9299 -14.1831 -17.6853 -13.6292 -15.3767 -21.113 
