-4.759 
n/a 
n/a 
n/a 
n/a 
-4.759 
n/a 
n/a 
n/a 
n/a 
-4.759 
n/a 
n/a 
n/a 
n/a 
-4.759 
n/a 
n/a 
n/a 
n/a 
-5.1845 -6.844 -2.186 -2.664 -5.3965 
-6.9655 -8.728001 -3.8555 -6.2255 
-8.945001 -10.674 -6.8395 
-10.8728 -13.658 
-13.8568 
-5.1845 -6.844 -2.186 -3.098 -1.8085 -5.0725 -4.339 0 
-6.9655 -8.728001 -4.5535 -4.5555 -6.6645 -9.2885 -4.339 
-8.945001 -11.3201 -5.447 -9.634501 -10.459 -9.2885 
-11.5189 -12.2136 -10.1185 -13.8098 -10.459 
-12.4124 -16.8851 -14.334 -13.8098 
-10.7545 -2.186 -3.5095 -7.126 
-12.9405 -7.078501 -11.1415 
-17.833 -15.0063 
-25.7608 
n/a 
-5.1845 -8.628 -2.186 -2.664 -6.242 -1.7565 -4.414 0 
-9.059501 -10.2815 -3.8555 -10.4675 -7.7515 -6.387001 -4.414 
-10.7335 -11.951 -12.2342 -11.977 -13.0798 -6.387001 
-12.403 -20.3297 -13.7437 -17.3053 -13.0798 
-20.7817 -21.8392 -19.072 -17.3053 
