-4.759 
n/a 
n/a 
n/a 
n/a 
-4.759 
n/a 
n/a 
n/a 
n/a 
-4.759 
n/a 
n/a 
n/a 
n/a 
-4.759 
n/a 
n/a 
n/a 
n/a 
-2.9805 -4.4895 -2.5045 -3.3195 -3.819 -1.934 -1.4985 -3.158 -4.613 -2.5195 -1.4985 -3.7955 -9.541 0 
-6.522 -6.1555 -6.371 -6.1505 -5.8935 -2.6125 -4.178 -7.015 -7.465501 -3.1695 -4.78 -14.4961 -9.541 
-8.703 -10.5975 -7.2735 -7.943501 -6.6025 -5.265 -8.088 -9.943001 -7.930501 -6.1695 -15.7758 -14.4961 
-13.2916 -11.5 -8.763 -8.793 -9.2285 -8.584001 -10.1545 -10.2425 -11.4113 -17.4333 -15.7758 
-14.1941 -12.9895 -9.814501 -11.5762 -12.7201 -10.2925 -10.293 -14.1575 -22.6751 -17.4333 
-2.9805 -2.7415 -4.4895 -2.5045 -3.3195 -3.819 -2.0935 -3.091 -3.0835 -3.8195 -12.16972 -1.934 -4.613 0 
-4.004 -5.4595 -6.1555 -6.371 -6.1505 -5.4395 -4.5345 -4.956 -6.305 -17.04662 -14.10372 -5.7765 -4.613 
-7.117001 -6.9455 -10.5975 -7.2735 -7.55 -7.917001 -6.3865 -7.248 -20.01752 -18.98062 -17.94622 -5.7765 
-8.227 -11.6569 -11.5 -8.2675 -9.723001 -9.935 -8.6485 -21.11752 -21.95152 -22.82312 -17.94622 
-12.9858 -12.5594 -12.494 -10.7175 -11.8586 -12.2998 -22.61162 -23.05152 -25.79402 -22.82312 
-2.9805 -2.7415 -4.4895 -2.5045 -1.8085 -3.3195 -3.819 -1.934 -4.613 -1.934 -1.4985 -3.8195 0 -9.675501 0 
-4.004 -5.4595 -6.1555 -3.3625 -5.6155 -6.1505 -5.8935 -5.7765 -6.638 -2.6125 -4.771 -3.8195 -9.675501 -9.675501 
-7.117001 -6.9455 -6.7905 -6.882 -7.8865 -7.943501 -8.919001 -7.2615 -7.603001 -5.7325 -4.771 -10.985 -9.675501 
-8.227 -7.351501 -10.677 -8.5235 -9.238501 -10.7175 -10.3545 -8.1035 -10.533 -5.7325 -12.4367 -10.985 
-8.966001 -11.3474 -12.3185 -9.6555 -12.1603 -12.153 -11.1965 -10.7175 -10.533 -13.514 -12.4367 
-1.934 -4.613 0 -2.9805 -3.7555 -4.4895 -2.5045 -1.8085 -3.3195 -3.819 -1.934 -1.4985 -3.7955 -9.541 0 
-5.7765 -4.613 -2.9805 -5.3095 -7.628 -6.1555 -3.3625 -5.6155 -6.1505 -5.8935 -2.6125 -4.78 -14.4961 -9.541 
-5.7765 -6.890501 -5.3095 -9.1555 -9.661 -6.7905 -6.882 -7.8865 -7.943501 -6.6025 -5.797501 -15.7758 -14.4961 
-7.1115 -9.535001 -9.1555 -11.6539 -10.2205 -10.677 -8.5235 -9.238501 -8.793 -9.446 -17.0651 -15.7758 
-9.7805 -13.7274 -11.6539 -12.2134 -14.2506 -12.3185 -9.6555 -9.818501 -11.7937 -20.8834 -17.0651 
