-4.759 
n/a 
n/a 
n/a 
n/a 
-4.759 
n/a 
n/a 
n/a 
n/a 
-4.759 
n/a 
n/a 
n/a 
n/a 
-4.759 
n/a 
n/a 
n/a 
n/a 
-6.816 -3.321 -4.878 -1.8085 -4.308 -4.2605 -1.934 -4.7235 -3.433 -1.7565 -1.4985 -4.948 -4.9315 -4.6075 
-10.051 -9.314501 -6.2205 -5.058 -7.1885 -5.3385 -5.915 -8.014 -4.1845 -2.4195 -5.4175 -8.280001 -6.9075 
-16.3797 -10.311 -8.116 -7.6065 -8.3955 -8.1385 -8.559 -8.568501 -4.6515 -6.014501 -8.717001 -9.978001 
-17.3762 -12.2065 -10.2035 -8.96 -11.3007 -11.0417 -9.039001 -9.092001 -8.6895 -9.199 -10.5635 
-19.2717 -14.294 -11.557 -11.9184 -14.2039 -11.5217 -9.4895 -13.192 -11.9478 -11.0711 
-4.712 -4.878 -1.8085 -4.308 -4.462 -2.0935 -4.3415 -4.319 -1.934 -4.7235 -3.7015 -1.4985 -4.948 -4.348 0 
-8.736 -6.2205 -5.058 -8.3545 -6.301001 -5.9785 -9.318501 -6.011 -5.915 -8.5675 -4.3435 -5.4175 -7.273001 -4.348 
-9.567 -8.116 -8.9895 -9.948 -10.459 -11.6275 -11.2851 -9.521501 -9.132001 -9.0705 -7.199 -8.048 -7.273001 
-11.7921 -12.5531 -10.543 -14.1634 -16.108 -13.5941 -14.7956 -12.8037 -9.552501 -12.2538 -9.261001 -8.048 
-16.2292 -14.1066 -14.7584 -19.8124 -18.0746 -17.1046 -18.0778 -13.2242 -12.9322 -14.3158 -9.261001 
-4.7235 -12.16972 -5.624 -2.871 -1.7565 -4.6345 -3.6885 -1.7695 -4.102 -4.712 0 
-18.01762 -17.79372 -8.553 -3.5385 -6.1305 -7.933 -5.699 -4.775 -10.459 -4.712 
-23.64162 -20.72272 -9.058001 -9.255 -10.0872 -9.874001 -8.6665 -10.76 -10.459 
-26.57062 -21.22772 -15.1925 -13.5633 -12.0282 -12.8779 -14.7521 -10.76 
-27.07562 -27.36222 -19.5008 -15.5043 -15.0321 -18.9635 -14.7521 
-2.356 -5.549 -4.4095 -1.934 -4.7235 
-8.39 -10.647 -5.8555 -5.915 
-13.6388 -12.093 -10.228 
-15.0848 -16.4655 
-19.4573 
