-4.759 
n/a 
n/a 
n/a 
n/a 
-4.759 
n/a 
n/a 
n/a 
n/a 
-4.759 
n/a 
n/a 
n/a 
n/a 
-4.759 
n/a 
n/a 
n/a 
n/a 
-1.934 -5.1845 -2.925 -2.674 -5.339 -3.222 -3.535 -4.414 
-6.564 -9.114 -4.1785 -8.909 -7.0465 -7.014 -8.254001 
-9.625501 -10.1995 -10.575 -10.9795 -11.4795 -12.261 
-10.599 -16.596 -12.6455 -15.4125 -16.7265 
-16.9955 -18.6665 -17.0785 -20.6595 
-5.1845 -3.098 -3.9355 -2.8645 -4.794 -2.3345 -3.2495 -12.16972 
-8.495501 -7.7695 -7.2095 -7.3425 -5.291 -5.238 -16.47422 
-13.7018 -11.5843 -11.9513 -9.9665 -7.7295 -18.72772 
-17.5166 -16.3261 -14.5753 -12.5632 -21.56942 
-22.2584 -18.9501 -17.172 -26.40312 
-5.1845 -3.098 -1.7565 -3.9355 -4.957 -1.7565 -2.341 -3.4715 0 
-8.495501 -4.3615 -5.442 -9.938 -6.0415 -4.4685 -6.2035 -3.4715 
-9.76 -10.022 -11.9067 -11.0225 -9.27 -8.2805 -6.2035 
-15.4513 -16.5735 -12.9912 -14.251 -13.1854 -8.2805 
-22.0028 -17.658 -16.2197 -18.1664 -13.1854 
-5.1845 -3.098 -3.9355 -3.999 -1.7565 -3.2495 0 
-8.495501 -7.7695 -8.817501 -4.5785 -4.5605 -3.2495 
-13.7018 -13.1923 -9.179001 -8.2355 -4.5605 
-19.1246 -13.5538 -13.2246 -8.2355 
-19.4861 -17.5994 -13.2246 
