-4.759 
n/a 
n/a 
n/a 
n/a 
-4.759 
n/a 
n/a 
n/a 
n/a 
-4.759 
n/a 
n/a 
n/a 
n/a 
-4.759 
n/a 
n/a 
n/a 
n/a 
-3.9225 -3.1495 -5.3255 -3.948 -4.0135 -1.7565 -3.0435 -3.1385 0 -3.5485 -1.756 -4.9295 -4.6805 -3.074 -3.0365 0 
-5.806 -7.739 -9.072001 -7.6445 -4.201 -4.5275 -5.7255 -3.1385 -3.5485 -4.869 -7.16 -9.242001 -8.089001 -5.832 -3.0365 
-9.738501 -11.7833 -13.4063 -7.7165 -6.645 -7.2485 -5.7255 -6.993001 -4.869 -10.733 -11.9053 -12.8449 -11.094 -5.832 
-13.8532 -16.1176 -13.4783 -10.4505 -9.205001 -7.2485 -9.543 -7.756001 -10.733 -15.4783 -15.5082 -15.8499 -11.094 
-18.1875 -16.1896 -16.2123 -13.0105 -9.205001 -11.3594 -10.2295 -14.2018 -15.4783 -19.0812 -18.5132 -15.8499 
-1.4985 -3.6285 -2.229 -2.4945 -3.0435 -3.6385 0 -3.5485 -2.229 0 -1.756 -3.9725 -2.229 -3.074 
-4.5365 -4.901 -5.159 -6.536 -6.532001 -3.6385 -3.5485 -4.0385 -2.229 -1.756 -6.0275 -5.125 -5.0265 
-5.471 -8.2145 -9.402 -9.892 -6.532001 -7.1455 -4.0385 -4.0385 -4.366 -6.0275 -7.226 -9.2515 
-8.377501 -12.8735 -12.9016 -9.892 -10.19 -8.474001 -4.0385 -6.147 -8.146501 -7.226 -11.6623 
-13.1833 -16.3731 -12.9016 -13.7266 -11.5185 -8.474001 -6.147 -11.4837 -8.5845 -11.6623 
-1.934 -2.3615 -4.073 -3.0365 -2.4945 -3.3715 -3.319 -1.7565 -4.1645 -1.756 -4.6805 0 -4.574 0 -2.4945 -3.0365 0 
-3.539 -7.7325 -7.558001 -3.688 -4.846 -7.602501 -4.165 -5.519001 -5.322001 -6.443 -4.6805 -4.574 -4.574 -2.4945 -4.952001 -3.0365 
-8.999001 -11.7197 -8.017501 -4.8765 -8.839001 -7.992501 -8.168 -6.632501 -10.9736 -6.443 -9.3275 -4.574 -6.5325 -4.952001 -4.952001 
-13.4462 -12.1792 -9.297001 -8.8525 -8.986501 -12.1751 -9.726501 -12.6769 -10.9736 -11.7248 -9.3275 -6.5325 -9.17 -4.952001 
-13.9057 -13.4587 -13.293 -8.995501 -13.1751 -13.7336 -15.8831 -12.6769 -16.2554 -11.7248 -11.4992 -9.17 -9.17 
-2.925 -2.4945 -2.6165 -3.098 -5.3255 -2.925 -3.152 -4.6805 -1.756 -4.8275 -3.074 0 
-3.7675 -3.8065 -4.283 -8.629 -8.1665 -4.203 -7.5275 -6.0645 -6.728 -9.1745 -3.074 
-4.933 -5.8365 -9.468 -11.8668 -9.248001 -8.5485 -8.5515 -11.9931 -10.647 -9.1745 
-6.8675 -10.389 -12.9928 -12.9483 -13.7249 -9.4285 -14.7127 -15.9121 -10.647 
-10.7175 -13.9138 -14.0743 -17.4252 -14.6049 -15.7343 -18.6317 -15.9121 
