-4.759 
n/a 
n/a 
n/a 
n/a 
-4.759 
n/a 
n/a 
n/a 
n/a 
-4.759 
n/a 
n/a 
n/a 
n/a 
-4.759 
n/a 
n/a 
n/a 
n/a 
-3.436 -1.4985 -4.866 -2.0935 -4.248 0 -3.3715 -6.5175 -4.1455 -3.152 -3.8245 -1.934 -5.1845 -5.204 0 
-4.213 -5.602 -5.726 -5.816 -4.248 -3.3715 -8.960001 -9.616501 -6.381001 -6.242001 -4.7245 -6.564 -9.84 -5.204 
-8.877501 -6.096001 -7.0885 -5.816 -7.921 -8.960001 -12.2744 -10.705 -8.285 -6.595 -9.4135 -10.6875 -9.84 
-9.682501 -7.574 -7.0885 -9.263 -13.7821 -12.2744 -13.3629 -12.609 -8.571501 -11.4102 -14.1874 -10.6875 
-11.2585 -7.574 -10.2645 -15.2411 -17.0965 -13.3629 -15.2669 -12.8955 -13.4789 -16.1841 -14.1874 
-3.436 -1.4985 -6.844 -4.866 -3.9535 0 -3.7375 -7.189 -4.1455 -3.152 -4.657 -1.934 -2.3335 -3.8195 0 
-4.213 -8.304001 -9.479501 -8.812 -3.9535 -3.7375 -12.1697 -10.647 -6.381001 -8.219501 -5.156 -4.359 -7.0465 -3.8195 
-11.5389 -10.0405 -13.5019 -8.812 -8.5385 -12.1697 -15.6277 -12.8825 -11.8947 -8.703 -7.3395 -8.831501 -7.0465 
-13.2754 -14.0629 -13.5019 -13.6976 -17.3799 -15.6277 -17.8632 -18.3962 -12.3782 -10.7495 -12.3176 -8.831501 
-17.2978 -14.0629 -18.3875 -22.539 -20.8379 -17.8632 -23.3769 -18.8797 -14.4247 -15.7276 -12.3176 
-3.3715 -6.5175 -4.1455 -4.657 -1.934 -5.1845 -6.844 -5.204 -3.436 -1.4985 -6.844 -4.866 0 
-8.960001 -9.616501 -7.551001 -5.156 -6.564 -6.9655 -12.9866 -8.429001 -4.213 -8.304001 -9.479501 -4.866 
-12.2744 -13.1136 -7.8955 -10.0445 -9.2075 -13.2775 -16.2116 -9.104001 -11.5389 -10.0405 -9.479501 
-15.7715 -13.4581 -13.0076 -13.269 -15.6001 -16.5025 -16.8866 -16.4693 -13.2754 -10.0405 
-16.116 -18.5702 -16.2321 -19.6616 -18.8251 -17.1775 -24.2519 -18.2058 -13.2754 
-1.4985 -5.1845 -4.1455 -2.4945 -3.8245 -3.3715 -4.088 
-6.5205 -8.821 -5.8435 -5.751 -7.654 -5.932 
-10.2485 -10.2185 -8.0305 -9.392501 -10.3405 
-11.646 -12.4055 -12.0878 -12.1738 
-13.833 -16.4628 -14.8691 
