-4.759 
n/a 
n/a 
n/a 
n/a 
-4.759 
n/a 
n/a 
n/a 
n/a 
-4.759 
n/a 
n/a 
n/a 
n/a 
-4.759 
n/a 
n/a 
n/a 
n/a 
-2.925 -4.226 -1.934 -4.723 
-6.8145 -5.9545 -5.897 
-9.1595 -9.684001 
-12.9394 
n/a 
-2.3615 -4.703 -2.7415 -3.9595 -2.9905 -1.934 -4.723 
-6.0775 -6.941 -5.2105 -5.733 -4.5445 -5.897 
-7.6565 -9.4585 -6.7255 -7.326 -8.574 
-10.0315 -11.1645 -8.1885 -11.6895 
-11.8233 -12.6275 -12.6498 
-2.3615 -3.2275 -2.7415 -4.226 -1.934 -4.723 0 
-5.294 -6.040501 -5.661 -5.9545 -5.897 -4.723 
-6.9675 -9.4305 -6.984 -9.684001 -5.897 
-10.4035 -10.6105 -10.0745 -9.684001 
-11.5835 -13.701 -10.0745 
-2.3615 -3.2275 -2.7415 -4.226 -1.934 -4.723 0 
-5.294 -6.040501 -5.661 -5.9545 -5.897 -4.723 
-6.9675 -9.4305 -6.984 -9.684001 -5.897 
-10.4035 -10.6105 -10.0745 -9.684001 
-11.5835 -13.701 -10.0745 
