-4.759 
n/a 
n/a 
n/a 
n/a 
-4.759 
n/a 
n/a 
n/a 
n/a 
-4.759 
n/a 
n/a 
n/a 
n/a 
-4.759 
n/a 
n/a 
n/a 
n/a 
-3.5165 -3.213 -1.756 -4.248 -4.866 
-7.032001 -4.5875 -5.7 -7.309 
-8.733001 -8.622 -9.3125 
-12.9271 -12.4043 
-16.7094 
-4.379 -1.756 -5.088 -2.0935 -4.248 
-5.7625 -6.695 -6.616 -5.816 
-11.8449 -8.1505 -8.47 
-13.3004 -10.2275 
-15.3774 
-4.319 -2.0935 -7.9855 -1.756 -3.758 -3.213 
-5.385 -9.605501 -9.089001 -6.3015 -8.001 
-13.9482 -10.7462 -13.9263 -9.446501 
-15.0889 -15.5835 -17.0713 
-19.9262 -18.7285 
-3.852 -3.213 -1.756 -4.712 -4.866 
-7.4545 -4.5875 -6.0625 -7.8745 
-9.054001 -8.4735 -9.948001 
-13.0132 -12.3744 
-16.9141 
