-4.759 
n/a 
n/a 
n/a 
n/a 
-4.759 
n/a 
n/a 
n/a 
n/a 
-4.759 
n/a 
n/a 
n/a 
n/a 
-4.759 
n/a 
n/a 
n/a 
n/a 
-10.2665 -3.618 -2.186 -1.7565 -1.4985 -3.319 -1.7565 -4.569 
-13.9825 -5.4505 -4.858 -2.4195 -4.6965 -4.165 -5.759 
-15.815 -8.76 -5.645 -5.661 -4.877 -9.915 
-19.1245 -9.7185 -7.2495 -6.157001 -10.9085 
-20.083 -11.4966 -8.731001 -11.8765 
-10.914 -3.618 -4.569 -2.742 -2.489 -3.2955 0 
-14.532 -7.586501 -7.575 -3.301 -3.979 -3.2955 
-17.71 -10.0905 -7.5205 -4.9885 -3.979 
-20.676 -10.2885 -8.8135 -4.9885 
-21.3205 -12.315 -9.361 
-2.9645 -1.934 -8.888 -3.618 -4.569 
-4.6135 -11.8284 -12.8836 -7.586501 
-15.1375 -15.824 -16.0616 
-19.1331 -19.002 
-22.3111 
-7.266 -2.186 -1.8085 -4.592 -3.9815 -1.7565 -1.4985 -1.4985 -5.5825 -3.83 -3.4105 0 
-9.5415 -3.164 -6.326 -8.165 -5.293 -2.4195 -4.935 -7.2375 -7.381001 -6.612 -3.4105 
-9.991 -7.134 -8.932001 -8.894501 -6.276 -5.884 -10.5225 -8.623501 -9.956 -6.612 
-10.2655 -9.539001 -9.213501 -9.500501 -9.828001 -11.6521 -12.2623 -10.2645 -9.956 
-13.0653 -9.795001 -9.733001 -13.2565 -15.6509 -13.3919 -13.9033 -10.2645 
