-4.759 
n/a 
n/a 
n/a 
n/a 
-4.759 
n/a 
n/a 
n/a 
n/a 
-4.759 
n/a 
n/a 
n/a 
n/a 
-4.759 
n/a 
n/a 
n/a 
n/a 
-8.395 -5.368 0 -7.852 -9.543 0 -12.16972 -9.543 0 -12.16972 
-14.4702 -5.368 -7.852 -17.9164 -9.543 -12.16972 -21.71272 -9.543 -12.16972 
-14.4702 -14.2894 -17.9164 -17.9164 -22.24972 -21.71272 -21.71272 -22.24972 
-23.3916 -24.3538 -17.9164 -30.62312 -31.79272 -21.71272 -34.41944 
-33.456 -24.3538 -30.62312 -40.16612 -31.79272 -34.41944 
-9.8555 -4.1455 0 -7.852 -4.1455 0 -4.0725 -3.4715 0 -3.766 -3.5125 0 
-10.4855 -4.1455 -7.852 -12.5189 -4.1455 -4.0725 -7.543 -3.4715 -3.766 -7.979001 -3.5125 
-10.4855 -13.1275 -12.5189 -12.5189 -9.208 -7.543 -7.543 -7.351501 -7.979001 -7.979001 
-20.0287 -17.7944 -12.5189 -17.5814 -12.9275 -7.543 -11.9592 -12.1981 -7.979001 
-24.6956 -17.7944 -17.5814 -21.3009 -12.9275 -11.9592 -16.8058 -12.1981 
-4.1455 -2.3345 -8.066501 -4.1455 -1.7565 -4.8015 0 -3.6065 -3.9755 -1.7565 -4.1455 0 -4.4725 
-5.2685 -10.647 -12.989 -5.53 -5.7165 -4.8015 -3.6065 -5.153 -4.312 -5.706501 -4.1455 -4.4725 
-14.3596 -15.5695 -14.3735 -9.014501 -5.7165 -9.5185 -5.153 -5.1935 -8.013 -5.706501 -6.1905 
-19.2821 -16.954 -17.858 -9.014501 -10.5035 -11.2906 -5.1935 -8.7305 -8.013 -9.416 
-20.6666 -20.4385 -17.858 -14.3701 -12.2756 -11.3311 -8.7305 -8.7305 -11.8707 
-8.395 -4.1455 0 -2.5685 -3.319 -1.7565 -4.1455 -1.756 -4.7215 
-9.389501 -4.1455 -2.5685 -6.443501 -4.165 -5.706501 -5.488 -6.6455 
-9.389501 -6.811 -6.443501 -6.8035 -8.203501 -6.784501 -11.3759 
-12.465 -11.422 -6.8035 -9.975 -9.539001 -13.015 
-17.076 -11.782 -9.975 -11.3105 -15.8753 
