-4.759 
n/a 
n/a 
n/a 
n/a 
-4.759 
n/a 
n/a 
n/a 
n/a 
-4.759 
n/a 
n/a 
n/a 
n/a 
-4.759 
n/a 
n/a 
n/a 
n/a 
-4.2705 -4.6645 -3.098 -2.186 -9.6315 
-9.828001 -8.9335 -4.7005 -13.0279 
-14.4502 -9.686001 -15.5976 
-15.2027 -21.5739 
-27.0906 
-4.2705 -3.869 -4.2245 -2.229 -3.098 -9.6315 0 
-8.9595 -8.102 -5.581 -4.8015 -13.1229 -9.6315 
-13.6473 -10.054 -7.3795 -15.555 -13.1229 
-15.5993 -12.2347 -18.5246 -15.555 
-17.78 -23.3798 -18.5246 
-1.4985 -4.2215 -5.4445 -3.098 -2.186 -9.6315 
-6.7015 -10.168 -9.363501 -4.7005 -13.0279 
-13.3622 -14.087 -11.0534 -15.5976 
-17.2812 -15.7769 -21.9505 
-18.9711 -26.674 
-1.4985 -4.2245 -3.098 -2.186 -9.6315 0 
-5.219 -7.886001 -4.7005 -13.0279 -9.6315 
-10.111 -9.210501 -15.5976 -13.0279 
-11.5591 -20.198 -15.5976 
-22.5466 -20.198 
