-4.759 
n/a 
n/a 
n/a 
n/a 
-4.759 
n/a 
n/a 
n/a 
n/a 
-4.759 
n/a 
n/a 
n/a 
n/a 
-4.759 
n/a 
n/a 
n/a 
n/a 
-2.5685 -1.4985 -4.1205 -5.098 -4.9395 -1.7695 -3.982 -4.0455 0 
-3.7015 -4.752501 -6.8975 -9.9305 -5.127501 -6.080501 -7.863501 -4.0455 
-7.494 -8.1625 -12.277 -10.1005 -9.285001 -9.838 -7.863501 
-9.3985 -13.7266 -12.447 -14.2784 -13.1363 -9.838 
-14.9646 -13.8966 -16.6249 -18.1297 -13.1363 
-2.5685 -1.7565 -1.4985 -4.1205 -5.098 -2.4945 -2.5195 -1.4985 -5.59 
-3.887 -2.4195 -4.752501 -6.8975 -7.0915 -5.2275 -3.1695 -6.333 
-4.34 -5.6775 -8.1625 -8.8485 -9.1525 -5.856 -8.149 
-7.9075 -8.855 -9.966001 -11.0645 -10.397 -11.1273 
-9.835501 -10.7495 -12.182 -12.309 -15.6683 
-2.5685 -3.6075 -5.098 -2.4945 -3.5085 -3.982 -6.2715 
-5.931 -7.5865 -7.0915 -6.854001 -7.704 -9.951 
-8.497001 -10.1305 -11.7756 -11.3207 -13.9936 
-11.5886 -14.8146 -16.2423 -17.6103 
-16.2727 -19.2813 -22.5319 
-2.5685 -1.4985 -4.1205 -5.098 -3.152 -3.982 -5.4975 0 
-3.7015 -4.752501 -6.8975 -7.3725 -7.828501 -8.795 -5.4975 
-7.494 -8.1625 -9.062 -12.3894 -12.9141 -8.795 
-9.3985 -10.126 -14.2477 -17.475 -12.9141 
-11.364 -15.3117 -19.3333 -17.475 
