-4.759 
n/a 
n/a 
n/a 
n/a 
-4.759 
n/a 
n/a 
n/a 
n/a 
-4.759 
n/a 
n/a 
n/a 
n/a 
-4.759 
n/a 
n/a 
n/a 
n/a 
-1.934 -8.6225 0 -10.429 -8.6545 0 
-11.5629 -8.6225 -10.429 -19.1767 -8.6545 
-11.5629 -19.4617 -19.1767 -19.1767 
-22.4021 -28.2094 -19.1767 
-31.1498 -28.2094 
-1.934 -1.4985 -3.7345 -1.7565 -3.915 0 -4.0935 -1.4985 -3.4635 -3.594 0 -2.4265 -2.186 -5.246 -1.934 -1.4985 -3.7345 0 -4.345 -1.7565 -3.3195 0 -5.1935 0 -8.382501 -2.229 -4.414 0 -4.2095 -1.7565 -4.1115 0 
-2.6125 -4.9965 -5.555 -5.3895 -3.915 -4.0935 -4.916 -3.6265 -6.876 -3.594 -2.4265 -3.292 -6.948 -6.7375 -2.6125 -4.9965 -3.7345 -4.345 -5.416 -4.8675 -3.3195 -5.1935 -5.1935 -8.382501 -9.5235 -6.0445 -4.414 -4.2095 -5.867001 -5.857501 -4.1115 
-5.795 -6.032001 -8.636001 -5.3895 -8.561001 -4.916 -5.8975 -6.8855 -6.876 -6.451 -3.292 -8.0235 -8.0695 -7.283 -5.795 -4.9965 -8.52 -5.416 -8.873001 -4.8675 -9.908501 -5.1935 -14.4364 -9.5235 -13.5432 -6.0445 -8.935 -5.867001 -8.919001 -5.857501 
-6.515501 -9.682501 -8.636001 -10.103 -9.664001 -5.8975 -9.403501 -6.8855 -9.887001 -7.1745 -8.0235 -9.153 -8.739 -10.0125 -5.795 -9.8395 -10.4505 -8.873001 -8.873001 -11.8865 -9.908501 -14.4364 -15.5774 -13.5432 -13.5432 -10.9225 -11.1801 -8.919001 -8.919001 
-10.5225 -9.682501 -13.6215 -11.206 -10.7101 -9.403501 -9.403501 -9.908 -10.706 -12.1858 -9.153 -10.016 -11.5789 -10.0125 -11.0996 -11.8112 -13.9075 -8.873001 -16.056 -11.8865 -19.1514 -15.5774 -19.5971 -13.5432 -18.4212 -13.1676 -14.2321 -8.919001 
-7.420001 -12.16972 0 -3.759 -1.7565 -3.594 -3.115 -6.9075 -12.16972 -8.116 -10.7545 0 -7.263 -9.1 0 -10.8905 0 -12.16972 -10.4135 0 -4.414 -1.7565 -8.382501 0 0 -7.824501 -8.06 0 
-20.03692 -12.16972 -3.759 -4.5295 -5.294 -6.5335 -10.204 -20.10782 -20.28572 -11.117 -10.7545 -7.263 -10.884 -9.1 -10.8905 -10.8905 -12.16972 -22.58322 -10.4135 -4.414 -5.851 -9.906001 -8.382501 0 -7.824501 -16.5263 -8.06 
-20.03692 -15.92872 -4.5295 -6.842 -7.835001 -13.8875 -23.40432 -28.22382 -23.28672 -11.117 -18.0175 -10.884 -10.884 -20.1647 -10.8905 -23.06022 -22.58322 -22.58322 -14.9609 -5.851 -14.6585 -9.906001 -8.382501 -7.824501 -16.5263 -16.5263 
-23.79592 -16.69922 -6.842 -10.3475 -15.2806 -27.08782 -31.52032 -31.22482 -23.28672 -18.38 -21.6385 -10.884 -21.9487 -20.1647 -23.06022 -33.47372 -22.58322 -27.13062 -16.3979 -14.6585 -14.6585 -9.906001 -16.5884 -16.5263 -16.5263 
-24.56642 -19.01172 -10.3475 -17.7931 -28.48092 -35.20382 -34.52132 -31.22482 -30.54972 -22.001 -21.6385 -21.9487 -21.9487 -32.33442 -33.47372 -33.47372 -27.13062 -28.56762 -25.2054 -14.6585 -14.6585 -18.1741 -25.2902 -16.5263 
-4.2095 -4.1115 
-9.2875 
n/a 
n/a 
n/a 
