-4.759 
n/a 
n/a 
n/a 
n/a 
-4.759 
n/a 
n/a 
n/a 
n/a 
-4.759 
n/a 
n/a 
n/a 
n/a 
-4.759 
n/a 
n/a 
n/a 
n/a 
-3.5045 -1.934 -6.4185 -3.4795 -4.7925 -3.222 -3.7825 -3.9035 -2.9705 -3.5795 -6.4185 -4.065 -3.074 0 
-5.893001 -7.367 -6.943 -8.158501 -5.2095 -5.869 -6.56 -6.5125 -5.4545 -10.6345 -11.1415 -8.012501 -3.074 
-12.0796 -7.751 -12.0316 -8.913501 -6.3855 -7.168 -8.534 -8.5535 -12.8667 -15.3575 -15.089 -8.012501 
-12.4636 -12.9936 -12.7866 -10.007 -7.392 -9.116 -10.275 -16.1451 -17.5897 -19.305 -15.089 
-17.7062 -13.7486 -13.8801 -11.1465 -9.4055 -10.634 -17.8666 -20.8681 -21.5372 -19.305 
-4.7935 -3.849 -2.5045 -3.4225 -4.0965 -2.4285 -3.5045 -2.4285 0 -5.822001 0 -5.6815 -4.559 -2.4285 -4.559 0 -2.4265 -4.759 -1.7565 -3.7825 -3.9035 
-6.2965 -6.305 -6.709001 -4.2 -6.772 -6.896 -5.8505 -2.4285 -5.822001 -5.822001 -5.6815 -9.9305 -6.9805 -7.566 -4.559 -2.4265 -6.571 -6.3815 -5.0275 -6.56 
-8.479 -10.6131 -8.4095 -6.912 -9.021501 -8.463501 -5.8505 -6.9125 -5.822001 -12.6885 -9.9305 -12.7426 -9.529 -7.566 -6.905 -6.571 -7.6685 -8.144 -7.4725 
-12.8539 -12.3136 -10.1635 -9.023001 -10.3045 -8.463501 -11.2717 -6.9125 -12.6885 -16.9375 -12.7426 -15.2911 -9.529 -9.3815 -10.2485 -7.6685 -9.381001 -10.0995 
-14.5544 -14.0676 -10.475 -10.3165 -10.3045 -14.2853 -11.2717 -14.1584 -16.9375 -19.7496 -15.2911 -15.2911 -11.6303 -12.8198 -11.346 -9.381001 -11.3939 
-4.251 -3.5045 -2.4285 -5.822001 -3.644 -1.7565 -6.982501 -3.849 -1.7695 -3.7825 -3.9035 0 
-9.2535 -5.8505 -6.9125 -9.083501 -6.254001 -9.0985 -10.8215 -5.4415 -5.3295 -6.56 -3.9035 
-11.6911 -11.2717 -10.688 -11.9287 -14.0832 -13.1483 -12.414 -9.8745 -8.330501 -6.56 
-17.1123 -15.0472 -13.5332 -19.7579 -18.133 -14.7408 -16.847 -12.8755 -8.330501 
-20.8878 -17.8924 -21.3624 -23.8077 -19.7255 -19.1738 -19.848 -12.8755 
-6.958 -1.4985 -7.315001 -2.186 -4.7925 -2.3345 -3.7825 -3.9035 -2.9705 -2.4945 -3.849 -3.4225 -4.0965 -1.756 -8.2185 -7.315001 0 
-8.354 -9.333 -9.5565 -5.544001 -5.537 -5.919 -6.56 -6.5125 -4.302 -5.410501 -7.817 -4.2 -5.706 -10.674 -16.2333 -7.315001 
-16.4225 -12.0683 -12.9111 -6.747001 -8.0455 -9.4935 -8.534 -7.1265 -6.9845 -9.744 -9.387501 -5.86 -15.6558 -18.6888 -16.2333 
-19.1578 -15.4229 -14.1141 -8.989 -12.0092 -11.5577 -9.205001 -9.514 -11.4236 -11.4271 -11.1057 -16.2926 -23.6706 -18.6888 
-22.5124 -16.6259 -16.3561 -13.1037 -14.0734 -12.2287 -11.7101 -14.0329 -13.1067 -13.1453 -21.5383 -24.3074 -23.6706 
