-4.759 
n/a 
n/a 
n/a 
n/a 
-4.759 
n/a 
n/a 
n/a 
n/a 
-4.759 
n/a 
n/a 
n/a 
n/a 
-4.759 
n/a 
n/a 
n/a 
n/a 
-8.643001 -3.1335 -2.4945 -3.6065 -2.5195 -2.8965 -3.959 
-11.9915 -5.9225 -5.343 -4.897 -4.786 -4.940001 
-14.7805 -9.0585 -6.148001 -6.279 -6.2015 
-17.9165 -9.6905 -7.583001 -8.175 
-18.5485 -11.4473 -9.663001 
-4.913 -3.571 -3.59 -4.628 -6.739501 -2.8645 -1.4985 -3.926 -3.4985 -2.0935 -3.307 -3.1335 
-9.141001 -5.8815 -7.6485 -10.6215 -9.354501 -4.3545 -5.1875 -6.383 -5.3895 -5.715 -5.8455 
-11.5577 -10.4675 -14.7618 -13.2365 -10.8337 -8.067 -7.188001 -8.46 -9.047501 -9.0795 
-16.1437 -16.976 -17.3768 -14.7157 -14.5462 -10.13 -10.5975 -12.6136 -12.5536 
-22.6522 -19.591 -18.856 -18.4282 -16.6092 -13.7665 -14.7511 -16.1197 
-4.628 -4.743 -3.307 -4.3025 -3.6705 -3.325 -3.926 -6.0655 -4.2815 -1.7695 -2.8965 -3.959 -4.562 
-4.7515 -9.4565 -8.329 -8.369501 -6.2775 -6.7535 -10.31 -10.9575 -4.4915 -4.497 -4.940001 -8.7665 
-9.546 -14.6509 -13.0548 -11.4825 -8.745501 -14.0237 -15.202 -11.1675 -5.791 -6.271501 -9.956 
-14.8016 -19.3767 -16.1678 -13.9505 -16.8133 -18.9157 -15.412 -12.467 -7.39 -11.7237 
-19.5274 -22.4897 -18.6358 -22.0183 -21.7053 -19.1257 -16.7115 -14.066 -13.0344 
-4.7625 -2.8965 -3.959 -4.3955 0 -4.628 -8.092501 -3.09 -2.5685 -3.325 -1.4985 -3.5435 -3.4985 0 
-5.9215 -4.940001 -8.8405 -4.3955 -4.628 -8.309501 -11.6003 -5.6115 -6.196 -3.898 -4.2755 -6.495 -3.4985 
-8.0465 -9.723001 -8.8405 -10.159 -8.309501 -11.9597 -14.1218 -8.300501 -6.8435 -6.8145 -7.7495 -6.495 
-13.3159 -9.723001 -14.8276 -13.6531 -11.9597 -14.4812 -16.8108 -9.3415 -9.953 -9.4595 -7.7495 
-13.3159 -15.7323 -18.3217 -17.3033 -14.4812 -17.1702 -17.8518 -12.7128 -12.9092 -9.4595 
