-4.759 
n/a 
n/a 
n/a 
n/a 
-4.759 
n/a 
n/a 
n/a 
n/a 
-4.759 
n/a 
n/a 
n/a 
n/a 
-4.759 
n/a 
n/a 
n/a 
n/a 
-2.5045 -3.543 -1.4985 -5.5035 -4.174 -1.4985 -3.509 -2.7455 -1.4985 -3.5905 -4.2705 0 
-5.323 -5.62 -7.269 -9.826 -5.181 -4.917 -5.192 -3.637 -4.435 -8.1505 -4.2705 
-5.8685 -11.8987 -12.2479 -10.9264 -7.723001 -6.5825 -5.7085 -6.774 -9.2755 -8.1505 
-12.36 -16.8776 -13.3483 -13.4684 -8.684 -7.1455 -9.0865 -11.8395 -9.2755 
-17.3389 -17.978 -15.8903 -14.4294 -9.426001 -10.7855 -14.4536 -11.8395 
-9.543 -3.0835 -2.915 -3.7855 
-12.9361 -6.6085 -6.1455 
-16.4611 -9.9355 
-19.7881 
n/a 
-8.8465 -2.229 -2.186 -2.9645 -2.264 -3.291 -4.2085 -2.915 
-9.764 -5.1225 -6.4285 -5.2985 -5.8435 -4.9475 -7.286 
-13.7997 -9.703501 -8.2305 -8.942501 -7.022 -7.5555 
-18.3807 -10.7625 -12.7715 -9.948501 -9.066501 
-19.4397 -15.3035 -13.7775 -11.993 
-3.402 -2.264 -1.4985 -4.231 -2.925 -6.459 -2.791 -2.915 -2.264 -3.6075 -4.2705 
-3.793 -2.9195 -5.802501 -7.4385 -9.215 -8.726501 -6.1005 -4.093 -6.0605 -7.976501 
-4.34 -7.7615 -8.381001 -13.9997 -11.7183 -12.4222 -7.4115 -7.77 -10.7025 
-8.957001 -9.992001 -15.1186 -16.503 -15.414 -13.7332 -11.5291 -12.5706 
-11.5009 -16.7972 -17.6219 -20.1987 -16.725 -17.8508 -16.3297 
