-4.759 
n/a 
n/a 
n/a 
n/a 
-4.759 
n/a 
n/a 
n/a 
n/a 
-4.759 
n/a 
n/a 
n/a 
n/a 
-4.759 
n/a 
n/a 
n/a 
n/a 
-4.152 -3.852 -3.515 0 -4.152 -6.3715 
-6.307501 -7.081 -3.515 -4.152 -10.1225 
-9.242001 -7.081 -6.355 -10.1225 
-9.242001 -10.8178 -14.1731 
-13.5322 -18.6359 
-4.152 -3.5065 0 -4.314 -4.498 
-7.966001 -3.5065 -4.314 -9.317501 
-7.966001 -8.1875 -9.317501 
-13.007 -13.7472 
-18.5667 
-4.152 -4.1215 0 -4.208 -4.498 
-6.705501 -4.1215 -4.208 -5.501 
-6.705501 -7.935 -5.501 
-9.394001 -8.259501 
-10.276 
-4.152 -3.852 -3.4765 0 -4.314 -4.498 
-6.307501 -6.548 -3.4765 -4.314 -9.317501 
-10.2755 -6.548 -7.620001 -9.317501 
-10.2755 -11.5927 -13.6583 
-15.3202 -17.631 
