-4.759 
n/a 
n/a 
n/a 
n/a 
-4.759 
n/a 
n/a 
n/a 
n/a 
-4.759 
n/a 
n/a 
n/a 
n/a 
-4.759 
n/a 
n/a 
n/a 
n/a 
-4.426 -1.7565 -1.4985 -3.0835 -4.7285 -4.1555 -3.147 -8.499001 0 -5.613 -8.499001 0 -7.2005 -6.1855 
-5.47 -2.4195 -3.535 -6.042 -8.4455 -5.77 -12.4942 -8.499001 -5.613 -14.9536 -8.499001 -7.2005 -8.991 
-5.9535 -4.6785 -6.335501 -9.523001 -9.541501 -15.2582 -12.4942 -14.4844 -14.9536 -14.9536 -16.0719 -8.991 
-8.021 -7.476501 -10.0095 -10.7035 -19.0297 -15.2582 -18.4796 -23.825 -14.9536 -22.5265 -17.8624 
-9.983001 -11.3061 -11.3 -20.1917 -19.0297 -21.2436 -27.8202 -23.825 -22.5265 -24.317 
-4.536 -6.769001 0 -6.769001 0 -7.2005 -6.1855 
-9.8205 -6.769001 -6.769001 -6.769001 -7.2005 -8.991 
-9.8205 -9.989501 -6.769001 -15.1369 -8.991 
-13.0938 -9.989501 -15.1369 -16.9274 
-13.0938 -18.4958 -16.9274 
-8.808001 0 -6.116 -8.499001 0 -7.2005 -6.1855 
-8.808001 -6.116 -15.348 -8.499001 -7.2005 -8.991 
-15.138 -15.348 -15.348 -16.0719 -8.991 
-24.37 -15.348 -22.9209 -17.8624 
-24.37 -22.9209 -24.7114 
-8.808001 0 -12.16972 0 -7.2005 -6.1855 
-8.808001 -12.16972 -12.16972 -7.2005 -8.991 
-21.19172 -12.16972 -19.37022 -8.991 
-21.19172 -19.37022 -21.16072 
-28.39222 -21.16072 
