-4.759 
n/a 
n/a 
n/a 
n/a 
-4.759 
n/a 
n/a 
n/a 
n/a 
-4.759 
n/a 
n/a 
n/a 
n/a 
-4.759 
n/a 
n/a 
n/a 
n/a 
-3.047 0 -4.2915 -1.7565 -3.4225 -4.39 
-3.047 -4.2915 -6.0825 -5.6355 -4.7525 
-8.4355 -6.0825 -9.706 -6.6575 
-9.09 -9.706 -10.363 
-12.9699 -10.363 
-3.047 0 -10.6255 -12.16972 -3.6885 
-3.047 -10.6255 -22.79522 -15.85822 
-14.6109 -22.79522 -26.48372 
-26.78062 -26.48372 
-30.46912 
-3.047 0 -9.2135 -4.7755 -3.6885 
-3.047 -9.2135 -14.615 -9.131001 
-13.1989 -14.615 -18.9705 
-18.6004 -18.9705 
-22.9559 
-3.7825 0 -3.4225 -4.0965 -4.2915 
-3.7825 -3.4225 -4.2 -8.026001 
-7.599 -4.2 -8.0275 
-9.170501 -8.0275 
-13.2296 
