-4.759 
n/a 
n/a 
n/a 
n/a 
-4.759 
n/a 
n/a 
n/a 
n/a 
-4.759 
n/a 
n/a 
n/a 
n/a 
-4.759 
n/a 
n/a 
n/a 
n/a 
-3.135 -1.7565 -1.4985 -4.776 -1.934 -1.4985 -4.3775 -5.1995 -2.186 -3.7855 -3.6845 
-3.9195 -2.4195 -8.4755 -5.793 -2.6125 -5.5605 -9.6875 -7.1215 -4.9225 -6.0565 
-4.168 -9.703501 -9.767 -6.5325 -6.374001 -11.5823 -11.9261 -10.5745 -6.667 
-12.151 -11.082 -10.5255 -10.9766 -13.1772 -13.8209 -15.3791 -12.319 
-13.5295 -11.8405 -14.9696 -17.7798 -15.4158 -17.2739 -17.1236 
-3.4635 -2.4945 -3.948 -4.93 -2.264 -2.3615 
-5.381001 -5.9905 -8.177501 -6.8345 -3.8255 
-8.4805 -9.861 -10.061 -8.4375 
-12.4632 -10.6915 -11.7872 
-13.2937 -12.9051 
-4.138 -1.4985 -5.928 -4.4755 -4.154 -2.3615 -2.5045 -4.3535 
-5.027 -7.642 -10.119 -8.976501 -5.435 -5.006 -4.576 
-11.3919 -12.192 -14.7756 -10.514 -8.216001 -7.5605 
-15.9419 -16.8486 -16.3131 -13.295 -11.1149 
-20.5985 -18.3861 -19.0941 -16.1939 
-3.1495 -5.3225 -2.7455 -2.3615 -4.8105 -4.3895 
-8.121 -8.1635 -4.1635 -7.397 -10.019 
-11.2896 -9.51 -9.9565 -13.2405 
-12.6361 -15.303 -15.8 
-18.4291 -21.1465 
