-4.759 
n/a 
n/a 
n/a 
n/a 
-4.759 
n/a 
n/a 
n/a 
n/a 
-4.759 
n/a 
n/a 
n/a 
n/a 
-4.759 
n/a 
n/a 
n/a 
n/a 
-4.685 -2.5195 -1.4985 -5.9365 0 -3.93 -4.086 -3.518 -1.934 -3.999 -5.652 -5.1035 0 -5.7525 -3.999 -5.652 -5.1035 -5.6535 0 -9.727 -5.685 -4.3245 -6.0125 -3.689 -1.756 -2.8965 -4.7005 -1.7565 -3.6615 -2.186 -4.5295 -1.934 -3.5155 -3.8315 0 
-5.093 -3.1695 -7.071501 -5.9365 -3.93 -7.2545 -7.075 -5.322001 -5.7535 -8.5735 -7.632 -5.1035 -5.7525 -10.3045 -8.5735 -7.632 -9.095501 -5.6535 -9.727 -15.732 -9.453001 -10.8415 -10.411 -5.643 -3.751 -6.0745 -4.764 -5.23 -6.337501 -5.983 -5.3265 -4.6585 -7.6315 -3.8315 
-5.585001 -8.792001 -7.071501 -10.523 -7.2545 -9.415001 -8.8925 -9.4055 -10.31 -9.463 -7.632 -10.348 -10.3045 -15.0652 -9.463 -11.9544 -9.095501 -16.3125 -15.732 -19.5 -16.86 -15.24 -12.365 -8.512501 -6.825 -6.106 -7.316 -7.554 -9.722501 -6.7215 -7.297 -8.962501 -7.6315 
-10.7595 -8.792001 -12.4616 -13.8475 -9.415001 -11.5201 -13.1086 -13.9988 -11.4115 -9.463 -13.2069 -14.9 -15.0652 -15.9547 -14.2204 -11.9544 -19.8155 -22.3175 -19.5 -26.907 -21.2585 -17.194 -15.2345 -11.8793 -6.846 -9.0795 -9.5205 -11.2098 -10.2155 -8.4965 -11.7548 -8.962501 
-10.7595 -14.5283 -15.7861 -16.008 -11.5201 -15.7362 -17.7019 -15.1003 -11.4115 -15.4729 -17.7589 -19.6607 -15.9547 -20.7121 -14.2204 -22.6744 -25.8205 -26.0855 -26.907 -31.3055 -23.2125 -20.0635 -18.6013 -11.9003 -10.146 -11.3374 -13.4225 -11.7028 -11.9905 -12.9699 -11.7548 
-2.872 0 -5.9365 0 -3.325 -6.5935 -4.6595 -4.086 -4.9175 0 -9.7945 -6.5935 -4.6595 -6.168 0 -12.16972 -8.72 -3.0415 0 -6.267 -3.1495 -9.735001 -3.7575 -3.9515 -3.8255 -3.5155 -3.2495 -4.9845 
-2.872 -5.9365 -5.9365 -3.325 -10.622 -11.1415 -7.7495 -6.558 -4.9175 -9.7945 -16.439 -11.1415 -12.0335 -6.168 -12.16972 -20.88972 -12.1159 -3.0415 -6.267 -9.080501 -14.1797 -13.5765 -4.6755 -8.0915 -7.349501 -7.153 -8.2675 
-9.4175 -5.9365 -9.637501 -10.622 -16.1162 -14.2315 -10.4345 -6.558 -15.7428 -16.439 -20.987 -18.5155 -12.0335 -19.25592 -20.88972 -24.28562 -12.1159 -9.838 -9.080501 -20.5771 -18.0212 -14.4945 -8.561001 -12.2559 -11.261 -12.6376 
-9.4175 -9.637501 -17.2673 -16.1162 -19.2062 -16.9165 -10.4345 -18.0597 -22.3873 -20.987 -28.361 -18.5155 -25.12142 -27.97592 -24.28562 -24.28562 -18.9124 -12.9261 -20.5771 -24.4186 -18.9392 -18.38 -13.0922 -16.1674 -16.7456 
-13.2333 -17.2673 -22.7615 -19.2062 -21.8912 -16.9165 -21.9362 -24.7042 -26.9353 -28.361 -28.361 -31.60342 -33.84142 -31.37182 -24.28562 -31.08212 -22.0005 -24.4227 -24.4186 -25.3366 -22.8247 -22.9112 -17.0037 -21.652 
-3.4765 -3.321 0 -5.9365 0 -3.644 -4.4875 -4.6595 -4.1435 -4.086 -4.9175 0 -5.7525 -4.4875 -4.6595 -5.6535 0 -6.562 -5.685 -3.2775 -4.0535 -4.683 -2.742 -4.397 -1.7695 -3.5155 -4.1455 -1.756 -4.1285 
-5.827001 -3.321 -5.9365 -5.9365 -3.644 -8.01 -8.3465 -9.6705 -7.7465 -6.558 -4.9175 -5.7525 -9.2155 -8.3465 -6.7925 -5.6535 -6.562 -13.211 -8.7005 -8.116501 -9.4795 -7.9375 -5.4265 -5.178 -5.02 -6.505 -5.5555 -5.5985 
-5.827001 -9.6285 -5.9365 -8.805 -8.01 -12.1636 -13.8081 -13.3571 -10.6215 -6.558 -11.08 -9.2155 -13.5639 -10.9301 -6.7925 -13.1475 -13.211 -16.2265 -14.0563 -13.8011 -12.796 -9.481501 -6.2635 -8.312 -7.909 -6.5575 -5.7085 
-12.7495 -9.6285 -8.805 -14.6738 -12.1636 -17.6252 -17.4947 -16.2321 -10.6215 -13.3969 -14.543 -13.5639 -16.1475 -10.9301 -14.5027 -19.7965 -16.2265 -21.5823 -19.7409 -17.1176 -14.34 -10.759 -9.371 -11.6118 -7.9265 -6.57 
-12.7495 -12.581 -14.6738 -18.8274 -17.6252 -21.3118 -20.3697 -16.2321 -17.4604 -16.8599 -18.8914 -16.1475 -16.1475 -18.6403 -21.1517 -22.812 -21.5823 -27.2669 -23.0574 -18.6616 -15.6175 -13.8665 -12.9342 -11.6293 -7.976 
-4.685 -2.5195 -3.135 -3.3785 -3.7575 -3.9515 -3.115 -5.9365 0 -5.9365 0 0 -4.157 -4.086 -4.9175 -1.934 -1.4985 -3.999 -4.4875 -5.1035 0 -5.7525 0 -5.7525 0 -9.147 -6.0385 0 -6.267 -4.491 -2.5195 -1.4985 -5.685 -1.7565 -6.4605 0 -3.3715 -3.6065 -4.896 -4.474 -1.934 -3.5155 -5.752 0 
-5.093 -5.381 -6.1885 -8.153501 -4.6755 -6.764501 -8.690001 -5.9365 -5.9365 -5.9365 0 -4.157 -6.819 -6.558 -6.3755 -2.6125 -4.7585 -8.4795 -7.9185 -5.1035 -5.7525 -5.7525 -5.7525 -5.7525 -8.3465 -10.8795 -6.0385 -6.267 -9.7995 -4.937 -3.1695 -6.6695 -6.3715 -7.391001 -6.4605 -3.3715 -5.106 -7.3295 -7.397 -5.244 -4.6585 -6.101 -5.752 
-7.195501 -8.698 -10.2435 -8.379001 -7.369501 -10.688 -8.690001 -7.962 -5.9365 -5.9365 -4.157 -6.819 -8.2965 -7.703 -6.6835 -5.364 -9.323001 -12.2781 -7.9185 -10.348 -5.7525 -9.511 -5.7525 -13.5639 -11.3301 -11.3301 -13.1979 -9.7995 -9.847501 -5.6205 -9.086 -6.866001 -8.665001 -7.391001 -10.802 -5.106 -8.705001 -9.964001 -8.176001 -7.4075 -7.074 -6.101 
-9.551501 -12.7684 -10.2625 -11.6072 -11.7396 -10.688 -10.9859 -7.962 -5.9365 -8.832001 -6.819 -8.2965 -9.477501 -7.9825 -8.762 -10.749 -13.219 -12.2781 -13.464 -10.348 -9.511 -9.511 -13.5639 -16.5475 -11.3301 -18.7755 -16.7304 -9.847501 -10.5295 -10.6335 -9.205 -8.9995 -8.665001 -12.1425 -12.5365 -8.705001 -11.4089 -10.4805 -10.2925 -9.028501 -7.074 
-13.6439 -12.7874 -13.4907 -15.9773 -11.7396 -12.9839 -10.9859 -7.962 -8.832001 -12.0932 -8.2965 -9.477501 -9.800501 -9.434 -14.8646 -14.645 -13.219 -17.8236 -13.464 -14.1065 -9.511 -17.4948 -16.5475 -16.5475 -18.7755 -22.308 -16.7784 -10.5295 -15.5425 -10.77 -11.5001 -8.9995 -13.7903 -13.877 -16.1355 -11.4089 -11.9254 -12.8826 -11.9135 -9.028501 
