-4.759 
n/a 
n/a 
n/a 
n/a 
-4.759 
n/a 
n/a 
n/a 
n/a 
-4.759 
n/a 
n/a 
n/a 
n/a 
-4.759 
n/a 
n/a 
n/a 
n/a 
-1.4985 -7.1525 -3.275 -7.778 0 -4.926 0 -1.756 -8.927 0 -3.5015 0 -4.3325 -1.7695 -3.519 -4.348 
-8.989 -10.2435 -12.7074 -7.778 -4.926 -4.926 -1.756 -10.9315 -8.927 -3.5015 -3.5015 -4.3325 -6.028 -4.951 -8.576 
-12.3366 -19.8967 -12.7074 -10.674 -4.926 -6.396 -10.9315 -10.9315 -12.5751 -3.5015 -8.2895 -6.028 -6.9095 -9.972001 
-21.9898 -19.8967 -15.6034 -10.674 -6.396 -16.3989 -10.9315 -14.5796 -12.5751 -8.2895 -10.275 -6.9095 -12.3881 
-21.9898 -22.7927 -15.6034 -12.144 -16.3989 -16.3989 -14.5796 -14.5796 -17.3631 -10.275 -11.1565 -12.3881 
-5.693 -3.9355 -7.255 0 -4.926 0 -1.756 -6.2955 0 -3.59 0 -3.894 -2.186 -3.849 -7.005 
-8.744 -10.0855 -7.255 -4.926 -4.926 -1.756 -8.432 -6.2955 -3.59 -3.59 -3.894 -6.205 -4.8565 -10.368 
-10.2335 -10.0855 -9.874001 -4.926 -6.396 -8.432 -8.432 -10.985 -3.59 -7.1665 -6.205 -8.425 -11.6565 
-10.2335 -10.316 -9.874001 -6.396 -10.025 -8.432 -13.3345 -10.985 -7.1665 -9.1885 -8.425 -15.4264 
-10.3565 -10.316 -10.2735 -10.025 -10.025 -13.3345 -13.3345 -14.5615 -9.1885 -11.5967 -15.4264 
-5.693 -3.9355 -3.115 -7.255 0 -4.926 0 -1.756 -6.5145 0 -3.5015 0 -3.152 -3.918 -1.756 -2.4265 -2.7415 -3.849 -2.5045 -4.348 0 
-8.744 -6.1525 -10.233 -7.255 -4.926 -4.926 -1.756 -9.776001 -6.5145 -3.5015 -3.5015 -3.152 -6.462501 -6.752 -3.949 -3.681 -5.431 -6.305 -7.257501 -4.348 
-11.1278 -13.1971 -10.233 -9.874001 -4.926 -6.396 -9.776001 -9.776001 -12.1038 -3.5015 -6.917 -6.462501 -8.632 -8.620501 -4.9795 -6.2635 -7.509501 -11.1616 -7.257501 
-18.1724 -13.1971 -12.852 -9.874001 -6.396 -15.2434 -9.776001 -14.9599 -12.1038 -6.917 -10.6735 -8.632 -10.5841 -9.373 -7.798501 -8.654 -12.8539 -11.1616 
-18.1724 -15.8161 -12.852 -10.2735 -15.2434 -15.2434 -14.9599 -14.9599 -15.5193 -10.6735 -12.843 -10.5841 -11.3366 -12.3076 -10.074 -13.9684 -12.8539 
-5.693 -3.098 -1.7565 -4.3955 -4.926 -3.2875 0 -2.7415 -3.17 -4.07 -1.8085 -4.5845 
-8.630501 -4.3615 -6.0595 -8.6985 -7.5145 -3.2875 -2.7415 -5.8085 -4.983 -5.829 -6.193 
-9.901001 -9.911 -10.5551 -9.969501 -7.5145 -5.934 -5.8085 -6.74 -6.662 -10.01 
-15.3801 -14.5194 -11.8261 -9.969501 -9.951 -8.9055 -6.74 -7.7425 -10.243 
-19.9885 -15.7904 -11.8261 -10.6515 -10.722 -10.061 -7.7425 -10.322 
