-4.759 
n/a 
n/a 
n/a 
n/a 
-4.759 
n/a 
n/a 
n/a 
n/a 
-4.759 
n/a 
n/a 
n/a 
n/a 
-4.759 
n/a 
n/a 
n/a 
n/a 
-9.785501 -8.164001 -4.424 -1.934 -4.3685 -1.7565 -3.8275 -3.091 -3.9555 -2.7415 -3.815 -3.8405 -3.034 -2.9805 -5.1605 -3.0365 0 
-18.2893 -13.1116 -5.195 -5.9455 -5.0855 -4.8265 -7.0305 -6.185 -6.4205 -6.3335 -5.7745 -6.001 -4.4605 -7.0915 -7.779 -3.0365 
-23.2369 -13.8826 -7.693501 -7.1365 -9.1695 -8.089001 -9.539001 -7.7425 -9.822001 -9.757 -8.175 -7.4565 -8.321 -9.504001 -7.779 
-24.0079 -16.3811 -9.6145 -11.6011 -12.7944 -10.6345 -11.1945 -10.4425 -13.4181 -12.3085 -9.403001 -11.725 -10.674 -9.504001 
-26.5064 -18.3021 -13.9473 -15.226 -15.3399 -12.29 -13.8945 -14.0504 -15.9696 -13.5365 -13.8837 -14.078 -10.674 
-1.4985 -3.9725 -12.16972 -6.864 -3.0695 -6.292 -1.934 -1.4985 -3.9785 -3.074 -4.424 -1.934 -3.815 -3.8405 
-4.88 -17.08522 -19.03372 -9.569 -7.453 -7.022501 -2.6125 -4.496 -8.165 -6.9425 -5.195 -5.2245 -5.7745 
-18.75212 -23.94922 -21.73872 -14.1457 -8.2215 -7.7355 -4.783 -8.283001 -12.2677 -7.4525 -9.419001 -8.083 
-25.61612 -26.65422 -26.31542 -14.9142 -8.729501 -10.078 -8.423 -12.4213 -12.7777 -12.0385 -12.4789 
-28.32112 -31.23092 -27.08392 -15.4222 -10.7595 -13.5608 -12.6019 -12.9313 -17.3637 -15.0984 
-3.458 -3.535 -2.95 -1.7565 -3.5435 -9.785501 -8.164001 -1.756 -3.815 -3.8405 -1.7565 -3.956 0 
-6.9965 -6.5005 -4.3785 -4.913 -14.756 -18.2893 -9.844501 -5.4535 -5.7745 -4.563 -4.994 -3.956 
-9.790501 -9.107 -8.759001 -16.6249 -23.2598 -19.9698 -13.598 -8.3435 -5.938 -8.978001 -4.994 
-12.397 -13.5563 -20.7241 -25.1287 -24.9403 -23.7233 -16.488 -9.0815 -10.702 -8.978001 
-16.8463 -25.5214 -29.2279 -26.8092 -28.6938 -26.6133 -17.226 -13.1613 -10.702 
-3.1495 -5.149 -4.3845 -1.7565 -1.8085 -6.864 -3.9725 0 -4.7295 -4.4695 -1.7565 -1.4985 -4.818 -7.813 0 -4.257 -5.547 -4.3155 -1.4985 -3.9075 -8.641001 -3.222 -4.6975 
-7.207001 -9.355 -5.646 -3.2595 -8.037001 -8.775001 -3.9725 -4.7295 -9.7705 -7.0465 -2.4195 -6.2415 -8.866501 -7.813 -4.257 -8.0745 -9.4905 -5.632 -4.9185 -10.411 -12.2848 -6.238501 
-10.513 -9.636001 -6.882 -9.7705 -9.7535 -8.775001 -9.513 -9.7705 -10.4135 -7.9535 -7.185501 -9.5665 -8.866501 -10.7665 -8.0745 -10.609 -10.623 -9.229 -10.749 -14.0548 -15.3013 
-10.794 -10.4975 -13.6574 -10.4535 -9.7535 -14.5441 -14.3186 -10.4135 -11.3205 -12.9847 -10.322 -9.5665 -11.9614 -14.584 -10.609 -11.7415 -14.22 -15.4553 -14.3928 -17.0713 
-11.6555 -17.2729 -14.3404 -10.4535 -15.5226 -19.3497 -14.9616 -11.3205 -16.3517 -16.1212 -10.322 -12.6984 -15.7789 -17.1185 -11.7415 -15.3385 -20.4463 -19.0991 -17.4093 
