-4.759 
n/a 
n/a 
n/a 
n/a 
-4.759 
n/a 
n/a 
n/a 
n/a 
-4.759 
n/a 
n/a 
n/a 
n/a 
-4.759 
n/a 
n/a 
n/a 
n/a 
-8.26 -4.0215 -2.186 -2.6165 -3.098 -4.0215 0 
-10.322 -5.9205 -3.5105 -4.283 -7.644 -4.0215 
-12.221 -7.3295 -5.3935 -9.1075 -7.644 
-13.63 -9.002001 -10.281 -9.1075 
-15.3025 -13.9669 -10.281 
-10.144 -4.0215 -4.8505 -2.6165 -3.098 -2.356 -8.26 -3.8785 
-14.2185 -8.984 -7.9775 -4.283 -5.295 -10.647 -12.5647 
-19.181 -12.7306 -9.026 -6.311501 -14.0226 -15.5535 
-22.9276 -13.7791 -10.6745 -15.3761 -18.9291 
-23.9761 -15.4276 -20.2647 -20.2826 
-2.3615 -4.0215 -3.013 -2.6165 -3.935 -2.356 -6.951 -3.8785 -4.3075 
-5.855 -7.1505 -3.724 -5.79 -6.2755 -9.4475 -9.89 -7.430501 
-7.6665 -7.388 -6.567501 -7.4025 -13.902 -12.6001 -13.5862 
-7.7035 -9.0135 -8.418 -15.0678 -17.0546 -16.2963 
-9.190001 -12.021 -16.1415 -18.2204 -20.7508 
-8.26 -4.664 -2.4945 -2.6165 -6.9115 -2.356 -8.26 -5.079 
-13.3502 -6.22 -3.8065 -9.072001 -9.077001 -10.647 -10.9315 
-14.9062 -7.5585 -10.4595 -11.3521 -17.509 -13.9203 
-16.2447 -14.7605 -12.7396 -19.7841 -20.7823 
-23.4467 -17.0406 -21.1716 -23.0574 
