-4.759 
n/a 
n/a 
n/a 
n/a 
-4.759 
n/a 
n/a 
n/a 
n/a 
-4.759 
n/a 
n/a 
n/a 
n/a 
-4.759 
n/a 
n/a 
n/a 
n/a 
-3.9345 -1.7695 -1.4985 -4.7615 -2.4265 -2.186 -1.8085 -6.384501 0 
-3.94 -2.7955 -6.26 -7.579 -3.292 -3.164 -8.240001 -6.384501 
-4.4455 -7.64 -8.880001 -8.1125 -4.4005 -9.209001 -8.240001 
-9.391001 -10.7025 -9.805 -9.125001 -10.163 -9.209001 
-12.4669 -11.6275 -10.6635 -14.9003 -10.163 

n/a 
n/a 
n/a 
n/a 
-3.9345 -1.7695 -5.101 -3.598 -2.4265 -2.186 -1.8085 -5.0465 
-3.94 -7.065001 -7.170501 -6.209001 -3.292 -3.164 -7.0495 
-8.069501 -9.180501 -9.125501 -6.9065 -4.4005 -8.028001 
-10.418 -11.2487 -9.696001 -7.9995 -9.1035 
-12.4862 -11.8192 -10.9874 -12.9275 
-3.1435 -1.8085 -5.101 -3.8375 
-5.211 -6.4235 -9.554001 
-10.2865 -10.411 
-14.274 
n/a 
