-4.759 
n/a 
n/a 
n/a 
n/a 
-4.759 
n/a 
n/a 
n/a 
n/a 
-4.759 
n/a 
n/a 
n/a 
n/a 
-4.759 
n/a 
n/a 
n/a 
n/a 
-12.16972 -4.176 -2.186 -4.5845 -4.4525 
-16.34572 -5.861 -7.2475 -9.0485 
-18.03072 -11.8077 -12.3211 
-23.97742 -16.8813 
-29.05102 
-7.4885 -4.176 -2.186 -9.322001 
-12.2917 -5.861 -12.7184 
-13.9767 -17.2786 
-25.3943 
n/a 
-4.5845 -2.7415 -1.4985 -5.6695 -1.7565 -1.4985 -6.864 -4.5645 0 
-7.093 -4.063 -6.656501 -6.5565 -2.4195 -7.8675 -12.2163 -4.5645 
-8.5585 -8.425 -7.133 -7.0125 -8.476001 -13.8174 -12.2163 
-13.0827 -8.491 -7.503001 -13.5048 -14.7489 -13.8174 
-13.1487 -8.899 -14.0261 -19.7777 -14.7489 
-6.864 -2.229 -4.176 -4.4525 -2.186 -4.5845 
-8.205501 -6.2655 -8.017 -6.1875 -7.2475 
-13.1242 -9.3995 -9.6855 -11.8242 
-16.2582 -11.817 -15.3222 
-18.6757 -17.4537 
