-4.759 
n/a 
n/a 
n/a 
n/a 
-4.759 
n/a 
n/a 
n/a 
n/a 
-4.759 
n/a 
n/a 
n/a 
n/a 
-4.759 
n/a 
n/a 
n/a 
n/a 
-4.468 0 -10.0425 0 -5.1645 0 
-4.468 -10.0425 -10.0425 -5.1645 -5.1645 
-14.8781 -10.0425 -15.9568 -5.1645 
-14.8781 -15.9568 -15.9568 
-20.7924 -15.9568 
-4.468 0 -12.16972 0 -5.1645 0 
-4.468 -12.16972 -12.16972 -5.1645 -5.1645 
-17.00532 -12.16972 -17.33422 -5.1645 
-17.00532 -17.33422 -17.33422 
-22.16982 -17.33422 
-4.468 0 -10.0425 0 -5.1645 0 
-4.468 -10.0425 -10.0425 -5.1645 -5.1645 
-14.8781 -10.0425 -15.9568 -5.1645 
-14.8781 -15.9568 -15.9568 
-20.7924 -15.9568 
-4.468 0 -10.0425 0 -5.1645 0 
-4.468 -10.0425 -10.0425 -5.1645 -5.1645 
-14.8781 -10.0425 -15.9568 -5.1645 
-14.8781 -15.9568 -15.9568 
-20.7924 -15.9568 
