-4.759 
n/a 
n/a 
n/a 
n/a 
-4.759 
n/a 
n/a 
n/a 
n/a 
-4.759 
n/a 
n/a 
n/a 
n/a 
-4.759 
n/a 
n/a 
n/a 
n/a 
-2.925 -2.742 -3.213 -2.0935 -2.7035 -3.277 
-4.3725 -4.9835 -4.5705 -5.357 -5.0805 
-6.5955 -6.084001 -7.9075 -6.5385 
-7.8255 -9.630501 -9.2305 
-11.5322 -10.9455 
-3.45 -2.4945 -3.09 -1.934 -4.0155 -3.277 
-5.354 -6.752 -4.809 -5.551 -5.3245 
-9.3885 -8.658001 -8.477 -6.657001 
-11.6459 -12.6374 -10.361 
-15.6253 -14.5214 
-2.925 -3.8125 -2.0935 -4.0155 -3.277 
-8.111 -5.1715 -5.486 -5.3245 
-9.086 -8.896501 -6.238 
-13.3994 -9.627501 
-14.1304 
-2.925 -3.8125 -2.0935 -4.0155 -3.277 
-8.111 -5.1715 -5.486 -5.3245 
-9.086 -8.896501 -6.238 
-13.3994 -9.627501 
-14.1304 
