-4.759 
n/a 
n/a 
n/a 
n/a 
-4.759 
n/a 
n/a 
n/a 
n/a 
-4.759 
n/a 
n/a 
n/a 
n/a 
-4.759 
n/a 
n/a 
n/a 
n/a 
-3.147 -5.1845 -3.9675 -1.756 -4.77 -2.186 -3.5725 -4.6815 -3.929 -1.4985 -5.1845 -4.4615 -2.186 -3.689 
-8.439 -8.286 -4.9775 -6.2925 -6.498501 -4.471 -5.81 -7.743501 -4.8985 -6.5205 -7.859 -6.8925 -4.993 
-12.2509 -9.0775 -7.229 -8.1335 -8.210501 -6.401 -8.2095 -8.906 -9.7565 -8.440001 -10.9208 -9.758501 
-13.0424 -10.523 -9.026 -10.2865 -9.007001 -8.5695 -9.689501 -13.8422 -11.7436 -11.9454 -13.7868 
-14.4879 -12.32 -11.1856 -11.083 -11.5329 -10.3475 -14.6601 -15.8293 -15.249 -14.8114 
-3.147 -3.4765 -3.929 -5.1845 -3.6885 -2.186 -2.6165 -4.9325 -3.9225 -6.4735 -5.083 0 -5.1845 -3.9675 -1.756 -4.877 -2.4945 -4.6815 0 
-6.5145 -4.589 -9.613501 -7.323501 -5.4995 -3.5105 -6.783501 -8.285501 -8.870001 -12.5249 -5.083 -5.1845 -8.286 -4.9775 -6.0345 -6.4775 -6.2105 -4.6815 
-7.2535 -10.2535 -11.9895 -9.148001 -6.387 -7.969001 -10.5535 -13.4368 -15.1266 -12.5249 -10.8215 -8.286 -9.0775 -9.622001 -7.57 -10.038 -6.2105 
-13.1352 -12.5485 -13.814 -10.6885 -9.227 -11.874 -15.7048 -19.6934 -15.1266 -18.2634 -13.923 -9.0775 -13.931 -11.2745 -11.1889 -10.038 
-15.4302 -14.373 -15.3545 -13.5285 -13.2492 -17.0253 -21.9614 -19.6934 -20.8651 -21.3649 -14.7145 -13.931 -15.5835 -14.8934 -11.1889 
-3.147 -2.925 -2.4945 -2.6165 -4.4615 -5.1845 -2.872 -3.4635 -5.1845 -4.8775 
-5.7825 -3.7675 -3.8065 -6.601501 -9.26 -8.627001 -6.919001 -9.378501 -9.540501 
-6.267 -4.933 -7.617001 -12.2838 -12.7979 -12.7472 -13.4814 -14.0571 
-8.002001 -8.4025 -13.5273 -15.8217 -16.9181 -19.3096 -18.16 
-11.6441 -14.4188 -17.0652 -19.9419 -23.4805 -23.9882 
-3.4765 -3.929 -1.4985 -5.1845 -3.6885 -2.7415 -2.6165 -4.9325 -4.742 -3.0365 -3.9225 -1.4985 -8.27 0 -1.4985 -3.9675 -1.756 -4.333 -1.7565 -5.1845 -5.015 -4.6815 -2.356 -3.277 0 
-4.589 -4.8985 -6.5205 -7.323501 -6.3815 -4.266 -6.783501 -8.028001 -8.037001 -7.109 -4.463 -9.271501 -8.27 -1.4985 -5.356501 -4.9775 -5.7875 -5.005 -6.580501 -11.4939 -7.686501 -6.105 -4.76 -3.277 
-5.3395 -9.7565 -8.096001 -9.948501 -7.567 -8.297501 -9.8715 -10.688 -12.7175 -7.462501 -10.7025 -9.271501 -10.1305 -5.356501 -6.341001 -8.328 -6.516 -10.4505 -13.7329 -14.1654 -8.943501 -8.8015 -4.76 
-10.3475 -11.3996 -10.185 -11.134 -9.903501 -11.6679 -12.6937 -15.3685 -13.071 -13.7876 -10.7025 -11.1142 -13.9885 -6.341001 -9.026001 -8.775001 -12.4537 -17.6029 -16.4044 -15.4224 -12.2486 -8.8015 
-12.075 -13.4886 -11.3705 -13.4705 -13.3957 -14.4901 -17.3742 -15.722 -19.3961 -13.7876 -12.5452 -14.9722 -14.973 -9.026001 -9.0635 -14.7353 -19.6061 -20.2744 -17.6614 -18.7275 -12.2486 
