-4.759 
n/a 
n/a 
n/a 
n/a 
-4.759 
n/a 
n/a 
n/a 
n/a 
-4.759 
n/a 
n/a 
n/a 
n/a 
-4.759 
n/a 
n/a 
n/a 
n/a 
-3.321 -3.693 -3.091 -3.699 -5.8085 -2.8635 0 
-5.4775 -6.71 -7.2235 -9.606501 -9.6595 -2.8635 
-8.278 -11.0325 -13.6168 -13.6147 -9.6595 
-12.6785 -17.4258 -17.625 -13.6147 
-19.0718 -21.434 -17.625 
-3.091 -3.571 -3.699 -5.2685 -2.8635 0 
-8.196501 -5.9465 -8.512501 -9.388 -2.8635 
-10.5535 -10.176 -13.2768 -9.388 
-14.783 -14.8189 -13.2768 
-19.4259 -14.8189 
-3.571 -3.699 -4.8875 -2.8635 0 
-5.9465 -9.275001 -8.882 -2.8635 
-12.4119 -13.4093 -8.882 
-16.5462 -13.4093 
-16.5462 
-2.9805 -3.535 -5.376 -1.4985 -3.6765 -2.8635 0 
-7.6245 -9.7425 -7.306001 -4.501 -7.653501 -2.8635 
-14.0118 -11.8461 -10.396 -9.1055 -7.653501 
-16.1154 -14.9361 -15.0005 -9.1055 
-19.2054 -19.5406 -15.0005 
