-4.759 
n/a 
n/a 
n/a 
n/a 
-4.759 
n/a 
n/a 
n/a 
n/a 
-4.759 
n/a 
n/a 
n/a 
n/a 
-4.759 
n/a 
n/a 
n/a 
n/a 
-4.2085 -2.186 -7.5405 -1.756 -2.925 -3.7905 -5.5025 -2.0935 -3.535 -3.8195 0 
-6.1315 -8.8575 -9.213 -4.2585 -5.532001 -8.449 -7.5055 -5.035501 -6.625 -3.8195 
-13.1864 -10.5865 -11.7717 -7.0865 -10.3291 -10.5535 -10.8935 -7.625 -6.625 
-14.9154 -13.1452 -14.5997 -11.982 -12.4336 -13.9415 -13.483 -7.625 
-17.4741 -15.9732 -19.4952 -14.0865 -15.8216 -16.531 -13.483 
-8.4195 -2.8645 -3.535 -4.6805 
-11.9424 -6.896 -8.8915 
-15.9739 -12.4527 
-21.5306 
n/a 
-1.4985 -4.441 -3.7555 -4.794 -1.756 -3.7905 -3.535 -4.6805 0 
-5.7495 -9.248 -7.7795 -6.442 -5.3495 -7.6025 -8.8915 -4.6805 
-11.4621 -13.366 -8.867001 -9.776 -9.083 -13.372 -8.8915 
-15.5801 -14.4535 -12.367 -13.5095 -14.9255 -13.372 
-16.6676 -17.9535 -16.1005 -19.352 -14.9255 
-4.2085 -2.4945 -4.368 
-6.726501 -5.8715 
-9.865001 
n/a 
n/a 
