-4.759 
n/a 
n/a 
n/a 
n/a 
-4.759 
n/a 
n/a 
n/a 
n/a 
-4.759 
n/a 
n/a 
n/a 
n/a 
-4.759 
n/a 
n/a 
n/a 
n/a 
-1.934 -4.1855 -3.691 -3.918 -1.934 -4.5675 -1.7565 -3.4975 -3.468 
-5.408 -8.248 -7.6385 -6.013 -7.177 -5.8295 -4.91 -6.428 
-9.2215 -12.4391 -9.43 -12.0002 -8.51 -7.8555 -6.627 
-13.5752 -14.2306 -15.5318 -13.3332 -10.5874 -7.8665 
-15.3667 -20.3324 -16.8648 -15.4106 -10.5984 
-3.691 -3.918 -1.4985 -3.9235 -1.7565 -3.4975 -3.468 0 -5.9285 0 -1.934 -4.1855 0 
-7.6385 -5.135 -4.814 -5.24 -4.91 -6.428 -3.468 -5.9285 -5.9285 -1.934 -5.408 -4.1855 
-8.597501 -7.7285 -5.8265 -6.592501 -6.627 -6.428 -7.229 -5.9285 -7.8045 -5.408 -5.408 
-9.767 -9.1035 -6.813001 -6.679 -6.627 -7.2375 -7.229 -7.8045 -9.637501 -5.408 
-9.8 -9.483001 -6.869 -6.679 -7.2465 -7.2375 -8.554001 -9.637501 -9.637501 
-3.818 -3.676 -3.9235 -1.7565 -3.4975 -9.396501 -4.1855 -3.158 -4.267 -1.7695 -3.691 0 
-8.699 -7.4655 -5.24 -4.91 -10.189 -11.408 -7.298 -7.677501 -6.9425 -5.5435 -3.691 
-13.1601 -8.8905 -6.592501 -7.436501 -11.9311 -15.0351 -12.6801 -10.7684 -11.2181 -5.5435 
-14.5851 -9.079 -7.298501 -11.9483 -15.0518 -20.4172 -15.771 -15.044 -11.2181 
-14.7736 -9.73 -11.9928 -15.0648 -20.4339 -23.5081 -20.0466 -15.044 
-3.818 -3.9235 -1.7565 -3.4975 -3.468 -5.9285 0 -1.934 -4.1855 -4.267 -1.7695 -3.691 0 
-8.568501 -5.24 -4.91 -6.428 -7.229 -5.9285 -1.934 -5.408 -8.609 -6.9425 -5.5435 -3.691 
-9.110001 -6.592501 -6.627 -7.2375 -7.229 -7.8045 -5.408 -10.016 -11.4315 -11.2181 -5.5435 
-10.7399 -6.679 -7.2465 -7.2375 -8.554001 -9.637501 -10.016 -13.0469 -15.7071 -11.2181 
-10.8264 -7.287001 -7.2465 -8.5575 -9.790001 -14.6421 -13.0469 -17.3225 -15.7071 
