-4.759 
n/a 
n/a 
n/a 
n/a 
-4.759 
n/a 
n/a 
n/a 
n/a 
-4.759 
n/a 
n/a 
n/a 
n/a 
-4.759 
n/a 
n/a 
n/a 
n/a 
-2.0935 -2.9995 -3.681 -3.0365 -2.742 -2.489 -2.664 -5.23 -2.5045 -3.898 -3.7555 -4.645 
-4.1725 -7.6035 -6.410501 -4.668 -3.301 -4.563 -9.737 -7.259 -6.479 -7.971001 -8.443 
-9.342501 -10.228 -8.087501 -4.759501 -5.502501 -12.1392 -11.7736 -11.6669 -11.1394 -13.0081 
-12.0224 -11.9406 -8.201 -6.069 -13.4727 -14.1758 -16.1815 -16.3273 -16.1765 
-13.735 -12.0541 -9.759501 -14.373 -15.5093 -18.5837 -20.8419 -21.3644 
-2.264 -3.345 -1.756 -3.6055 -3.8465 0 -3.0365 -2.742 -2.489 -3.135 -5.555 -2.5045 -1.4985 -4.645 -2.0935 -1.4985 -3.898 0 0 
-4.884501 -5.2935 -5.005 -7.041 -3.8465 -3.0365 -4.668 -3.301 -5.307 -8.030001 -7.7815 -3.583 -5.87 -7.087501 -2.9725 -5 -3.898 0 
-6.908 -5.4295 -8.249001 -7.041 -6.5485 -4.668 -4.759501 -6.1715 -9.2225 -10.2815 -8.758 -7.571 -8.408 -8.102501 -6.613 -5 -3.898 
-6.996 -8.6405 -8.249001 -9.464001 -8.293 -4.759501 -6.2755 -10.494 -11.7806 -11.649 -12.8236 -10.5068 -9.368501 -10.476 -6.613 -5 
-10.4185 -8.6405 -10.8342 -11.1695 -8.382501 -6.2755 -10.5325 -12.8885 -13.1481 -15.7146 -15.7594 -11.4673 -11.8008 -10.476 -6.613 
-1.934 -3.874 -3.6505 0 -3.213 -3.0365 -2.186 -1.8085 -5.537 -3.115 -4.645 -1.934 -1.4985 -3.898 
-6.6875 -8.3995 -3.6505 -3.213 -5.84 -3.66 -3.164 -6.2625 -8.941501 -7.216001 -6.31 -2.6125 -5 
-11.8848 -8.3995 -7.3665 -5.84 -6.6265 -4.218 -7.5675 -9.474 -13.1577 -8.587001 -6.821001 -6.2215 
-11.8848 -12.5439 -10.543 -6.6265 -7.2185 -8.427501 -11.0204 -13.7556 -14.5287 -8.906 -9.676001 
-16.0292 -15.7204 -11.3295 -7.2185 -11.6086 -12.2732 -15.302 -15.1266 -14.8477 -12.126 
-3.1495 -3.937 -1.7565 -3.898 -1.7695 -3.2345 -4.645 -1.7695 -3.644 -1.7565 -3.013 -2.3335 -2.871 0 
-8.5465 -6.740001 -5.228 -6.024 -3.713 -8.1505 -6.894001 -5.0855 -6.118001 -6.318501 -4.7735 -4.7635 -2.871 
-11.6573 -11.0945 -7.331 -8.026001 -8.4005 -9.943001 -10.718 -8.529 -11.639 -8.283501 -7.237 -4.7635 
-16.0118 -13.1975 -9.360001 -10.586 -10.0925 -13.767 -14.1615 -14.3816 -13.604 -11.0842 -7.237 
-18.1148 -15.2265 -11.9876 -12.278 -13.9165 -17.2105 -20.0141 -16.3466 -16.4047 -11.0842 
