-4.759 
n/a 
n/a 
n/a 
n/a 
-4.759 
n/a 
n/a 
n/a 
n/a 
-4.759 
n/a 
n/a 
n/a 
n/a 
-4.759 
n/a 
n/a 
n/a 
n/a 
-3.8385 -3.2875 0 -1.756 -4.0725 -3.4715 -3.2015 -4.167 -2.5685 -2.674 0 
-8.142501 -3.2875 -1.756 -5.518 -7.543 -6.4785 -8.4545 -6.5515 -5.2495 -2.674 
-8.142501 -4.9375 -5.518 -8.849501 -8.852501 -12.8291 -11.3268 -8.900001 -5.2495 
-10.044 -9.372001 -8.849501 -10.6956 -15.7779 -15.7014 -13.6753 -8.900001 
-14.4785 -12.9539 -10.6956 -17.621 -18.6502 -18.0499 -13.6753 
-3.468 -1.756 -4.0995 -3.468 -2.4945 -3.0365 
-4.7175 -5.71 -7.981501 -5.546 -4.952001 
-8.490001 -9.227501 -9.2545 -8.259501 
-9.366501 -10.1515 -12.2334 
-10.265 -13.6846 
-3.0365 -2.7415 -1.8085 -3.9515 -1.756 -3.135 -2.8965 -5.6445 -5.36 -3.152 -3.0365 0 
-4.2225 -3.891 -5.7485 -5.411 -4.5755 -4.9085 -7.878 -12.0509 -7.989 -5.5585 -3.0365 
-4.725 -7.752501 -7.864501 -8.343 -5.9285 -10.01 -14.594 -14.6799 -10.3225 -5.5585 
-9.029 -9.846001 -11.2221 -9.753 -11.2868 -16.726 -17.223 -17.0134 -10.3225 
-11.2051 -13.609 -12.6321 -15.1113 -18.0028 -19.355 -19.5565 -17.0134 
-3.0365 -2.7415 -1.8085 -3.9515 -3.2875 -1.756 -3.3715 -4.0995 -3.9515 -4.167 
-4.2225 -3.891 -5.7485 -5.783 -4.9375 -4.6545 -7.139501 -8.9275 -6.479 
-4.725 -7.752501 -7.4685 -7.2625 -7.666 -8.6675 -12.7033 -11.7916 
-9.029 -9.528001 -8.7075 -8.679501 -11.8356 -14.3637 -15.5674 
-10.8871 -11.0292 -10.2543 -13.9755 -17.5318 -17.2278 
