-4.759 
n/a 
n/a 
n/a 
n/a 
-4.759 
n/a 
n/a 
n/a 
n/a 
-4.759 
n/a 
n/a 
n/a 
n/a 
-4.759 
n/a 
n/a 
n/a 
n/a 
-1.4985 -3.8275 -4.69 -3.433 -1.7565 -1.4985 -4.031 -1.7565 -2.3335 -11.538 -6.885 -8.363501 -2.7415 -3.917 -2.5045 -1.4985 -3.757 -1.934 -4.1045 
-4.726 -8.4425 -7.066 -4.1845 -2.4195 -4.771 -5.571 -4.314 -11.362 -12.617 -15.8119 -11.683 -5.6245 -5.6565 -3.583 -4.5435 -5.7505 -5.346 
-8.741001 -10.553 -7.617 -4.6515 -6.0315 -6.571 -7.6225 -13.922 -15.168 -22.5643 -19.1314 -14.566 -6.3145 -6.196 -6.264 -6.433001 -8.1945 
-10.76 -11.104 -8.278501 -8.114 -8.040001 -8.388 -17.7337 -17.5396 -24.8903 -25.8838 -22.0144 -15.256 -6.6975 -9.2665 -8.4715 -9.176001 
-11.311 -11.7655 -11.8294 -9.705501 -10.1985 -18.714 -21.3257 -27.2619 -28.2098 -28.7668 -22.7044 -15.639 -9.6315 -11.8982 -11.4215 
-1.934 -1.4985 -3.158 -4.1045 -1.4985 -3.8275 -2.7415 -4.69 -2.0935 -3.135 -3.8405 -1.7565 -2.95 -3.034 -7.1975 -8.127501 -9.239 -2.7415 -4.645 -2.5045 -1.4985 -3.757 0 
-2.6125 -4.178 -6.283 -5.643001 -4.726 -5.9615 -6.2025 -6.354 -4.4665 -6.777 -4.563 -4.3865 -5.009 -9.8745 -9.995501 -10.9315 -12.3243 -5.6165 -6.168001 -3.583 -4.5435 -3.757 
-5.265 -7.5575 -8.1675 -8.998001 -6.420001 -9.381001 -7.515 -8.059 -7.111501 -6.9195 -5.099 -6.5525 -12.0413 -12.8865 -12.9443 -14.0168 -15.1993 -6.704 -6.946001 -6.264 -4.5435 
-8.127501 -8.809501 -11.7045 -10.622 -9.737 -10.7183 -9.404 -10.0315 -7.2335 -7.054501 -7.0315 -13.8374 -15.0533 -15.8353 -16.0296 -16.8918 -16.2868 -7.329 -8.1155 -6.264 
-9.1485 -12.3683 -13.3285 -13.939 -11.1349 -12.6073 -10.382 -10.3035 -7.246 -9.085501 -14.413 -16.8494 -18.0021 -18.9206 -18.9046 -17.9793 -16.9118 -8.5565 -8.1155 
-3.2615 -1.4985 -4.219 -1.7565 -7.1975 -7.460001 -2.5045 -3.757 -1.7565 -4.628 -4.743 -3.0365 -2.7415 -1.8085 -6.1495 -2.0935 -3.135 -2.95 0 
-4.032 -5.129 -5.549 -9.14 -7.946 -9.5935 -5.468 -4.5665 -6.107501 -4.7515 -8.0595 -4.2225 -3.891 -6.8575 -8.359 -4.4665 -4.868 -2.95 
-6.3775 -5.878 -10.6095 -9.640501 -9.9645 -10.5445 -5.918 -7.846001 -6.281001 -8.067 -9.172501 -4.725 -9.106501 -8.8125 -10.543 -5.4385 -4.868 
-7.4995 -10.7025 -10.7775 -10.7625 -10.7075 -10.9945 -9.6075 -7.873001 -9.021501 -9.1835 -9.704 -9.2335 -11.1401 -11.1791 -11.515 -5.4385 
-12.51 -10.7845 -11.8995 -11.5055 -11.1575 -14.684 -9.646501 -11.0339 -10.085 -9.7185 -14.2125 -11.2921 -13.5067 -12.1511 -11.515 
-1.934 -4.1045 -12.16972 -12.16972 -9.239 -2.7415 -4.645 -2.5045 -3.757 -3.2615 -2.3615 -1.4985 -3.8275 -2.7415 -6.9115 -2.0935 -3.135 -3.8405 
-5.346 -16.67122 -24.33944 -21.40872 -12.3243 -5.6165 -6.168001 -5.468 -6.943501 -5.276 -4.913 -4.726 -5.9615 -8.894 -8.7355 -4.4665 -6.777 
-18.46392 -28.84094 -33.57844 -24.49402 -15.1993 -6.704 -7.354001 -8.139 -9.019 -6.7585 -8.3525 -6.420001 -12.6706 -10.348 -10.427 -7.111501 
-30.63364 -38.07994 -36.66374 -27.36902 -16.2868 -7.8865 -9.975 -10.543 -10.7277 -9.8605 -9.7735 -13.3079 -14.1246 -12.0395 -13.072 
-39.87264 -41.16524 -39.53874 -28.45652 -17.4693 -10.7025 -12.3894 -12.2517 -13.8297 -11.3527 -16.6614 -14.7619 -15.8161 -14.6845 
