-4.759 
n/a 
n/a 
n/a 
n/a 
-4.759 
n/a 
n/a 
n/a 
n/a 
-4.759 
n/a 
n/a 
n/a 
n/a 
-4.759 
n/a 
n/a 
n/a 
n/a 
-2.5045 -3.543 -3.778 -2.3345 -5.3065 -1.756 -6.087 -4.278 -2.186 -1.934 -3.0835 -2.6615 -3.5015 -2.9705 -2.186 -6.178 -4.321 -4.173 -1.4985 -3.188 
-5.323 -7.474 -5.663 -6.856501 -7.368001 -7.587 -9.757 -5.364 -4.0835 -5.331 -5.863 -7.1385 -6.2245 -3.89 -8.254001 -10.2755 -7.203 -4.3745 -3.619 
-8.7635 -10.233 -10.688 -7.993001 -9.582001 -10.0815 -10.0065 -8.781501 -7.54 -7.9555 -10.1145 -10.1581 -6.935 -10.27 -12.5999 -13.3709 -7.2625 -5.4615 
-12.0233 -15.258 -13.0909 -10.6595 -10.0835 -10.0875 -14.2188 -12.5154 -10.6215 -13.063 -13.1341 -10.8686 -13.6132 -14.6775 -15.6953 -13.4304 -9.284 
-17.0483 -17.6609 -15.7574 -12.2176 -10.0895 -15.3586 -17.9527 -15.5969 -15.729 -16.0826 -13.8446 -17.5468 -18.0207 -17.7729 -15.7548 -15.4519 
-4.278 -3.7875 -5.343 -3.5015 -2.0935 -3.188 -3.2825 -1.756 -4.321 -3.4605 -3.264 -4.4775 -1.756 -6.087 
-9.0905 -10.6605 -7.550501 -4.7905 -5.7145 -6.731501 -5.2085 -6.031 -9.4685 -7.258 -7.16 -6.323501 -7.587 
-15.9955 -12.868 -9.456 -8.5085 -9.443501 -8.6695 -9.2005 -10.9573 -13.5434 -11.4406 -9.289001 -12.9255 
-18.203 -14.7735 -13.3414 -12.7043 -11.5075 -13.1737 -14.336 -15.0322 -17.726 -13.5696 -15.9658 
-20.1085 -18.6589 -17.5372 -14.7683 -16.0117 -18.3092 -18.4109 -19.2148 -19.855 -20.2464 
-4.4775 -1.756 -9.483 -4.1585 -2.3335 -4.278 -3.4605 -2.8645 -4.663 -2.645 -3.5215 
-6.323501 -11.1845 -13.4775 -5.438 -7.198501 -8.146001 -5.754001 -6.561 -6.9455 -5.657001 
-16.6796 -15.3138 -15.6424 -10.1425 -10.3285 -9.838 -10.2813 -8.3985 -9.945 
-20.6523 -17.3575 -20.3469 -13.5827 -12.4383 -14.7389 -12.1188 -12.443 
-22.696 -22.062 -23.7871 -15.6925 -17.3392 -16.5764 -16.1633 
-4.4775 -1.756 -12.16972 -2.7455 -3.188 -4.0005 -3.908 -3.047 -1.7695 -2.6615 -3.17 -1.7565 -3.5025 -3.609 -1.934 -2.871 -1.7565 -4.278 
-6.323501 -14.93432 -14.91522 -6.2925 -4.969501 -8.519501 -6.4635 -5.9705 -4.739 -5.705501 -4.179 -5.2375 -5.621 -5.203 -4.2805 -3.5385 -6.515 
-20.27282 -17.67982 -18.46222 -7.896 -9.553 -11.1768 -9.584001 -10.426 -8.341001 -7.7275 -8.013 -7.323 -7.719 -6.986001 -5.057 -8.694 
-23.01832 -21.22682 -20.06572 -12.9197 -12.2929 -14.2973 -14.1239 -14.028 -9.5515 -11.7403 -10.1635 -9.127501 -10.3225 -8.897501 -10.5267 
-26.56532 -22.83032 -25.08942 -15.6596 -15.4134 -18.8372 -17.7259 -15.2385 -13.5843 -13.8908 -12.6406 -11.8632 -12.234 -14.6196 
