-4.759 
n/a 
n/a 
n/a 
n/a 
-4.759 
n/a 
n/a 
n/a 
n/a 
-4.759 
n/a 
n/a 
n/a 
n/a 
-4.759 
n/a 
n/a 
n/a 
n/a 
-1.4985 -3.3755 -5.1845 -3.1385 -3.61 -2.5045 -1.4985 -2.9635 -2.264 -3.188 -2.4285 -2.985 -4.0445 -4.33 -1.4985 -3.188 -2.7765 -2.489 -3.849 -2.5045 -5.1845 -4.4975 0 
-4.057 -9.499001 -7.4095 -6.263 -4.1825 -3.1915 -4.761 -5.3015 -5.849 -6.0275 -5.226501 -6.264501 -6.656501 -4.900001 -3.619 -6.0155 -3.495 -5.125 -6.305 -8.208 -10.2485 -4.4975 
-9.85 -11.8556 -10.9104 -6.7345 -4.6695 -7.2555 -7.21 -8.317 -9.360001 -8.6555 -9.122001 -8.496 -7.432001 -7.553 -6.18 -6.792 -6.1585 -6.962501 -10.533 -13.4822 -10.2485 
-12.3586 -15.3565 -11.3819 -7.4925 -8.061501 -9.4525 -10.6927 -12.7982 -12.2724 -12.6958 -11.5271 -9.151001 -9.777 -10.4185 -7.0175 -9.52 -7.667 -11.5975 -15.8072 -13.4822 
-15.8595 -15.828 -12.1399 -10.7175 -10.2035 -12.9502 -15.1739 -15.7106 -16.3127 -15.1009 -12.1821 -11.6142 -12.7855 -10.7155 -9.822001 -11.1589 -12.4988 -16.8717 -15.8072 
-1.4985 -3.3755 -2.3335 -8.1485 -3.047 -1.4985 -3.188 -1.756 -4.0445 -1.4985 -3.188 -2.7765 -2.489 -4.816 -1.934 -8.1485 -4.4975 
-4.057 -4.8655 -10.8415 -11.5561 -4.095 -3.619 -4.863 -6.218 -5.472 -3.619 -6.0155 -3.495 -5.6005 -6.197001 -10.3965 -13.0066 
-5.529 -13.7003 -14.2491 -12.6041 -6.176001 -5.0875 -9.589001 -7.259 -7.9575 -6.18 -6.792 -6.390501 -6.5985 -15.5093 -15.2546 
-14.4826 -17.1079 -15.2971 -14.6851 -7.418 -9.833501 -10.4205 -9.444501 -10.5225 -7.0175 -8.975 -7.309501 -16.3716 -20.3674 
-17.8902 -18.1559 -17.3781 -15.9271 -10.7325 -10.665 -12.606 -12.0765 -10.7495 -9.223001 -9.673 -17.1908 -21.2297 
-8.27 -3.043 -1.7695 -2.9635 -2.3615 -3.188 0 -1.756 -4.972 -5.547 -2.186 -3.849 -8.1485 -5.547 
-10.66 -3.528 -4.09 -4.57 -5.2525 -3.188 -1.756 -6.5675 -11.6092 -7.4195 -4.8565 -12.1581 -14.0561 
-11.145 -6.3655 -4.858 -8.9025 -5.2525 -4.863 -6.5675 -13.4777 -13.4817 -10.0375 -13.4466 -18.0657 
-13.9825 -8.5535 -9.623001 -8.9025 -6.4035 -10.1 -13.4777 -15.3502 -16.0997 -18.6276 -19.3542 
-16.1705 -13.2025 -9.623001 -10.035 -12.2251 -17.0102 -15.3502 -17.9682 -24.6898 -24.5352 
-8.405001 -2.229 -6.3705 -4.7595 -1.4985 -3.3755 -1.4985 -8.27 -3.61 -2.4285 -1.4985 -4.807 -1.7565 -8.27 0 
-9.626 -8.342501 -10.9075 -5.4655 -4.057 -4.9275 -9.271501 -11.046 -6.514 -4.002501 -5.9145 -5.8905 -9.440001 -8.27 
-15.8943 -13.2307 -11.6135 -8.043 -5.3005 -12.9049 -12.0297 -13.95 -8.023001 -8.476501 -6.296 -14.2316 -9.440001 
-20.7825 -13.9367 -14.191 -9.123 -13.4311 -15.6631 -14.9337 -15.459 -10.6875 -8.8345 -14.8709 -14.2316 
-21.4885 -16.5142 -15.271 -17.309 -16.1893 -18.5671 -16.4427 -18.1235 -11.0455 -17.4818 -14.8709 
