-4.759 
n/a 
n/a 
n/a 
n/a 
-4.759 
n/a 
n/a 
n/a 
n/a 
-4.759 
n/a 
n/a 
n/a 
n/a 
-4.759 
n/a 
n/a 
n/a 
n/a 
-2.9805 -2.7415 -5.2695 -1.7695 -1.4985 -5.003 -1.7565 -1.4985 -3.4075 -4.231 -3.115 -10.083 -6.648 -3.4765 -2.9805 -2.7415 -4.175 -1.934 -3.97 -1.756 -4.248 -4.563 0 
-4.004 -6.837 -5.785 -2.7955 -6.6555 -6.762 -2.4195 -4.118 -6.758 -6.7215 -13.9736 -16.8408 -10.6095 -6.566 -4.004 -5.9935 -4.3135 -5.607 -5.137 -5.7 -7.81 -4.563 
-7.642001 -6.9885 -6.4135 -7.862 -7.393 -7.344501 -4.851 -7.8725 -9.0705 -17.7887 -20.7314 -20.8023 -13.699 -7.736001 -6.6095 -6.092 -7.1845 -6.5835 -8.295501 -9.387001 -7.81 
-7.771 -7.4775 -11.8626 -8.568001 -8.046 -10.7025 -8.481501 -10.6875 -20.1871 -24.5465 -24.6929 -23.8918 -14.869 -10.6319 -6.645 -8.868501 -7.907 -10.281 -12.5965 -9.387001 
-8.251 -13.0406 -12.5686 -9.2005 -11.4096 -14.333 -11.5329 -21.8041 -26.9449 -28.508 -27.7824 -25.0618 -17.7649 -10.6674 -9.469001 -9.3555 -11.7341 -14.7242 -12.5965 
-2.9805 -2.7415 -4.6785 -2.3345 -5.003 -1.7565 -3.4075 -4.231 -3.115 -10.35 -6.648 -1.756 -4.0645 -3.4155 -4.722 -1.934 -3.97 -1.756 -4.248 -4.866 -4.2995 0 
-4.004 -5.959001 -5.1215 -8.151 -6.762 -5.009 -6.758 -6.7215 -14.2406 -17.4116 -8.2325 -6.288 -7.132 -7.014 -6.446 -5.607 -5.137 -5.7 -7.309 -8.6355 -4.2995 
-7.211 -6.086 -10.089 -9.547501 -9.8695 -7.8945 -9.0705 -18.0557 -21.3022 -18.9961 -13.0079 -9.0145 -9.8505 -8.3605 -9.411 -6.5835 -8.295501 -9.3125 -10.078 -8.6355 
-7.4775 -11.3413 -11.4855 -12.6286 -10.5895 -10.099 -20.4541 -25.1173 -22.8867 -23.7715 -15.7344 -11.7558 -11.5068 -11.6001 -10.2875 -10.281 -10.2645 -12.2011 -10.078 
-12.7944 -12.7378 -14.5666 -13.3486 -12.794 -21.4826 -27.5157 -26.7018 -27.6621 -26.498 -18.4757 -13.4121 -14.7464 -12.4766 -13.985 -12.3922 -13.4625 -12.2011 
-10.083 -3.115 -4.231 -5.2695 -3.595 -2.3345 -2.985 -4.3285 -1.756 -3.0415 -2.9805 -4.5445 -3.091 -3.7895 -1.934 -4.866 -1.7565 -4.712 0 
-13.3078 -8.132 -9.529501 -7.627501 -5.631001 -4.871 -6.966001 -5.4645 -4.454 -5.0885 -6.026 -6.593 -6.2 -4.5695 -7.281 -6.3835 -5.672 -4.712 
-18.3248 -13.7923 -11.8473 -9.636001 -8.134001 -8.959001 -7.891 -8.179001 -6.387 -8.277 -7.346 -8.856001 -6.383 -10.5865 -9.2065 -9.558001 -5.672 
-23.9851 -16.1101 -13.8558 -10.6115 -12.3856 -9.687 -10.1805 -9.9975 -9.583 -9.711 -9.574 -8.991 -12.599 -12.512 -12.5684 -9.558001 
-26.3029 -18.1186 -14.8313 -14.8631 -13.1136 -12.0079 -11.999 -13.1935 -10.9928 -11.939 -9.68 -15.353 -14.5245 -15.8739 -12.5684 
-10.7545 -8.4175 -2.9805 -5.701 -2.5195 -4.231 -4.3285 0 -4.0645 -3.7895 -1.934 -4.712 
-19.5566 -11.707 -7.231501 -7.989 -7.028501 -8.950001 -4.3285 -4.0645 -7.1415 -4.5695 -6.797 
-22.8461 -15.958 -9.6745 -13.1486 -12.5597 -8.950001 -9.184501 -7.1415 -7.2545 -8.962001 
-27.0971 -18.401 -14.7469 -18.6798 -12.5597 -14.044 -12.6463 -7.2545 -11.9032 
-29.5401 -23.4734 -20.2781 -18.6798 -17.6537 -17.5058 -12.7593 -11.9032 
