-4.759 
n/a 
n/a 
n/a 
n/a 
-4.759 
n/a 
n/a 
n/a 
n/a 
-4.759 
n/a 
n/a 
n/a 
n/a 
-4.759 
n/a 
n/a 
n/a 
n/a 
-3.539 -3.2815 0 0 -2.7295 -2.4945 -2.6165 -4.8005 -1.7565 -2.9995 -3.59 0 -3.188 -3.959 -3.2645 -4.0135 -1.4985 -4.67 -2.264 -2.791 0 -2.7295 -2.4945 -3.6455 -1.7565 -3.8735 0 0 -3.264 -6.144 -4.2245 -3.2555 0 
-5.6105 -3.2815 0 -2.7295 -3.7725 -3.8065 -8.189501 -6.045001 -4.063 -5.866 -3.59 -3.188 -6.2425 -6.428 -6.594501 -4.874 -5.861501 -5.5125 -5.3745 -2.791 -2.7295 -3.7725 -6.441 -5.007 -5.112 -3.8735 0 -3.264 -9.0425 -8.016 -8.224501 -3.2555 
-5.6105 -3.2815 -2.7295 -3.7725 -5.0715 -8.837001 -9.570001 -8.408001 -6.598001 -5.866 -6.9015 -6.2425 -8.943501 -9.394501 -7.103 -8.06 -6.3865 -8.2655 -5.3745 -5.0435 -3.7725 -7.298501 -7.4045 -8.1385 -5.112 -3.8735 -3.264 -9.0425 -10.6095 -9.284 -8.224501 
-5.6105 -6.748 -3.7725 -5.0715 -10.3605 -10.361 -11.8802 -10.6875 -6.598001 -9.386001 -10.609 -8.943501 -11.9886 -10.675 -10.085 -8.256001 -9.288501 -8.2655 -7.068 -5.7865 -7.298501 -8.3715 -10.4675 -8.1385 -5.112 -7.2175 -9.0425 -10.6095 -11.8775 -9.284 
-9.081 -7.844 -5.0715 -10.3605 -11.8845 -12.8204 -14.1597 -10.6875 -10.442 -13.8087 -13.31 -11.9886 -13.2691 -13.657 -10.239 -11.6396 -9.288501 -10.6816 -7.9575 -9.7535 -8.3715 -11.7341 -10.4675 -8.1385 -8.021001 -13.2744 -10.6095 -11.8775 -11.8775 
-3.539 -3.2815 0 0 -2.7295 -2.4945 -2.6165 -3.7015 -2.9995 -3.59 0 -1.4985 -3.4225 -4.39 -3.3875 -4.687 -1.4985 -4.67 -2.264 -3.1405 0 -2.7295 -2.4945 -3.6455 -1.7565 -3.8735 0 0 -3.264 -4.891 -4.2245 -3.2555 0 
-5.6105 -3.2815 0 -2.7295 -3.7725 -3.8065 -6.225 -5.5675 -5.866 -3.59 -1.4985 -3.9655 -4.7525 -7.1365 -7.780001 -5.870501 -5.861501 -5.5125 -5.213 -3.1405 -2.7295 -3.7725 -6.441 -5.007 -5.112 -3.8735 0 -3.264 -8.6055 -9.046501 -8.224501 -3.2555 
-5.6105 -3.2815 -2.7295 -3.7725 -5.0715 -7.429501 -7.966001 -8.194 -5.866 -5.348001 -3.9655 -5.0455 -7.848001 -10.2645 -8.388 -7.37 -6.3865 -9.38 -5.213 -5.8005 -3.7725 -7.298501 -7.4045 -8.1385 -5.112 -3.8735 -3.264 -8.6055 -13.1746 -13.2489 -8.224501 
-5.6105 -6.748 -3.7725 -5.0715 -7.844501 -8.9975 -9.262501 -8.194 -7.693 -7.407001 -5.0455 -7.8725 -11.2706 -11.3421 -9.923 -7.632 -10.374 -9.38 -7.733001 -6.856 -7.298501 -8.3715 -10.4675 -8.1385 -5.112 -7.2175 -8.6055 -13.1746 -17.377 -13.2489 
-9.081 -7.844 -5.0715 -7.844501 -9.1955 -10.443 -9.262501 -9.77 -9.666 -8.493 -7.8725 -11.3097 -12.3482 -12.8771 -10.185 -11.9879 -10.374 -12.053 -8.8675 -8.9415 -8.3715 -11.7341 -10.4675 -8.1385 -8.021001 -12.8374 -13.1746 -17.377 -17.377 
-3.539 -3.2815 0 0 -2.7295 -2.4945 -2.6165 -3.7015 -2.9995 -3.59 0 -3.188 -3.959 -3.2645 -4.687 -1.4985 -4.67 -2.264 -2.791 0 -2.7295 -2.4945 -3.8735 -2.229 -3.6455 0 -3.264 -2.3345 -4.5845 -2.229 -4.156 -7.4635 
-5.6105 -3.2815 0 -2.7295 -3.7725 -3.8065 -6.225 -5.5675 -5.866 -3.59 -3.188 -6.2425 -6.428 -7.527 -5.870501 -5.861501 -5.5125 -5.3745 -2.791 -2.7295 -3.7725 -7.2835 -5.3655 -4.8975 -3.6455 -3.264 -5.9415 -6.9325 -5.886001 -5.647 -12.7619 
-5.6105 -3.2815 -2.7295 -3.7725 -5.0715 -7.429501 -7.966001 -8.194 -5.866 -6.9015 -6.2425 -8.943501 -10.181 -8.144 -7.37 -6.3865 -8.2655 -5.3745 -5.0435 -3.7725 -8.359 -7.4335 -9.286 -4.8975 -6.941501 -5.9415 -10.6875 -8.4975 -9.834001 -15.0569 
-5.6105 -6.748 -3.7725 -5.0715 -7.844501 -8.9975 -9.262501 -8.194 -9.386001 -10.609 -8.943501 -12.7751 -10.798 -8.661 -7.632 -9.288501 -8.2655 -7.068 -5.7865 -8.359 -8.519 -12.3838 -9.286 -8.3675 -10.1145 -10.6875 -12.2525 -12.6765 -19.4377 
-9.081 -7.844 -5.0715 -7.844501 -9.1955 -10.443 -9.262501 -12.1394 -13.8087 -13.31 -12.7751 -13.3921 -11.315 -8.703501 -9.9945 -9.288501 -10.6816 -7.9575 -10.361 -8.519 -14.6615 -12.3838 -12.6964 -11.8327 -14.8605 -12.2525 -16.4315 -22.2802 
-3.539 -3.2815 0 0 -2.7295 -2.4945 -2.6165 -3.7015 -2.8705 -3.59 0 -3.188 -3.959 -3.3875 -4.687 -1.4985 -4.67 -2.264 -2.791 0 -2.7295 -2.4945 -3.8735 -2.229 -3.6455 0 -5.1905 -4.891 -4.2245 -6.559 0 
-5.6105 -3.2815 0 -2.7295 -3.7725 -3.8065 -6.225 -6.2155 -5.276 -3.59 -3.188 -6.2425 -6.757 -7.780001 -5.870501 -5.861501 -5.5125 -5.3745 -2.791 -2.7295 -3.7725 -7.2835 -5.3655 -4.8975 -3.6455 -5.1905 -9.915501 -9.046501 -11.6393 -6.559 
-5.6105 -3.2815 -2.7295 -3.7725 -5.0715 -7.429501 -8.64 -7.890501 -5.276 -6.9015 -6.2425 -9.216001 -11.5645 -8.388 -7.37 -6.3865 -8.2655 -5.3745 -5.0435 -3.7725 -8.359 -7.4335 -9.286 -4.8975 -9.0795 -9.915501 -14.1532 -16.6637 -11.6393 
-5.6105 -6.748 -3.7725 -5.0715 -7.844501 -9.826 -10.7175 -7.890501 -9.095501 -10.609 -9.216001 -14.1611 -12.1725 -9.923 -7.632 -9.288501 -8.2655 -7.068 -5.7865 -8.359 -8.519 -12.3838 -9.286 -10.2135 -13.9585 -14.1532 -21.7704 -16.6637 
-9.081 -7.844 -5.0715 -7.844501 -10.1855 -11.9035 -10.7175 -11.9386 -13.064 -13.5825 -14.1611 -14.7691 -13.7075 -10.185 -9.9945 -9.288501 -10.6816 -7.9575 -10.361 -8.519 -14.6615 -12.3838 -14.5424 -15.0925 -18.1962 -21.7704 -21.7704 
