-4.759 
n/a 
n/a 
n/a 
n/a 
-4.759 
n/a 
n/a 
n/a 
n/a 
-4.759 
n/a 
n/a 
n/a 
n/a 
-4.759 
n/a 
n/a 
n/a 
n/a 
-5.6845 -4.39 -2.5195 -3.5455 -4.622 -2.985 -4.849 -1.934 -3.524 
-8.112 -6.971001 -5.71 -9.098001 -6.621 -7.425 -6.547 -5.012 
-10.0005 -9.506001 -11.8971 -11.3348 -9.088 -9.022 -9.3225 
-12.9643 -16.4801 -14.1339 -13.8018 -10.688 -12.1661 
-19.9384 -18.7169 -16.6009 -15.4018 -13.8321 
-3.7745 -3.959 -3.9535 -4.299 -2.5195 -1.4985 -3.5455 -1.934 -3.524 
-8.6995 -7.868 -9.509501 -6.334001 -3.1695 -4.554 -6.2995 -5.012 
-12.7395 -13.7404 -11.6845 -6.9635 -5.8305 -6.867001 -8.656 
-18.6119 -15.9154 -12.314 -8.568501 -7.952 -9.445001 
-20.7869 -16.5449 -13.919 -10.2325 -10.298 
-1.4985 -3.7745 -3.959 -3.9535 -5.368 -2.5195 -1.4985 -3.5455 0 -1.934 -3.539 0 
-4.753 -8.6995 -7.868 -7.748 -7.653 -3.1695 -4.554 -3.5455 -1.934 -5.011 -3.539 
-9.199 -12.7395 -11.9789 -10.0715 -8.109 -5.8305 -4.554 -6.2995 -5.011 -5.011 
-13.2978 -16.8504 -14.3024 -10.4095 -9.307 -5.8305 -6.867001 -9.162001 -5.011 
-17.4087 -19.1739 -14.6404 -11.6075 -9.307 -7.952 -9.599001 -9.162001 
-8.214001 -3.8275 -3.9535 -2.5045 -3.524 0 
-14.9095 -7.04 -5.6505 -6.042 -3.524 
-18.3918 -9.105 -10.0575 -6.042 
-20.4568 -13.9138 -10.0575 
-25.2656 -13.9138 
