-4.759 
n/a 
n/a 
n/a 
n/a 
-4.759 
n/a 
n/a 
n/a 
n/a 
-4.759 
n/a 
n/a 
n/a 
n/a 
-4.759 
n/a 
n/a 
n/a 
n/a 
-15.0025 
n/a 
n/a 
n/a 
n/a 
-2.915 -2.7455 -7.009 -1.934 -1.4985 -3.4605 -15.0025 
-4.0865 -9.764 -8.9655 -2.6125 -4.652 -10.822 
-11.5118 -11.9537 -9.537001 -6.203 -12.2996 
-13.7015 -12.5252 -13.2537 -14.6 
-14.273 -16.2419 -21.7061 
-2.915 -2.7455 -7.009 -1.934 -15.0025 
-4.0865 -9.764 -8.9655 -11.4945 
-11.5118 -11.9537 -19.0817 
-13.7015 -22.0699 
-23.8177 
-15.0025 -3.432 -2.9775 -2.7455 -9.9905 -5.593 
-12.467 -6.34 -5.371 -13.6946 -16.1023 
-16.6799 -9.889501 -17.0563 -19.8064 
-20.424 -21.6078 -23.1681 
-32.1423 -27.7196 
