-4.759 
n/a 
n/a 
n/a 
n/a 
-4.759 
n/a 
n/a 
n/a 
n/a 
-4.759 
n/a 
n/a 
n/a 
n/a 
-4.759 
n/a 
n/a 
n/a 
n/a 
-4.1855 -9.0155 -6.845 0 -4.0275 -4.1665 0 
-13.6386 -10.459 -6.845 -4.0275 -8.997 -4.1665 
-15.0821 -10.459 -11.4939 -8.997 -8.997 
-15.0821 -15.1079 -16.4634 -8.997 
-19.731 -20.0774 -16.4634 
-12.957 -10.1565 0 -4.0275 -3.685 0 
-24.4083 -10.1565 -4.0275 -7.307 -3.685 
-24.4083 -14.4082 -7.307 -7.307 
-28.66 -17.6877 -7.307 
-31.9395 -17.6877 
-4.1855 0 -8.771501 -10.1565 0 -4.0275 -3.685 0 
-4.1855 -8.771501 -19.7852 -10.1565 -4.0275 -7.307 -3.685 
-13.3946 -19.7852 -19.7852 -14.4082 -7.307 -7.307 
-24.4083 -19.7852 -24.0369 -17.6877 -7.307 
-24.4083 -24.0369 -27.3164 -17.6877 
-13.201 -9.173 0 -4.0275 -3.9825 0 
-14.6941 -9.173 -4.0275 -7.633 -3.9825 
-14.6941 -13.3997 -7.633 -7.633 
-18.9208 -17.0052 -7.633 
-22.5263 -17.0052 
