-4.759 
n/a 
n/a 
n/a 
n/a 
-4.759 
n/a 
n/a 
n/a 
n/a 
-4.759 
n/a 
n/a 
n/a 
n/a 
-4.759 
n/a 
n/a 
n/a 
n/a 
-3.3715 -5.891 -4.9225 -2.4945 -3.8245 -4.972 -1.934 -4.628 -4.743 
-9.531501 -9.614 -6.9525 -5.751 -8.416 -6.3755 -5.9605 -4.7515 
-13.3501 -11.653 -9.3655 -11.5273 -9.882501 -9.9805 -5.9845 
-15.3891 -14.066 -15.2556 -12.9938 -13.6297 -10.0295 
-17.8021 -19.9561 -16.7221 -16.741 -13.6787 
-2.5685 -3.319 -1.7565 -3.1385 -3.511 -1.934 -1.4985 -4.628 -6.739501 -3.59 
-6.443501 -4.165 -4.388 -5.979 -4.582 -2.6125 -6.298 -10.6215 -10.8215 
-6.8035 -6.8725 -7.409501 -6.5055 -5.3785 -7.589 -12.6721 -14.7035 
-9.271501 -9.413501 -7.862 -7.1645 -11.0184 -14.0563 -16.7541 
-11.9485 -9.609501 -8.580001 -13.1422 -17.4857 -18.1383 
-4.628 -4.743 -8.117001 -3.1385 -3.511 -2.356 -3.59 0 
-4.7515 -14.1028 -11.9199 -5.979 -5.258 -6.603001 -3.59 
-14.2061 -17.9057 -14.7604 -7.5205 -9.801001 -6.603001 
-18.009 -20.7462 -16.3019 -12.4845 -9.801001 
-20.8495 -22.2877 -21.2659 -12.4845 
-6.899 -2.186 -1.4985 -3.959 -3.3155 -3.1385 -2.5195 -3.6065 -5.7265 -3.391 -3.511 0 
-9.3575 -3.339 -5.5 -5.842 -5.531 -5.074 -5.35 -8.724501 -9.669001 -7.567 -3.511 
-10.311 -8.304 -6.8005 -7.829 -7.4315 -6.642 -9.915501 -12.9058 -13.8788 -7.567 
-15.5646 -10.085 -8.634501 -10.553 -8.268001 -10.513 -14.4194 -17.1156 -13.8788 
-17.3456 -11.9638 -11.9731 -11.3895 -12.3532 -15.0169 -18.6292 -17.1156 
