-4.759 
n/a 
n/a 
n/a 
n/a 
-4.759 
n/a 
n/a 
n/a 
n/a 
-4.759 
n/a 
n/a 
n/a 
n/a 
-4.759 
n/a 
n/a 
n/a 
n/a 
-3.881 -4.191 0 -4.597 -3.4155 -3.5035 -1.934 -1.4985 -3.9175 -2.9775 0 
-8.022 -4.191 -4.597 -10.1725 -6.516 -5.2825 -2.6125 -4.6635 -4.8395 -2.9775 
-8.022 -7.433 -10.1725 -13.273 -8.534 -5.6475 -5.686 -5.689 -4.8395 
-10.7335 -13.5717 -13.273 -15.291 -8.798 -9.3325 -7.650001 -5.689 
-16.8722 -16.6722 -15.291 -15.555 -12.8302 -9.866 -7.650001 
-3.3195 -4.191 -2.4285 -4.597 -3.4025 -2.356 -5.3055 -2.4945 -4.0445 -1.934 -1.4985 -3.9175 -2.9775 
-8.637 -6.2295 -6.653 -8.763 -6.189 -7.4165 -6.895 -5.0195 -4.768001 -2.6125 -4.6635 -4.8395 
-10.0645 -7.2115 -10.2645 -11.9223 -10.1675 -10.411 -8.9125 -5.523 -5.2635 -5.686 -5.689 
-10.244 -10.3815 -13.4238 -15.9008 -13.7492 -12.4285 -9.604 -6.048 -8.3485 -7.650001 
-14.7804 -13.5408 -17.4023 -19.4825 -15.7667 -13.12 -10.024 -8.681001 -9.691001 
-1.4985 -4.191 -1.7695 -4.597 -2.9775 -8.068001 -2.4945 -5.349 -3.325 -1.8085 -3.8225 -4.7725 
-5.432 -6.255 -6.239501 -7.992001 -11.9907 -9.591501 -5.841001 -6.940001 -4.692 -4.8095 -8.643001 
-8.115001 -7.1475 -9.4645 -17.3962 -13.5142 -12.9858 -7.484 -8.144501 -7.211 -9.103001 
-9.007501 -9.9665 -19.0113 -18.9197 -16.9085 -14.6288 -8.7115 -9.0565 -9.281 
-11.9727 -19.5601 -20.5348 -22.314 -18.5515 -15.8563 -9.386001 -9.974501 
-3.5855 
n/a 
n/a 
n/a 
n/a 
