-4.759 
n/a 
n/a 
n/a 
n/a 
-4.759 
n/a 
n/a 
n/a 
n/a 
-4.759 
n/a 
n/a 
n/a 
n/a 
-4.759 
n/a 
n/a 
n/a 
n/a 
-1.934 -5.0655 -2.688 -3.502 -6.402 -3.1715 -2.186 -4.794 -2.5195 -1.4985 -2.8965 -3.892 -1.756 -1.8085 -3.9515 -1.7565 -3.8655 -1.756 -8.7305 -2.186 -1.4985 -4.0375 -1.7565 -3.9515 -1.934 -5.046 
-6.3935 -8.0445 -5.0815 -9.967 -10.6461 -5.3485 -6.253 -5.6105 -3.1695 -3.928 -6.861 -5.337 -3.584 -5.7485 -5.368 -5.196 -5.2725 -10.4425 -11.136 -3.339 -5.0015 -5.415501 -5.3255 -5.901 -6.318 
-9.437 -10.1765 -10.159 -14.2111 -12.8231 -9.2735 -6.526501 -5.9935 -5.6085 -7.939501 -8.5275 -6.808001 -7.4945 -7.367001 -7.7275 -6.4155 -15.0572 -12.815 -12.289 -6.961 -5.943 -9.533501 -6.923 -10.134 
-11.6116 -15.2482 -14.4031 -16.3881 -16.7481 -9.5205 -6.735001 -7.5565 -9.200001 -9.39 -10.3885 -11.1263 -9.109 -10.0575 -8.764001 -16.3604 -17.4297 -13.968 -15.911 -7.1055 -9.854501 -11.713 -11.4854 
-16.6833 -19.4923 -16.5801 -20.3131 -16.9951 -9.8275 -8.257001 -11.327 -10.703 -11.285 -14.7068 -12.7408 -11.9001 -11.094 -18.9605 -18.7329 -18.5827 -17.59 -16.0555 -11.5018 -12.2744 -16.2754 
-1.934 -5.0655 0 -1.8085 -3.355 -1.7565 -2.688 -3.502 -5.3895 -2.186 -5.9375 -2.5195 -2.4265 -1.756 -4.281 -2.5045 -1.4985 -3.9515 -1.7565 -3.8655 -1.756 -12.16972 -2.186 -3.8755 -1.934 -5.046 0 
-6.3935 -5.0655 -1.8085 -4.6195 -3.725 -4.2285 -5.0815 -8.5415 -7.64 -8.055 -7.236501 -5.0885 -4.303 -6.2145 -5.893 -3.583 -5.059 -5.368 -5.196 -5.2725 -14.93432 -14.35572 -5.2415 -5.2035 -6.318 -5.046 
-6.3935 -7.373 -4.6195 -4.725 -6.683001 -5.8665 -8.5985 -10.523 -13.74 -8.926001 -8.855 -6.391 -8.6415 -7.847501 -6.6555 -6.8885 -5.839 -7.7275 -6.4155 -19.54902 -17.12032 -17.41122 -6.4215 -8.7705 -6.318 
-8.176001 -10.435 -4.725 -7.574501 -8.4265 -9.257501 -10.5325 -16.623 -14.611 -10.451 -10.1765 -10.9241 -10.7575 -8.656501 -9.755 -7.176001 -8.376 -8.764001 -20.85222 -21.73502 -20.17582 -18.59122 -10.4203 -8.7705 
-11.3594 -10.473 -7.574501 -9.588501 -11.6677 -11.2391 -16.6325 -17.494 -16.136 -12.0995 -14.7096 -13.0401 -11.5665 -12.0294 -9.986 -9.747001 -9.672501 -23.45232 -23.03822 -24.79052 -21.35582 -22.59002 -10.4203 
-4.426 -1.7565 -1.4985 -3.6115 -4.7285 -4.1555 -3.147 -1.934 -1.4985 -3.158 -5.0655 0 -1.8085 -3.355 -1.7565 -1.4985 -3.502 -6.402 -3.1715 -2.8645 -3.1125 -4.794 -1.756 -4.281 -2.5045 -4.3105 -3.9515 -1.756 -10.0725 -2.186 -4.0745 -2.5045 -1.4985 -3.9515 -1.7565 -3.4225 -4.0965 -1.934 -5.046 0 
-5.47 -2.4195 -4.081 -6.5495 -8.4455 -5.77 -4.778 -2.6125 -4.178 -7.8655 -5.0655 -1.8085 -4.6195 -3.725 -2.4195 -4.5955 -9.967 -10.6461 -5.634 -3.5345 -6.713 -6.442 -6.2145 -5.893 -7.137501 -6.0435 -5.411 -12.8371 -12.6379 -5.734 -6.4605 -3.583 -5.059 -5.368 -5.6355 -4.2 -6.3255 -6.318 -5.046 
-5.9535 -5.180501 -6.670501 -9.978001 -9.541501 -8.0725 -5.388 -5.265 -8.374001 -7.8655 -7.373 -4.6195 -4.725 -4.0515 -5.5145 -11.3807 -14.2111 -13.1086 -6.669001 -7.339 -8.0755 -9.9455 -7.847501 -9.484501 -10.007 -9.4095 -17.4189 -15.4025 -16.1859 -7.6335 -7.6985 -6.8885 -5.839 -8.724501 -7.05 -6.6215 -10.403 -6.318 
-8.462501 -7.797 -10.054 -11.0524 -11.844 -9.042001 -8.462501 -8.8605 -8.374001 -9.920501 -10.435 -4.725 -5.0485 -7.2205 -12.4005 -15.6248 -16.6736 -14.1436 -10.5035 -8.8575 -10.7495 -11.6885 -11.5634 -12.91 -12.791 -21.742 -19.9843 -18.9505 -18.0854 -8.68 -11.3146 -7.176001 -9.036 -9.585501 -8.411 -10.523 -10.403 
-10.2375 -11.2985 -11.1648 -13.3549 -12.8135 -12.1615 -12.1734 -8.8605 -10.082 -13.0499 -10.473 -5.0485 -8.4125 -14.4693 -16.6446 -18.0873 -17.7086 -17.9781 -12.022 -11.6597 -12.4925 -15.4044 -14.9889 -15.694 -25.1235 -24.3074 -23.5323 -20.85 -19.1319 -12.3749 -11.6021 -10.543 -9.818001 -11.2087 -12.9259 -10.523 
-1.934 -1.4985 -3.158 -5.0655 0 -1.8085 -3.355 -1.7565 -2.688 -3.502 -4.4925 -2.7415 -4.794 -2.5045 -4.5655 -1.934 -1.4985 -3.098 -1.7565 -4.3105 -3.9515 -4.5655 -1.756 -1.4985 -3.8225 -4.6555 -5.275 -2.7415 -4.5485 -3.147 0 
-2.6125 -4.178 -7.8655 -5.0655 -1.8085 -4.6195 -3.725 -4.2285 -5.0815 -5.05 -7.113501 -6.637 -7.221 -7.911 -6.259 -2.6125 -4.3095 -4.3615 -5.761001 -6.0435 -6.028501 -6.0075 -3.0405 -4.887 -7.008 -10.575 -8.072001 -5.5565 -7.944 -3.147 
-5.265 -8.374001 -7.8655 -7.373 -4.6195 -4.725 -6.683001 -5.8665 -5.102 -7.657001 -10.688 -8.8995 -12.9901 -9.646501 -6.8955 -5.285501 -4.5915 -8.9775 -8.51 -6.085 -7.648 -7.014 -6.3945 -7.572001 -13.2891 -13.372 -10.703 -8.7605 -7.944 
-8.8605 -8.374001 -9.920501 -10.435 -4.725 -7.574501 -8.4265 -5.8695 -7.704501 -11.4813 -12.9505 -14.9394 -14.7256 -10.251 -9.134501 -5.3625 -9.6085 -11.9739 -8.699501 -7.699 -8.1095 -10.6095 -8.907001 -14.1847 -16.0861 -16.003 -13.907 -8.7605 
-8.8605 -10.082 -13.0499 -10.473 -7.574501 -9.588501 -8.4355 -8.431001 -11.592 -13.7438 -18.9904 -16.6749 -15.3301 -12.49 -9.151501 -10.071 -12.6049 -12.1634 -9.613001 -8.127501 -12.6226 -13.122 -15.7441 -16.9817 -18.7171 -19.207 -13.907 
