-4.759 
n/a 
n/a 
n/a 
n/a 
-4.759 
n/a 
n/a 
n/a 
n/a 
-4.759 
n/a 
n/a 
n/a 
n/a 
-4.759 
n/a 
n/a 
n/a 
n/a 
-7.7445 -7.190001 
-9.337 
n/a 
n/a 
n/a 
-9.864 -7.190001 
-17.2678 
n/a 
n/a 
n/a 
-10.678 0 -5.057 -4.179 0 0 -4.7135 -3.7935 -1.7695 -5.057 0 
-10.678 -5.057 -8.6905 -4.179 0 -4.7135 -9.0895 -4.559 -7.185 -5.057 
-15.735 -8.6905 -8.6905 -4.179 -4.7135 -9.0895 -9.843 -9.818001 -7.185 
-19.3685 -8.6905 -8.6905 -9.051001 -9.0895 -9.843 -15.196 -9.818001 
-19.3685 -8.6905 -13.9541 -14.0002 -9.843 -15.196 -15.196 
-4.606 -7.190001 
-13.0354 
n/a 
n/a 
n/a 
