-4.759 
n/a 
n/a 
n/a 
n/a 
-4.759 
n/a 
n/a 
n/a 
n/a 
-4.759 
n/a 
n/a 
n/a 
n/a 
-4.759 
n/a 
n/a 
n/a 
n/a 
-3.0365 -3.995 -1.7565 -9.8905 0 -4.1265 -4.3565 
-8.607 -6.804 -12.5962 -9.8905 -4.1265 -9.526501 
-11.6004 -18.1865 -12.5962 -14.194 -9.526501 
-22.9829 -18.1865 -16.8997 -19.594 
-22.9829 -22.49 -22.2997 
-2.925 -2.674 -4.414 -1.7565 -7.539001 -4.8565 0 -5.8705 -4.8565 -1.756 -7.024 -4.8565 
-4.1785 -7.109 -5.851 -9.2075 -13.6583 -4.8565 -5.8705 -9.4125 -6.3755 -9.535501 -12.3311 
-8.8985 -7.874001 -13.96 -15.546 -13.6583 -10.329 -9.4125 -10.9821 -14.7838 -14.9962 
-9.422501 -16.2974 -20.2985 -15.546 -19.1308 -13.871 -10.9821 -19.3904 -20.2445 
-17.9707 -22.6359 -20.2985 -21.0185 -22.6728 -15.4406 -19.3904 -24.8511 
-5.2545 -2.7415 -4.6785 -2.3345 -2.985 -3.4075 -4.333 -1.756 -4.414 -3.7015 -5.832 0 -4.2695 0 -9.9025 
-6.742001 -5.959001 -5.1215 -4.871 -6.1175 -7.582 -5.577 -5.9935 -8.217501 -9.13 -5.832 -4.2695 -4.2695 -9.9025 
-9.5795 -6.086 -7.232 -7.783 -9.437 -8.5205 -9.632001 -9.772501 -14.2214 -9.13 -11.2001 -4.2695 -15.2932 
-9.636001 -8.397 -10.411 -11.4983 -10.112 -12.7069 -13.4434 -16.039 -14.2214 -14.6579 -11.2001 -15.2932 
-12.1038 -11.7092 -14.1263 -12.1733 -14.2984 -16.5183 -19.7099 -16.039 -19.7493 -14.6579 -22.2238 
-2.925 -3.9005 -8.5165 0 -5.367 -4.2695 0 -12.16972 -6.186 -4.877 
-8.936001 -13.6378 -8.5165 -5.367 -10.862 -4.2695 -12.16972 -18.35572 -10.451 
-18.8385 -13.6378 -14.2001 -10.862 -10.862 -17.56042 -18.35572 -22.62072 
-18.8385 -19.3214 -19.6951 -10.862 -24.15292 -23.74642 -22.62072 
-24.5221 -24.8164 -19.6951 -24.15292 -30.33892 -28.01142 
