-4.759 
n/a 
n/a 
n/a 
n/a 
-4.759 
n/a 
n/a 
n/a 
n/a 
-4.759 
n/a 
n/a 
n/a 
n/a 
-4.759 
n/a 
n/a 
n/a 
n/a 
-2.882 -2.1715 -4.743 -4.248 -3.97 -2.186 -2.688 -3.97 -3.6205 0 
-4.881001 -8.990001 -7.871 -6.747 -6.122001 -5.439 -6.6505 -8.932001 -3.6205 
-12.8945 -12.5914 -12.1466 -10.1265 -9.714001 -9.6975 -12.5355 -8.932001 
-16.4959 -16.867 -15.5261 -13.8067 -14.0885 -15.5825 -12.5355 
-20.7715 -20.2465 -19.2063 -18.1812 -19.9735 -15.5825 
-2.882 -9.0705 -4.712 -2.688 -3.9655 -4.1 
-12.4715 -15.4844 -7.8605 -6.449 -7.9835 
-19.3341 -18.5781 -10.4425 -10.476 
-22.4826 -21.1601 -14.9081 
-25.0646 -25.6257 
-2.882 -2.1715 0 -4.579 -1.7565 -2.688 -5.4135 -3.969 -2.3345 -6.899 -4.015 -3.6825 0 
-4.881001 -2.1715 -4.579 -5.638 -4.2285 -8.706501 -11.117 -6.1025 -8.9195 -11.9244 -7.031501 -3.6825 
-4.881001 -6.8475 -5.638 -8.0385 -10.078 -14.5186 -13.2505 -13.2889 -13.9959 -14.9409 -7.031501 
-10.2235 -7.872 -8.0385 -14.6048 -15.8901 -16.6521 -20.4369 -18.3653 -17.0124 -14.9409 
-12.1246 -9.331 -14.6048 -20.4169 -18.0236 -23.8385 -25.5133 -21.3818 -17.0124 
-10.6255 -4.248 -3.6825 -2.688 -3.97 -3.6205 -2.5045 -2.882 -2.1715 -3.0105 
-14.8735 -6.981 -6.705501 -6.6505 -8.932001 -6.1545 -6.0465 -4.881001 -4.9075 
-17.6065 -9.8785 -10.0965 -12.5355 -12.0326 -9.453 -7.551 -6.185 
-20.504 -13.8715 -15.9815 -15.6361 -15.3311 -11.2489 -8.147 
-24.497 -19.7565 -19.0821 -18.9346 -17.127 -11.8449 
