-4.759 
n/a 
n/a 
n/a 
n/a 
-4.759 
n/a 
n/a 
n/a 
n/a 
-4.759 
n/a 
n/a 
n/a 
n/a 
-4.759 
n/a 
n/a 
n/a 
n/a 
-4.4695 -1.934 -5.1845 -4.578 
-6.4835 -6.564 -8.628 
-10.209 -8.894501 
-12.4337 
n/a 
-5.1845 -4.535 -4.4695 0 
-9.0555 -8.935501 -4.4695 
-13.732 -8.935501 
-13.732 
n/a 
-5.1845 -4.9785 -2.186 -2.871 -1.7565 -1.4985 -4.7015 
-10.802 -8.8485 -4.247 -3.5385 -2.4195 -5.898001 
-14.672 -10.575 -4.411 -3.7675 -7.176001 
-16.3985 -10.739 -4.5655 -9.654 
-16.5625 -10.8935 -10.485 
-4.4695 -2.264 -5.1845 -4.005 0 
-7.1845 -7.422001 -9.561501 -4.005 
-13.0009 -12.5004 -9.561501 
-18.0793 -12.5004 
-18.0793 
