-4.759 
n/a 
n/a 
n/a 
n/a 
-4.759 
n/a 
n/a 
n/a 
n/a 
-4.759 
n/a 
n/a 
n/a 
n/a 
-4.759 
n/a 
n/a 
n/a 
n/a 
-1.934 -4.869 -1.4985 -3.5035 -2.9705 -5.774 -1.4985 -4.8925 -3.4465 -1.4985 -3.641 -4.693 -3.8195 -3.458 -5.4885 -1.756 -5.749 
-6.114 -6.508501 -4.4895 -5.9165 -10.093 -6.4455 -5.535501 -8.890501 -4.946 -4.644 -7.811 -6.1555 -6.916 -9.021 -7.2385 -7.567 
-7.133 -9.473001 -6.7255 -13.7448 -10.3675 -9.7585 -10.459 -10.361 -8.746 -9.090501 -9.532001 -8.871 -12.7398 -9.281501 -8.553 
-10.1465 -11.9406 -14.7286 -14.0193 -13.6805 -14.708 -11.9295 -14.161 -13.7927 -10.3165 -12.4247 -14.8042 -13.0003 -10.8396 
-12.7373 -19.9437 -15.0031 -17.3323 -18.63 -16.1785 -15.7295 -19.2077 -15.0187 -13.2092 -18.3579 -15.0647 -14.5584 
-1.934 -4.869 0 -3.9345 -1.7695 -1.4985 -4.3275 -1.7565 -9.6485 -1.7565 -4.1355 -1.4985 -4.02 -6.0515 -1.7565 -5.965 -3.1715 -2.7415 -6.3195 -3.458 -5.4885 -1.756 -5.749 0 
-6.114 -4.869 -3.9345 -3.94 -2.7955 -5.4685 -5.1215 -10.907 -10.2285 -6.4515 -6.287001 -4.969501 -9.594 -8.223001 -7.106 -8.389 -6.078 -8.3765 -9.653001 -9.021 -7.2385 -7.567 -5.749 
-6.114 -8.710501 -3.94 -4.4455 -6.666501 -5.793 -15.153 -11.487 -15.0711 -9.063001 -9.088501 -9.887501 -10.377 -13.8029 -9.1485 -9.783 -12.004 -12.2002 -15.208 -9.281501 -8.553 -7.567 
-9.252501 -8.713501 -4.4455 -7.949501 -6.920001 -16.0223 -15.733 -16.3296 -17.6826 -11.9493 -14.2273 -10.5265 -15.9569 -15.8454 -10.5919 -16.045 -15.8277 -17.7552 -15.4685 -10.8396 -8.553 
-9.255501 -9.126501 -7.949501 -8.7185 -17.3409 -16.6023 -20.5756 -18.9411 -20.5689 -17.0881 -14.8663 -16.1064 -17.9994 -17.2888 -16.8539 -19.8687 -21.3827 -18.0157 -17.0266 -10.8396 
-1.934 -1.4985 -4.869 -2.229 -4.356 -1.7565 -4.8015 -8.869 0 -4.2775 -4.693 -3.4425 -1.7565 -5.965 -3.1715 -3.7855 -1.7695 -5.4885 -1.756 -5.749 
-2.6125 -6.823 -7.708501 -6.749 -6.437 -6.581 -12.595 -7.1745 -4.2775 -7.665501 -6.604001 -4.5535 -7.106 -8.389 -7.442 -4.793 -7.315001 -7.2385 -7.567 
-7.7475 -10.1145 -12.7581 -9.2345 -12.1469 -14.8738 -13.0758 -12.64 -7.665501 -8.843 -7.574501 -10.1225 -9.1485 -12.9827 -9.1035 -10.494 -8.701 -8.553 
-11.2462 -15.3117 -15.2436 -14.9196 -20.4397 -14.8738 -18.5413 -16.028 -8.843 -9.540501 -13.5225 -12.165 -13.7916 -14.6442 -15.0959 -11.88 -10.586 
-16.4434 -17.7972 -20.9287 -23.2124 -20.4397 -20.3393 -21.9293 -17.2055 -9.540501 -15.5883 -15.565 -16.8081 -15.4531 -20.6366 -16.4819 -13.765 
-1.934 -4.869 -3.9345 -1.7695 -1.4985 -4.1 -1.7565 -3.11 -4.537 -1.4985 -3.1715 -4.887 -4.02 -4.693 -3.8195 -1.7565 -5.3885 -2.8645 -4.7925 -1.756 -4.386 -1.7695 -5.4885 -1.756 -5.749 
-6.114 -8.710501 -3.94 -2.7955 -5.0695 -5.164001 -5.8475 -6.7745 -5.958 -3.994 -7.2275 -8.577 -7.4785 -6.1555 -4.542 -7.235001 -8.1125 -7.012 -6.6355 -5.4505 -5.58 -7.315001 -7.2385 -7.567 
-9.252501 -8.713501 -4.4455 -6.227 -5.5715 -9.842001 -8.472 -7.922 -8.4995 -8.2145 -11.3441 -12.6751 -8.937 -7.107 -9.3785 -9.255 -12.42 -8.93 -8.686501 -6.549 -11.9745 -8.701 -8.553 
-9.255501 -9.126501 -7.4275 -6.805 -10.2695 -12.4665 -9.271 -10.7713 -13.267 -12.5469 -15.4422 -14.1336 -9.369 -10.3815 -11.4999 -13.5517 -14.338 -11.1794 -9.2915 -13.1347 -13.3605 -10.586 
-9.698501 -12.2577 -7.896 -11.5062 -12.894 -13.2655 -12.2155 -15.5388 -17.5994 -16.645 -16.9007 -14.5656 -12.7207 -12.5029 -15.7966 -15.4697 -16.5874 -11.7844 -16.0776 -14.5207 -15.2455 
