-4.759 
n/a 
n/a 
n/a 
n/a 
-4.759 
n/a 
n/a 
n/a 
n/a 
-4.759 
n/a 
n/a 
n/a 
n/a 
-4.759 
n/a 
n/a 
n/a 
n/a 
-4.98 0 -3.401 0 -6.0205 -1.7565 -6.864 -4.0965 
-4.98 -3.401 -3.401 -6.0205 -8.002501 -8.661 -8.968 
-8.145 -3.401 -9.826501 -8.002501 -15.0918 -10.3545 
-8.145 -9.826501 -10.438 -15.0918 -16.7853 
-14.8109 -10.438 -17.8315 -16.7853 
-8.381001 -4.8925 -1.7565 -6.864 
-13.04 -5.583 -8.661 
-13.7894 -13.1983 
-21.8025 
n/a 
-4.365 -3.9725 -5.0005 0 
-8.828001 -9.739 -5.0005 
-14.9203 -9.739 
-14.9203 
n/a 
-12.6115 -1.7565 -9.196501 -4.6825 
-14.0345 -10.4425 -10.932 
-23.4107 -12.178 
-25.459 
n/a 
