-4.759 
n/a 
n/a 
n/a 
n/a 
-4.759 
n/a 
n/a 
n/a 
n/a 
-4.759 
n/a 
n/a 
n/a 
n/a 
-4.759 
n/a 
n/a 
n/a 
n/a 
-3.5715 -2.998 -1.4985 -3.995 -5.2425 -1.934 -3.9515 -1.7565 -4.0375 -4.323 -1.756 -4.9905 -7.595 
-5.4885 -5.233 -4.712 -7.2275 -6.860001 -5.829 -5.368 -5.778 -6.847001 -6.396501 -6.7405 -13.2 
-7.2635 -9.109501 -8.115001 -8.307 -11.6892 -7.831501 -8.884501 -8.1625 -8.512001 -10.995 -16.5156 
-11.7878 -12.5951 -8.997001 -13.4138 -13.6917 -10.388 -11.895 -9.467 -13.5139 -21.0623 
-15.2734 -13.4771 -14.3136 -15.4163 -16.2482 -13.3985 -13.1995 -14.4971 -23.2842 
-3.5715 -4.866 -3.4155 -3.931 -4.4825 -3.034 -2.664 -10.5675 -4.9905 -5.622 -4.197 -4.0865 -7.302001 -2.5195 -1.4985 -3.9515 -3.2875 -1.7565 -4.6445 
-8.0305 -7.816501 -6.6905 -8.630001 -6.2755 -5.155 -14.4499 -14.854 -10.563 -6.846 -8.166 -10.622 -8.5985 -3.1695 -5.059 -5.783 -4.3315 -6.291501 
-11.509 -11.4815 -12.1449 -10.375 -8.572001 -17.3797 -18.7364 -19.806 -9.723001 -8.302501 -15.0865 -11.9185 -9.232501 -6.61 -6.233 -6.4065 -8.581 
-14.6798 -17.2835 -13.8899 -12.6715 -20.8925 -21.6662 -23.6884 -19.9685 -11.17 -15.4048 -16.383 -12.5525 -9.9925 -7.656 -6.543 -9.2805 
-20.3676 -19.0285 -16.1864 -24.992 -25.179 -26.6182 -23.8509 -22.0837 -18.6185 -16.7013 -17.017 -13.3125 -11.0385 -7.964 -9.3745 
-3.5715 -2.998 0 -4.0375 -4.323 -2.5195 -1.4985 -3.9515 -3.2875 -5.277 -1.7565 -4.6445 0 -1.8085 -3.995 -5.2425 -4.766 -4.9905 -1.934 -5.622 -4.197 -4.3245 -4.0205 -4.285 0 
-5.4885 -2.998 -4.0375 -6.847001 -5.842501 -3.1695 -5.059 -5.783 -7.9355 -8.231501 -6.291501 -4.6445 -1.8085 -7.314 -7.2275 -8.3205 -9.131001 -7.2315 -8.357501 -6.846 -8.864 -7.5105 -8.936001 -4.285 
-5.4885 -6.717 -6.847001 -8.193001 -6.303501 -6.61 -6.233 -9.0385 -11.4508 -10.0855 -6.291501 -7.26 -7.314 -9.436501 -10.335 -10.6435 -11.211 -13.3819 -9.3275 -12.1626 -12.0964 -12.7992 -8.936001 
-10.4345 -9.941 -8.193001 -8.72 -8.145 -7.656 -9.492001 -12.7984 -13.3048 -10.0855 -8.285501 -13.1123 -9.436501 -12.613 -11.9206 -11.3105 -18.2182 -15.3537 -14.7255 -15.395 -17.3851 -12.7992 
-13.6585 -11.4682 -8.72 -9.68 -8.861501 -11.0366 -13.3249 -14.6524 -13.3048 -12.0795 -14.37 -15.2348 -12.613 -14.1986 -13.6646 -20.11 -19.928 -20.7517 -17.9579 -20.6837 -17.3851 
-3.5715 -2.998 -3.9515 -1.7565 -4.6445 -2.5195 -7.821001 -1.7695 -4.0375 -6.09 -4.201 -4.9905 -7.595 -3.995 -5.2425 -4.4825 -1.756 -3.0365 -2.7415 -1.8085 -5.718 -4.285 -1.7695 -1.4985 -3.5015 
-5.4885 -7.608 -5.368 -6.291501 -7.559 -10.4115 -10.575 -5.672 -8.661001 -8.5605 -8.465501 -13.2 -12.1638 -7.2275 -8.546 -5.9515 -4.484 -4.2225 -3.891 -6.431001 -9.378501 -5.118001 -2.7955 -4.737 
-11.1371 -9.885 -8.262 -8.459001 -15.8036 -13.1655 -14.4775 -11.0361 -11.4783 -13.0888 -17.8666 -18.2864 -15.3963 -10.096 -10.151 -7.9705 -5.51 -4.725 -8.105 -10.31 -9.909 -5.5765 -6.0515 
-13.4141 -12.7534 -9.995001 -17.0084 -18.5576 -17.068 -19.8416 -13.8534 -16.0066 -23.6437 -23.5592 -21.5189 -18.2648 -11.767 -12.17 -8.618 -6.101 -8.554501 -12.342 -11.6731 -10.291 -9.451 
-16.2825 -14.4864 -19.0916 -19.7624 -22.4601 -22.4321 -22.6589 -18.3817 -26.5615 -28.2125 -26.7917 -24.3874 -19.9358 -13.786 -12.8175 -9.212501 -9.875501 -13.1147 -13.7051 -12.0551 -14.1655 
