-4.759 
n/a 
n/a 
n/a 
n/a 
-4.759 
n/a 
n/a 
n/a 
n/a 
-4.759 
n/a 
n/a 
n/a 
n/a 
-4.759 
n/a 
n/a 
n/a 
n/a 
-3.091 -4.2705 -3.193 -2.186 -5.1805 -2.5045 -5.5785 -7.31 -1.934 -3.8735 
-6.2615 -6.5485 -5.2605 -6.3525 -6.8345 -7.848001 -8.842501 -9.644001 -4.885 
-8.621 -8.829 -7.272 -7.4865 -10.7175 -11.6002 -11.3877 -12.6046 
-10.0345 -10.9403 -8.623501 -10.7575 -15.3027 -14.1454 -14.3483 
-12.1458 -12.2918 -11.9141 -15.3427 -17.8479 -17.106 
-1.934 -3.8735 0 -3.091 -4.3775 -2.186 -5.1805 -2.5045 -5.5785 -8.203501 0 
-4.885 -3.8735 -3.091 -6.3055 -6.4635 -6.3525 -6.8345 -7.848001 -10.8215 -8.203501 
-4.885 -7.4535 -6.3055 -7.7065 -8.2985 -7.4865 -10.7175 -13.5792 -10.8215 
-8.040501 -10.66 -7.7065 -9.2275 -9.207001 -10.7575 -17.2817 -13.5792 
-11.2384 -12.061 -9.2275 -9.803 -12.7328 -17.3217 -17.2817 
-3.091 -4.3775 -2.8645 -3.1125 -5.1805 -2.5045 -5.5785 -7.31 -1.934 -3.8735 
-6.3055 -7.798 -3.5345 -7.1355 -6.8345 -7.848001 -8.842501 -9.644001 -4.885 
-9.1835 -8.488501 -7.353 -8.139001 -10.7175 -11.6002 -11.3877 -12.6046 
-9.717 -9.2535 -8.3905 -12.2638 -15.3027 -14.1454 -14.3483 
-10.429 -10.412 -12.6757 -16.849 -17.8479 -17.106 
-3.091 -4.2705 -3.193 -3.4625 -5.1805 -2.5045 -5.5785 -8.869 
-6.2615 -6.5485 -6.828 -7.206 -6.8345 -7.848001 -15.3189 
-8.621 -10.022 -8.981501 -8.383 -10.7175 -18.0766 
-12.4225 -12.7195 -10.2925 -12.4556 -21.7791 
-15.12 -14.0305 -14.6143 -23.5172 
