-4.759 
n/a 
n/a 
n/a 
n/a 
-4.759 
n/a 
n/a 
n/a 
n/a 
-4.759 
n/a 
n/a 
n/a 
n/a 
-4.759 
n/a 
n/a 
n/a 
n/a 
-3.0365 -3.0835 -4.3215 -4.4755 -1.7565 -5.0185 -4.599 -1.934 -3.9885 0 
-6.453 -6.818 -9.824 -5.392 -6.2565 -5.1395 -6.386001 -5.2285 -3.9885 
-10.6725 -12.6443 -10.8505 -7.645 -6.4125 -6.679 -7.8605 -5.2285 
-16.4988 -13.6708 -13.1035 -7.6635 -7.403 -7.9065 -7.8605 
-17.5253 -15.9238 -13.122 -8.705 -8.624001 -7.9065 
-5.0185 -4.599 -2.7415 -3.557 -3.0835 -1.934 -3.9885 -3.4635 
-5.1395 -7.3345 -5.094501 -7.1665 -5.265 -5.2285 -7.812 
-7.783 -8.9095 -8.838501 -8.412001 -8.816501 -10.553 
-10.025 -13.2799 -9.519501 -10.5635 -14.5466 
-14.5028 -13.9609 -11.687 -17.212 
-3.0365 0 -2.4265 -2.7415 -3.0835 -4.099 -2.5195 -3.9885 
-3.0365 -2.4265 -3.681 -5.276 -6.2995 -6.177 -5.854 
-5.4595 -3.681 -6.1505 -6.9775 -8.564501 -9.012501 
-6.242001 -6.1505 -7.964 -8.8325 -11.5516 
-9.368501 -7.964 -9.7495 -11.8588 
-2.4265 -2.7415 -3.557 -2.3335 -5.0185 -2.7415 -4.4755 -1.934 -3.9885 -3.0835 0 
-3.681 -5.094501 -4.678 -7.587001 -8.464001 -6.6505 -6.256 -5.2285 -7.275001 -3.0835 
-5.985 -6.152 -9.550501 -10.5535 -12.538 -8.3135 -8.514501 -8.626 -7.275001 
-6.1755 -11.1297 -12.4338 -14.6275 -14.201 -10.763 -12.9882 -8.626 
-11.2134 -14.013 -16.5078 -16.2905 -16.6505 -15.2367 -12.9882 
