-4.759 
n/a 
n/a 
n/a 
n/a 
-4.759 
n/a 
n/a 
n/a 
n/a 
-4.759 
n/a 
n/a 
n/a 
n/a 
-4.759 
n/a 
n/a 
n/a 
n/a 
-1.934 -5.3825 -6.6575 -4.424 -1.756 -3.321 -10.0725 -1.756 -3.769 -2.4945 -3.7905 -1.8085 -3.2825 -4.3535 
-6.5655 -10.4595 -10.5535 -5.9015 -4.0055 -14.3019 -12.0419 -4.496 -5.245 -7.1085 -4.255 -5.5105 -9.140501 
-12.2335 -14.3555 -12.031 -7.771 -15.426 -16.2713 -14.7819 -6.0925 -10.396 -7.4985 -7.6025 -12.2861 
-16.1295 -15.833 -13.9005 -19.6043 -17.3954 -19.0113 -16.3784 -11.4269 -10.786 -11.9382 -15.4901 
-17.607 -17.7025 -25.7338 -21.5737 -20.1354 -20.6078 -21.7128 -11.8169 -15.2257 -19.8258 
-3.2615 -1.4985 -3.956 -1.7565 -9.8575 -1.934 -5.3825 -9.299001 -1.756 -2.8965 -3.699 -3.5585 -3.074 -4.3195 -4.8775 0 
-4.032 -4.8985 -4.932 -12.5632 -12.1231 -6.5655 -15.2751 -11.5564 -3.751 -5.7205 -7.802501 -6.232 -6.3765 -8.961 -4.8775 
-6.1535 -5.16 -16.6069 -14.8288 -16.7546 -17.0491 -17.5325 -13.5514 -6.238 -10.5535 -9.892 -9.2675 -11.3288 -8.961 
-6.1865 -17.0613 -18.8725 -19.4603 -27.2382 -19.3065 -19.5275 -16.0384 -11.4696 -13.2014 -13.0181 -14.3088 -11.3288 
-18.4236 -19.3269 -23.504 -29.9439 -29.4956 -21.3015 -22.0145 -21.27 -14.1175 -16.3275 -18.0594 -14.3088 
-3.2615 -6.6575 -4.349 -3.8515 -1.934 -5.3825 0 -6.920001 -1.756 -6.6575 -2.229 -4.0225 -5.4865 -4.3195 -4.8775 0 
-10.007 -10.3045 -5.556 -5.486 -6.5655 -5.3825 -6.920001 -8.430501 -8.429501 -8.055 -5.877 -8.7015 -8.780001 -8.961 -4.8775 
-14.0498 -10.514 -6.4935 -9.641001 -6.5655 -11.117 -8.430501 -10.0645 -9.745501 -12 -9.5425 -12.167 -13.4425 -8.961 
-14.2593 -11.4515 -9.758 -9.641001 -12.891 -12.6275 -10.0645 -11.3805 -13.7309 -15.6655 -13.1032 -16.8295 -13.4425 
-15.1968 -14.716 -9.758 -16.0193 -14.4015 -14.2615 -11.3805 -15.3659 -17.3964 -19.2262 -17.7657 -16.8295 
-3.2615 -1.4985 -3.956 -1.7565 -6.6575 -1.934 -1.4985 -3.158 -5.3825 0 -8.349 -3.9485 -2.356 -2.8965 -3.0835 -4.1425 -5.8245 -4.0875 -2.925 -1.4985 -10.105 0 
-4.032 -4.8985 -4.932 -8.2005 -8.895 -2.6125 -4.178 -8.23 -5.3825 -8.349 -13.1149 -4.311 -4.4085 -6.5055 -5.948501 -10.9315 -8.49 -5.9145 -4.202 -10.688 -10.105 
-6.1535 -5.16 -10.76 -10.107 -9.676001 -5.265 -8.494 -8.23 -14.3251 -13.1149 -13.4774 -5.861 -8.052 -9.015501 -13.2219 -13.597 -11.5778 -6.458 -13.7405 -10.688 
-6.1865 -11.2144 -12.6665 -10.7395 -12.3285 -8.835001 -8.494 -17.3992 -19.091 -13.4774 -15.0274 -9.360001 -10.159 -16.6177 -15.8874 -16.6848 -12.1213 -16.6613 -13.7405 
-12.5767 -13.1209 -13.299 -13.392 -15.8985 -8.835001 -17.8484 -22.1651 -19.4535 -15.0274 -18.5264 -11.478 -17.8854 -19.2832 -18.9752 -17.2283 -22.3246 -16.6613 
