-4.759 
n/a 
n/a 
n/a 
n/a 
-4.759 
n/a 
n/a 
n/a 
n/a 
-4.759 
n/a 
n/a 
n/a 
n/a 
-4.759 
n/a 
n/a 
n/a 
n/a 
-4.6925 -1.934 -5.215 -1.7565 -4.17 0 -4.662 -1.7565 -3.8275 -1.756 -2.8965 -4.105 -4.002 -2.4945 -3.737 -1.934 -1.4985 -3.098 -1.7565 -5.345 -4.455 
-5.7745 -7.714 -5.75 -5.444 -4.17 -4.662 -5.68 -4.8265 -5.1855 -3.751 -6.424 -7.6745 -5.787001 -5.325 -5.859 -2.6125 -4.3095 -4.3615 -7.269001 -10.151 
-12.8623 -8.7405 -5.9505 -5.444 -10.007 -5.68 -9.3295 -6.071 -7.348001 -7.021501 -9.3535 -9.258 -8.661501 -7.297 -6.474501 -5.285501 -4.5915 -10.411 -12.4486 
-13.8888 -9.307 -5.9505 -10.1635 -11.193 -9.3295 -10.412 -8.0495 -11.1987 -9.651001 -11.1198 -12.3133 -11.0715 -7.9835 -9.238501 -5.3625 -10.5425 -15.5906 
-14.4553 -9.307 -10.1635 -11.4477 -14.8425 -10.412 -12.3905 -12.1544 -13.8282 -11.4593 -14.1751 -14.7233 -11.758 -10.1075 -9.241001 -11.4811 -15.7221 
-3.8675 -4.3875 0 -3.8275 -4.662 -2.4945 -3.43 -2.264 -4.5925 -1.7565 -5.0335 -3.098 
-7.7685 -4.3875 -3.8275 -9.257501 -7.252501 -4.758 -5.2935 -4.7155 -4.707 -6.3715 -9.1425 
-7.7685 -9.026001 -9.257501 -11.971 -8.900001 -6.4945 -6.8465 -4.7185 -10.025 -9.998 
-13.1436 -14.7768 -11.971 -13.6185 -11.7883 -8.153001 -6.8495 -10.06 -13.7269 
-18.8944 -17.4903 -13.6185 -16.5068 -13.4468 -8.1545 -12.5152 -13.7701 
-5.443 -1.934 -3.8275 -3.135 -3.5215 -2.5685 -2.9905 -3.5435 -2.7415 -1.4985 -4.375 -8.145 -1.934 -2.3615 -3.098 -1.7565 -1.4985 -3.299 -3.6045 0 
-7.577001 -5.911 -7.147 -6.2085 -6.061501 -5.589 -7.307501 -5.902 -4.063 -5.7425 -13.5488 -10.7665 -3.539 -5.7775 -4.3615 -2.4195 -4.5915 -4.5695 -3.6045 
-12.0342 -8.8585 -10.2865 -8.941501 -9.910501 -9.500501 -10.523 -7.4905 -8.765501 -15.7947 -16.1703 -12.3715 -7.7865 -8.0185 -4.731 -5.5315 -6.0905 -4.5695 
-14.9817 -12.234 -13.0195 -13.1495 -13.8352 -12.899 -12.1115 -12.426 -19.1933 -18.4162 -17.7753 -16.619 -9.510501 -8.777 -8.087501 -7.134501 -6.0905 
-18.3572 -14.967 -17.2275 -17.0742 -17.2337 -14.4875 -17.047 -22.8538 -21.8148 -20.0212 -22.0228 -18.343 -10.376 -12.2633 -10.6151 -7.134501 
-4.6925 -1.7565 -3.8675 -1.756 -4.746 -1.7565 -3.8275 -3.843 -2.4945 -1.934 -1.4985 -3.098 -4.455 
-5.8625 -5.789001 -5.0145 -6.8295 -5.2905 -4.8265 -7.3765 -5.682 -4.2645 -2.6125 -4.3095 -7.9135 
-8.1875 -7.1455 -8.2825 -7.0845 -6.744 -8.3295 -9.3465 -7.59 -4.935 -5.285501 -8.834001 
-9.7355 -10.361 -8.34 -9.17 -10.223 -10.111 -11.2849 -8.242001 -8.144501 -10.7548 
-13.1198 -10.386 -11.8435 -12.6438 -12.0045 -12.0494 -11.9369 -11.5537 -13.7568 
