-4.759 
n/a 
n/a 
n/a 
n/a 
-4.759 
n/a 
n/a 
n/a 
n/a 
-4.759 
n/a 
n/a 
n/a 
n/a 
-4.759 
n/a 
n/a 
n/a 
n/a 
-1.4985 -3.1255 -5.449 -3.9595 -2.0935 -1.4985 -3.826 -4.07 -2.742 -2.489 -4.3965 -2.0935 -4.498 -4.732 -2.739 -3.9655 0 
-5.724 -9.601501 -9.757 -5.712 -2.9725 -4.4325 -5.948 -6.84 -3.301 -5.2925 -4.7705 -5.941 -9.1035 -7.4615 -5.99 -3.9655 
-12.7146 -13.9769 -11.7071 -6.538 -5.803 -6.3725 -7.815001 -7.1755 -6.182 -5.5105 -8.6155 -11.2829 -12.0606 -11.1749 -5.99 
-17.09 -15.927 -12.5331 -9.026 -7.4655 -8.241 -7.9525 -9.848001 -6.4855 -9.198001 -14.2714 -14.24 -15.774 -11.1749 
-19.0401 -16.753 -15.0211 -11.1307 -9.3465 -8.47 -11.2686 -10.526 -9.793 -15.0343 -17.2285 -17.9534 -15.774 
-4.299 -1.7695 -3.5185 -1.8085 -3.254 -1.7565 -4.2405 -3.8665 -5.181 -4.536 -2.3345 -3.1385 -3.3255 -1.8085 -3.6605 -4.463 
-4.783 -4.134 -4.072 -4.394 -4.0065 -5.5125 -7.696 -6.431 -9.822001 -5.47 -5.443501 -5.7605 -4.441 -4.875 -7.946 
-6.7005 -4.595 -6.0595 -4.528 -7.58 -9.076 -7.912 -10.7495 -10.364 -8.035 -8.732 -7.278 -7.2565 -8.814 
-7.0465 -6.963 -6.59 -7.8675 -10.253 -9.783001 -10.7595 -10.7875 -12.929 -10.4505 -9.9835 -10.114 -10.354 
-9.9075 -7.1375 -10.195 -10.3955 -10.278 -10.763 -10.7975 -13.3525 -15.3445 -10.499 -10.49 -10.491 
-4.732 -3.9655 -1.4985 -4.435 -2.9705 -2.4945 -3.917 -2.0935 -1.4985 -3.826 0 -2.9705 -2.742 -2.489 -3.0365 -2.0935 -5.258 
-7.7215 -5.832 -5.442 -7.413001 -4.302 -5.7075 -5.367001 -2.9725 -4.4325 -3.826 -2.9705 -4.601501 -3.301 -5.1315 -5.16 -7.1435 
-9.927501 -10.0525 -9.057001 -9.106001 -7.5655 -6.575 -6.054501 -5.803 -4.4325 -7.396 -4.601501 -5.1675 -5.8575 -6.0955 -10.957 
-14.148 -13.6675 -10.9946 -12.3961 -8.542001 -7.5085 -8.211 -5.803 -8.06 -8.304001 -5.1675 -8.612 -6.827001 -12.4109 
-17.763 -15.6051 -14.2847 -13.3726 -9.534 -9.373 -8.211 -8.92 -8.836 -8.5425 -8.612 -9.416 -13.3078 
-3.826 -4.5625 -1.7565 -3.1255 -4.2635 -2.739 -3.9655 -3.5725 -4.758 0 
-5.7655 -7.0185 -5.438 -8.2285 -9.645 -5.99 -7.8755 -7.8935 -4.758 
-8.361 -11.2492 -10.5975 -13.7636 -13 -10.962 -12.5261 -7.8935 
-12.7719 -16.4087 -16.1326 -17.1186 -17.972 -15.6126 -12.5261 
-17.9314 -21.9438 -19.4876 -22.0906 -22.6226 -15.6126 
