-4.759 
n/a 
n/a 
n/a 
n/a 
-4.759 
n/a 
n/a 
n/a 
n/a 
-4.759 
n/a 
n/a 
n/a 
n/a 
-4.759 
n/a 
n/a 
n/a 
n/a 
-3.321 -4.417 -2.4945 -1.934 -10.069 -3.8375 
-9.3585 -6.4915 -4.2645 -13.0094 -14.0495 
-11.5872 -8.774 -16.0589 -16.9899 
-13.8697 -20.7502 -20.0394 
-25.8459 -24.7307 
-2.8965 -4.686 -2.4945 -12.16972 -3.8375 -2.229 -3.539 
-7.7055 -6.6225 -16.09242 -16.00722 -5.773 -6.139501 
-9.3725 -20.77362 -19.92992 -17.94272 -10.4253 
-23.57562 -24.61112 -21.86542 -22.59502 
-27.41312 -26.54662 -26.51772 
-2.8965 -4.417 -2.4945 -3.325 -12.16972 
-8.1845 -6.4915 -5.3365 -16.65072 
-9.8085 -9.923 -19.58122 
-13.24 -24.23412 
-27.55112 

n/a 
n/a 
n/a 
n/a 
