-4.759 
n/a 
n/a 
n/a 
n/a 
-4.759 
n/a 
n/a 
n/a 
n/a 
-4.759 
n/a 
n/a 
n/a 
n/a 
-4.759 
n/a 
n/a 
n/a 
n/a 
-1.934 -3.091 -3.8405 0 -3.729 -3.433 -2.8645 -3.1125 -4.09 0 
-4.2105 -7.208 -3.8405 -3.729 -6.64 -5.76 -3.5345 -5.3325 -4.09 
-8.610001 -7.208 -7.843 -6.64 -9.168501 -6.5035 -5.656 -5.3325 
-8.610001 -11.7945 -11.1346 -9.168501 -10.001 -7.7705 -5.656 
-13.0903 -15.0861 -13.6631 -10.001 -11.37 -7.7705 
-3.5455 -3.091 -4.9295 -3.8405 -1.4985 -3.729 -3.6835 -6.180501 0 
-5.242001 -7.071 -8.1815 -5.224 -4.763 -7.465 -9.196001 -6.180501 
-9.469001 -10.4035 -9.312 -8.579 -8.7425 -13.6295 -9.196001 
-13.0999 -11.534 -13.0988 -12.8277 -15.2472 -13.6295 
-14.2304 -15.3208 -17.3475 -19.3324 -15.2472 
-3.5455 -3.091 -3.17 -1.7565 -1.4985 -4.4215 -3.7555 -1.8085 -3.716 -4.4385 0 
-5.242001 -5.7245 -4.179 -2.4195 -5.723001 -8.7165 -4.597 -4.6155 -8.527 -4.4385 
-8.179501 -8.807501 -4.497 -6.268001 -9.1975 -9.8765 -7.731 -9.255501 -8.527 
-11.8197 -9.269501 -7.4865 -10.028 -10.6885 -13.0105 -12.7384 -9.255501 
-12.2817 -12.3672 -11.7051 -11.9162 -13.8225 -18.0179 -12.7384 
-3.5455 -3.091 -3.4795 0 -4.4215 -7.069 -4.09 -4.126 
-5.242001 -6.322001 -3.4795 -4.4215 -12.5049 -11.9764 -8.339001 
-7.739 -6.322001 -9.185 -12.5049 -17.4123 -16.2254 
-7.739 -12.8939 -17.4948 -17.4123 -21.6613 
-15.1759 -21.2037 -22.4022 -21.6613 
