-4.759 
n/a 
n/a 
n/a 
n/a 
-4.759 
n/a 
n/a 
n/a 
n/a 
-4.759 
n/a 
n/a 
n/a 
n/a 
-4.759 
n/a 
n/a 
n/a 
n/a 
-1.934 -6.9485 -3.355 -2.8645 -1.4985 -3.6135 -4.933 -4.3075 0 
-8.540001 -10.204 -6.5435 -4.3545 -4.4525 -8.4995 -9.5755 -4.3075 
-11.9531 -13.4737 -7.9545 -7.573 -10.134 -13.529 -9.5755 
-15.2228 -14.8847 -11.4012 -13.4423 -15.1635 -13.529 
-16.6338 -18.3314 -17.2705 -18.4718 -15.1635 
-3.849 -5.2515 -1.756 -4.6055 -3.152 -7.523 -1.7695 -1.4985 -4.712 0 
-7.4925 -6.9155 -5.945 -8.4945 -9.6595 -8.139501 -2.7955 -5.391 -4.712 
-9.801001 -8.9755 -9.989 -15.3128 -10.649 -8.568 -6.8275 -5.391 
-11.9688 -13.1685 -16.8073 -16.3023 -11.0775 -12.8024 -6.8275 
-16.1618 -19.9868 -17.7968 -16.7308 -15.3119 -12.8024 
-3.147 -2.925 -2.674 -7.5345 -4.9155 -4.921 
-5.7825 -4.1785 -10.3345 -10.8415 -6.3155 
-7.1595 -12.1132 -13.6415 -12.2415 
-15.2282 -15.4202 -15.0415 
-18.5352 -16.8202 
-3.383 -5.164 -5.1805 -2.4945 -5.877 -1.934 -1.4985 -5.7105 -5.9185 
-6.5775 -10.523 -6.7255 -7.0855 -6.048501 -2.6125 -6.535001 -6.078 
-12.3419 -12.068 -11.8411 -7.166 -6.5755 -8.16 -6.7405 
-13.8869 -17.1836 -11.9216 -7.774 -12.5752 -8.499001 
-19.0025 -17.2641 -12.5296 -13.8555 -12.9142 
