-4.759 
n/a 
n/a 
n/a 
n/a 
-4.759 
n/a 
n/a 
n/a 
n/a 
-4.759 
n/a 
n/a 
n/a 
n/a 
-4.759 
n/a 
n/a 
n/a 
n/a 
-5.3885 0 -2.186 -1.4985 -4.121 -3.873 -1.7565 -5.1845 -4.6695 -3.655 -2.9705 -2.186 -3.849 -8.0815 -4.202 0 
-5.3885 -2.186 -3.339 -5.189 -7.6815 -5.197001 -6.580501 -7.0515 -7.573501 -6.209001 -3.89 -4.8565 -12.0911 -9.6945 -4.202 
-7.7415 -3.339 -6.504 -8.029 -8.696501 -9.978001 -8.615001 -9.532001 -9.920501 -6.9355 -6.3545 -13.3796 -13.7041 -9.6945 
-8.509001 -6.504 -9.7355 -8.8 -13.9083 -11.8757 -10.609 -11.9478 -10.647 -10.0745 -14.961 -14.9926 -13.7041 
-12.1146 -9.7355 -10.1575 -14.214 -15.806 -13.8697 -13.0248 -12.6743 -13.786 -18.681 -16.574 -14.9926 
-5.3885 -2.186 -4.121 -3.873 -1.7565 -5.1845 -3.8195 -3.655 -5.091 -7.096 
-7.7415 -7.01 -7.6815 -5.197001 -6.580501 -6.896501 -5.969501 -8.023001 -12.5068 
-12.9273 -10.7175 -8.696501 -9.978001 -8.9505 -8.322001 -10.19 -15.464 
-16.6348 -11.7325 -13.9083 -12.2112 -9.634501 -12.8699 -17.631 
-17.6498 -16.9443 -16.1415 -12.8952 -14.1824 -20.3109 
-5.1845 -3.8195 -3.655 -4.3685 -2.186 -3.849 -5.3885 
-6.896501 -5.969501 -8.2155 -6.4965 -4.8565 -9.311501 
-8.322001 -9.052 -9.630501 -9.887 -10.6 
-11.7319 -10.533 -13.1324 -15.6773 
-13.2129 -14.0349 -18.9227 
-5.3885 -2.186 -1.4985 -6.548 -1.7565 -5.1845 -4.6695 -2.9705 -2.186 -3.074 -3.9205 -2.5045 -7.096 
-7.7415 -3.339 -6.9495 -8.0775 -6.580501 -7.0515 -7.556001 -3.89 -4.156 -5.09 -4.449 -9.5985 
-8.509001 -8.868501 -8.2655 -13.1099 -8.615001 -10.2925 -8.296 -5.816 -5.9775 -5.1285 -9.959001 
-14.4791 -9.112 -13.3513 -15.1444 -10.733 -11.0325 -9.7355 -7.1505 -6.1365 -10.733 
-14.7226 -14.346 -15.3858 -17.2624 -11.473 -12.472 -11.354 -7.1905 -11.9672 
