-4.759 
n/a 
n/a 
n/a 
n/a 
-4.759 
n/a 
n/a 
n/a 
n/a 
-4.759 
n/a 
n/a 
n/a 
n/a 
-4.759 
n/a 
n/a 
n/a 
n/a 
-1.934 -4.652 0 -4.2655 -3.8275 -2.8645 -4.4825 -3.321 -2.925 -4.5205 -1.8085 -2.688 -4.1 -3.2295 -2.3615 -3.634 0 
-5.852 -4.652 -4.2655 -7.553 -6.32 -5.5765 -6.981 -5.154 -7.227 -5.939 -3.642 -6.0345 -6.576 -5.5035 -4.7085 -3.634 
-5.852 -9.399 -7.553 -10.8027 -9.587501 -8.2665 -8.623 -9.621 -8.1335 -6.9855 -6.7735 -9.927501 -8.628 -7.1725 -4.7085 
-11.0742 -12.8733 -10.8027 -14.0702 -12.3387 -9.863 -13.1942 -10.324 -9.2745 -8.9565 -11.4047 -12.0759 -10.606 -7.1725 
-14.5485 -16.123 -14.0702 -16.8214 -13.9352 -14.5964 -13.8972 -11.465 -11.3049 -14.0625 -13.5531 -14.0539 -10.606 
-1.934 -4.652 -5.891 -5.2015 -3.0415 -2.3335 -2.186 -3.849 -2.5045 -12.16972 
-5.852 -10.348 -10.451 -7.867001 -4.132 -3.7085 -4.8565 -6.305 -15.59162 
-12.0232 -15.1568 -13.1165 -9.069501 -6.1585 -6.549 -7.104 -19.49572 
-16.832 -17.8223 -14.319 -10.1815 -9.608 -8.724501 -20.42452 
-19.4975 -19.0248 -15.431 -14.1236 -11.8299 -22.44482 
-1.934 -4.652 -5.891 -10.3635 -3.321 -7.009 -9.074 -3.1385 -4.3465 -1.4985 -3.8565 -3.898 -2.0935 -4.221 -5.873 -4.0225 -3.325 -1.4985 -2.688 -3.8565 -4.1 
-5.852 -10.348 -17.1649 -13.6845 -11.08 -16.7178 -12.4379 -7.0325 -5.372001 -4.882 -5.199 -5.9075 -6.025001 -8.8995 -8.9775 -6.703 -3.898 -3.702 -6.2165 -8.591001 
-12.0232 -21.8707 -20.4859 -21.4435 -20.7888 -20.0817 -16.3319 -8.338 -9.661 -6.726 -7.163 -10.5035 -12.493 -15.031 -13.7745 -7.3975 -5.869 -6.8685 -10.2535 
-23.5459 -25.1917 -28.2449 -31.1523 -24.1527 -23.9757 -17.6374 -12.7526 -11.5536 -9.1565 -12.2874 -17.7785 -17.8981 -18.5994 -14.1615 -9.592 -8.502 -10.485 
-26.8669 -32.9507 -37.9537 -34.5162 -28.0467 -25.2812 -22.052 -14.6452 -13.9841 -14.3981 -19.5624 -23.2294 -21.2381 -18.9864 -16.4686 -12.2932 -12.6753 
-3.2615 -1.4985 -4.72 -5.759501 -1.934 -4.652 0 -1.8085 -5.0665 -2.688 -5.4075 -3.8225 -2.674 -3.1125 -4.6365 -2.0935 -1.4985 -4.1405 -1.7565 -1.4985 -4.938 -3.849 -9.3905 
-4.032 -5.8575 -8.111 -6.592 -5.852 -4.652 -1.8085 -6.0085 -7.011 -8.0845 -10.265 -7.0175 -3.6315 -6.4715 -6.728001 -2.9725 -5.034 -4.9965 -2.4195 -6.091001 -10.504 -13.4001 
-8.941001 -9.276501 -8.609501 -8.834001 -5.852 -6.806001 -6.0085 -7.4655 -13.0191 -13.1738 -13.46 -7.8925 -6.791 -7.9635 -7.255001 -5.4795 -5.1595 -5.585 -6.895 -12.138 -20.0551 
-10.4505 -9.7065 -10.634 -8.834001 -7.619 -11.3774 -7.4655 -13.8892 -18.1084 -16.3688 -14.335 -11.2646 -8.1975 -8.524 -10.138 -5.5 -5.695 -9.76 -13.1396 -21.6891 
-10.8805 -11.758 -10.634 -10.8362 -12.4542 -12.8344 -13.8892 -18.9785 -21.3034 -17.2438 -17.7071 -12.6711 -8.7725 -11.4466 -10.149 -5.981501 -9.808001 -16.0716 -22.6907 
