-4.759 
n/a 
n/a 
n/a 
n/a 
-4.759 
n/a 
n/a 
n/a 
n/a 
-4.759 
n/a 
n/a 
n/a 
n/a 
-4.759 
n/a 
n/a 
n/a 
n/a 
-7.1195 -4.9225 -5.088 -2.6165 -3.8115 -1.7695 -3.213 -1.934 -3.9465 -4.257 
-12.505 -10.411 -7.565001 -5.2965 -3.8325 -4.1345 -4.4465 -5.144 -8.1945 
-17.9935 -12.888 -10.75 -5.3065 -5.8565 -5.2645 -7.6775 -9.876 
-20.4705 -16.073 -10.7775 -7.522 -6.9005 -8.46 -12.7687 
-23.6555 -16.1005 -12.993 -8.8325 -10.4675 -13.7228 
-4.176 -4.795 -2.8645 -2.6165 -3.098 -4.4275 -1.934 -1.7695 -3.9465 -1.756 -3.152 -4.092 -3.8685 -2.872 -3.074 -7.0295 -5.088 -7.7885 -4.744 -1.934 -6.009 -3.9465 -4.0415 -3.9665 
-7.0065 -7.7275 -4.475 -4.283 -7.592 -5.6585 -4.0395 -5.910501 -5.489 -5.002501 -6.7865 -7.5245 -6.278 -4.5415 -9.252501 -12.8865 -12.273 -9.779501 -6.0035 -7.858 -10.688 -8.3655 -6.334 
-10.396 -9.326 -6.3505 -8.6665 -8.937501 -7.692501 -9.2495 -6.895501 -8.466001 -8.712501 -10.9286 -9.655001 -7.889 -10.5855 -15.2095 -20.0715 -16.186 -11.12 -12.6677 -12.9274 -15.107 -10.9548 
-11.9945 -11.1801 -9.539001 -10.3475 -10.9321 -13.6121 -10.2705 -9.499001 -12.212 -12.9006 -13.0591 -11.3198 -14.0676 -16.5425 -22.3945 -23.9845 -16.9005 -17.6483 -17.7371 -17.3464 -17.6963 
-13.8486 -14.3686 -10.7345 -12.3421 -16.8517 -14.6331 -12.874 -13.245 -16.4001 -15.0311 -14.7239 -17.4984 -20.0246 -23.7275 -26.3075 -24.699 -23.7833 -22.7177 -22.1561 -19.9357 
-3.982 -2.229 -6.818501 -5.8285 -3.9875 -3.9465 -3.152 -1.934 -1.8085 -4.092 -3.8685 0 -1.756 -3.074 -7.7885 -1.7565 -4.559 -1.756 -3.9465 -6.818501 -3.152 -4.985 -5.1935 -5.088 0 
-5.746 -9.267 -11.1415 -10.5135 -8.442501 -7.151501 -4.9115 -3.2685 -5.092 -7.5245 -3.8685 -1.756 -4.566 -10.53 -8.448501 -5.683 -5.633 -5.895 -10.841 -8.918501 -8.236501 -11.046 -9.5345 -5.088 
-13.537 -13.7416 -15.8265 -14.9685 -12.0849 -8.877501 -6.0925 -5.875 -7.916 -7.5245 -5.283 -4.566 -12.2885 -12.942 -12.406 -6.854 -6.8895 -13.3493 -12.941 -14.105 -14.8861 -15.387 -9.5345 
-18.0116 -18.4266 -20.2815 -18.6109 -13.8109 -9.978001 -8.72 -8.2565 -7.916 -8.5965 -7.8865 -12.2885 -14.655 -17.0703 -15.3326 -8.13 -14.6218 -15.4493 -18.1275 -20.7546 -19.2271 -15.387 
-22.6966 -22.8816 -23.9239 -20.3369 -14.9114 -12.6819 -10.361 -8.2565 -8.935 -11.3974 -15.7394 -14.655 -18.7833 -19.7701 -16.6086 -16.0647 -16.7218 -20.6358 -24.7771 -25.0956 -19.2271 
-4.176 -4.795 -4.101 -3.222 -3.9465 -1.934 -4.092 -4.11 -1.756 -4.9345 -7.7885 -4.559 0 -3.9465 -4.795 
-7.0065 -7.924 -5.433001 -7.2475 -5.978001 -6.0365 -7.976501 -5.3115 -6.2485 -11.3775 -11.874 -4.559 -3.9465 -9.452001 
-10.281 -8.5745 -9.166 -8.5135 -10.8325 -8.679501 -9.1805 -10.6735 -12.9303 -17.4689 -12.2294 -6.723 -9.452001 
-10.9315 -12.7703 -10.75 -13.5608 -13.4755 -9.710501 -14.6139 -17.3553 -19.0217 -17.4689 -14.4998 -13.4285 
-15.1273 -14.3543 -15.7973 -16.2038 -14.5065 -15.2123 -21.2957 -23.4467 -19.0217 -19.7393 -21.2053 
