-4.759 
n/a 
n/a 
n/a 
n/a 
-4.759 
n/a 
n/a 
n/a 
n/a 
-4.759 
n/a 
n/a 
n/a 
n/a 
-4.759 
n/a 
n/a 
n/a 
n/a 
-3.6705 0 -1.4985 -5.309 -3.152 -5.4495 -1.934 -4.285 -3.691 -1.934 -5.664 
-3.6705 -1.4985 -6.3065 -6.841 -7.086 -7.0445 -5.9955 -6.618001 -5.816501 -7.059 
-4.5585 -6.3065 -7.5725 -8.278501 -8.2075 -11.6434 -7.6615 -8.216001 -9.694 
-9.513501 -7.5725 -8.687 -9.197001 -13.2548 -13.3094 -8.9075 -10.061 
-10.017 -8.687 -9.674001 -14.5139 -14.9208 -14.5554 -10.494 
-3.4765 -1.934 -4.65 0 -4.1685 -4.248 -2.0935 -3.691 -3.1385 0 
-4.9925 -5.833 -4.65 -4.1685 -8.221001 -6.208 -5.940001 -6.927501 -3.1385 
-9.410501 -5.833 -9.342501 -8.221001 -9.820001 -10.4765 -9.2185 -6.927501 
-9.410501 -9.832001 -13.5882 -9.820001 -14.1799 -13.755 -9.2185 
-13.5031 -14.1959 -15.1872 -14.1799 -17.4584 -13.755 
-3.99 -3.4985 -1.934 -1.4985 -3.158 -5.664 0 -2.925 -3.7555 -4.248 -1.934 -3.691 
-7.154 -5.2005 -2.6125 -4.178 -8.359 -5.664 -2.925 -5.431 -8.1975 -5.7205 -4.8225 
-8.8695 -5.774 -5.265 -8.426001 -8.359 -8.858 -5.431 -9.6955 -9.531 -8.205501 
-9.3065 -8.9505 -8.73 -8.426001 -10.757 -11.6004 -9.6955 -10.056 -12.4672 
-12.7976 -12.6775 -8.73 -10.76 -13.4994 -15.8649 -10.056 -13.8374 
-1.934 -5.664 0 -5.309 -1.7565 -3.641 -3.691 -3.7555 -4.248 0 
-7.059 -5.664 -5.309 -6.732 -5.457 -7.048 -7.921 -8.1975 -4.248 
-7.059 -10.634 -6.732 -10.064 -9.293 -12.1516 -12.682 -8.1975 
-12.4946 -12.057 -10.064 -13.9 -14.6984 -16.9126 -12.682 
-13.9176 -15.389 -13.9 -19.3054 -19.4594 -16.9126 
