-4.759 
n/a 
n/a 
n/a 
n/a 
-4.759 
n/a 
n/a 
n/a 
n/a 
-4.759 
n/a 
n/a 
n/a 
n/a 
-4.759 
n/a 
n/a 
n/a 
n/a 
-1.934 -1.4985 -7.4885 -4.806 -5.177 0 -3.0365 -3.152 -4.565 -1.7565 -3.5485 -2.0935 -1.4985 -2.9645 -1.7565 -4.6805 -4.361 -1.756 -3.7695 -4.0535 0 
-2.6125 -8.1875 -12.9217 -10.9338 -5.177 -3.0365 -4.453 -7.0955 -4.631 -4.837 -5.8265 -2.9725 -4.1725 -3.7825 -5.902 -10.5135 -6.0085 -5.0465 -8.186501 -4.0535 
-9.695701 -14.0173 -19.0495 -10.9338 -8.024 -4.453 -7.1945 -7.1625 -7.31 -7.081 -7.019 -5.389 -4.2115 -9.783 -12.34 -12.161 -10.7094 -9.0515 -8.186501 
-15.5255 -20.1451 -19.0495 -13.7808 -9.183001 -7.1945 -7.2675 -9.642 -9.5655 -8.035001 -9.6145 -5.438 -10.0245 -16.2858 -13.9875 -16.8619 -14.7144 -9.0515 
-21.6533 -20.1451 -21.8965 -14.9398 -12.0003 -7.2675 -9.720501 -11.9367 -10.662 -10.176 -9.654501 -10.4185 -16.5775 -17.9333 -18.6884 -20.8669 -14.7144 
-8.106501 -2.229 -4.806 -5.177 0 -4.806 -5.177 0 -2.0935 -4.565 -1.7565 -4.1105 -2.229 -1.934 -1.4985 -4.0535 -1.7565 -3.8315 -1.756 -3.8315 -3.4765 
-10.2645 -6.125 -10.9338 -5.177 -4.806 -10.9338 -5.177 -2.0935 -6.001 -4.631 -6.102 -5.194 -4.573 -2.6125 -4.5605 -4.5115 -5.5375 -5.169001 -5.56 -6.374001 
-14.1605 -12.774 -10.9338 -11.1415 -10.9338 -10.9338 -7.175 -6.001 -6.0295 -9.395 -6.826 -8.5155 -5.268 -7.3075 -4.6195 -8.229501 -6.5295 -7.7935 -8.5395 
-20.8095 -12.774 -16.8983 -17.2693 -10.9338 -12.9318 -11.5809 -6.0295 -11.4965 -10.459 -10.674 -9.415001 -10.442 -7.6085 -8.449 -9.469501 -9.002001 -10.5745 
-20.8095 -18.7385 -23.0261 -17.2693 -12.9318 -17.3377 -11.6094 -11.4965 -12.5605 -14.307 -11.5735 -14.6054 -10.743 -10.647 -9.7085 -11.9688 -12.0484 
-1.934 -4.806 -4.7345 -6.864 -2.229 -3.2955 -4.565 -1.7565 -3.5485 -2.5045 -3.7695 -1.756 -4.361 -4.142 0 
-7.711 -10.2335 -12.7825 -8.205501 -5.958 -8.105 -4.631 -4.837 -5.9205 -6.713 -5.33 -5.6505 -7.604 -4.142 
-13.4513 -18.2815 -14.124 -12.8167 -10.5865 -8.145 -7.31 -6.8745 -9.781 -7.814501 -9.5485 -8.7095 -7.604 
-21.4993 -19.623 -18.7352 -17.4452 -10.6055 -11.2156 -9.7635 -10.5975 -10.9293 -12.1508 -12.7263 -8.7095 
-22.8408 -24.2342 -23.3637 -17.4642 -13.6761 -13.6691 -13.6045 -11.7458 -15.2656 -15.3286 -12.7263 
-7.4885 -4.806 -5.177 -2.8645 -4.565 -1.7565 -4.8275 -2.0935 -3.8315 -1.756 -3.7695 
-12.9217 -10.9338 -8.296 -6.6965 -4.631 -7.1085 -8.740001 -5.785501 -5.169001 -5.0465 
-19.0495 -14.0528 -12.3392 -6.714 -10.082 -11.4232 -10.404 -6.9465 -8.801001 
-22.1685 -18.096 -12.3567 -12.527 -14.3967 -13.0872 -11.565 -10.2375 
-26.2117 -18.1135 -18.1697 -16.8417 -16.0607 -14.2482 -14.856 
