-4.759 
n/a 
n/a 
n/a 
n/a 
-4.759 
n/a 
n/a 
n/a 
n/a 
-4.759 
n/a 
n/a 
n/a 
n/a 
-4.759 
n/a 
n/a 
n/a 
n/a 
-1.934 -4.042 -3.982 -5.213 -4.246 -4.09 -4.2815 -1.7695 -2.8965 -5.213 0 
-6.6175 -7.6685 -7.028 -9.953501 -6.4945 -8.4145 -4.4915 -4.497 -7.7615 -5.213 
-10.733 -11.5227 -12.1241 -12.202 -10.176 -8.570001 -5.791 -10.2135 -7.7615 
-14.5872 -16.6188 -14.3726 -15.8835 -10.282 -9.477 -11.6917 -10.2135 
-19.6833 -18.8673 -18.0541 -15.9895 -11.189 -15.4875 -11.6917 

n/a 
n/a 
n/a 
n/a 
-4.4385 -3.59 -1.934 -3.875 -2.186 -1.4985 -4.2705 -3.5015 -1.7565 -4.02 -3.9675 
-7.979501 -5.272 -4.7225 -5.9525 -3.339 -5.383 -6.13 -4.783 -5.2945 -6.4735 
-10.7495 -7.0305 -6.6155 -7.022 -7.345 -7.303 -6.6955 -9.197001 -7.1775 
-12.508 -8.8105 -7.843 -11.5106 -8.208 -7.4445 -10.3745 -11.212 
-14.288 -9.989 -12.356 -12.3736 -8.231501 -10.403 -12.5707 
-4.4385 0 -1.4985 -3.982 -3.59 -2.186 -4.1205 -2.5045 -1.4985 -3.534 -2.0935 -4.5735 -3.9675 
-4.4385 -1.4985 -4.566 -6.5915 -5.4475 -5.007 -5.3175 -3.583 -4.636 -4.7905 -6.913001 -7.1785 
-6.403501 -4.566 -7.9725 -8.231 -8.148001 -6.317 -6.431 -6.0235 -5.951 -9.3125 -9.687 
-8.574501 -7.9725 -9.972 -11.1495 -9.305 -7.1455 -8.7695 -7.0375 -10.9462 -12.2355 
-12.3426 -9.972 -12.9457 -12.3065 -10.317 -9.309501 -10.146 -12.6129 -13.8692 
