-4.759 
n/a 
n/a 
n/a 
n/a 
-4.759 
n/a 
n/a 
n/a 
n/a 
-4.759 
n/a 
n/a 
n/a 
n/a 
-4.759 
n/a 
n/a 
n/a 
n/a 
-3.9415 0 -9.395 0 -3.6675 -3.251 -4.7115 0 
-3.9415 -9.395 -9.395 -3.6675 -6.282001 -8.526 -4.7115 
-13.7989 -9.395 -13.2047 -6.282001 -9.042001 -8.526 
-13.7989 -13.2047 -15.8192 -9.042001 -9.042001 
-17.6086 -15.8192 -18.5792 -9.042001 
-3.9415 0 -9.395 0 -3.941 -4.7115 0 
-3.9415 -9.395 -9.395 -3.941 -7.7965 -4.7115 
-13.7989 -9.395 -13.4782 -7.7965 -7.7965 
-13.7989 -13.4782 -17.3337 -7.7965 
-17.8821 -17.3337 -17.3337 
-3.9415 -9.395 0 -5.08 -4.7115 0 
-13.7989 -9.395 -5.08 -7.349501 -4.7115 
-13.7989 -14.6172 -7.349501 -7.349501 
-19.0211 -16.8867 -7.349501 
-21.2906 -16.8867 
-13.3365 0 -5.08 -4.7115 0 
-13.7989 -5.08 -7.349501 -4.7115 
-19.0211 -7.349501 -7.349501 
-21.2906 -7.349501 
-21.2906 
