-4.759 
n/a 
n/a 
n/a 
n/a 
-4.759 
n/a 
n/a 
n/a 
n/a 
-4.759 
n/a 
n/a 
n/a 
n/a 
-4.759 
n/a 
n/a 
n/a 
n/a 
-5.3885 -3.2875 -2.5195 -5.313 -14.7835 
-7.8685 -6.0435 -7.195001 -18.9073 
-10.354 -11.2554 -18.6892 
-15.5659 -22.7496 
-27.0601 
-5.3885 -8.7495 -1.934 -8.2755 -4.147 
-15.1058 -10.7975 -11.2159 -13.3167 
-17.1538 -20.0794 -16.2571 
-26.4357 -25.1206 
-31.4769 
-19.3495 -1.4985 -8.2755 -4.417 -5.3885 -3.2875 -2.742 -3.962 
-19.0275 -10.4185 -13.5867 -9.684501 -7.8685 -6.054 -8.3615 
-26.8249 -16.0331 -18.8542 -12.3711 -10.7175 -12.0841 
-33.0433 -21.3006 -21.5408 -15.2201 -16.7476 
-39.5904 -23.9872 -24.3898 -21.2502 
-16.83 -5.3885 -3.922 -2.9635 -2.5195 -10.3985 -7.1525 
-21.7973 -8.2815 -6.9245 -5.312 -13.5916 -17.551 
-25.1465 -11.7024 -10.6215 -17.1845 -20.7441 
-28.5674 -15.3994 -22.494 -24.337 
-32.2644 -27.2719 -29.6465 
