-4.759 
n/a 
n/a 
n/a 
n/a 
-4.759 
n/a 
n/a 
n/a 
n/a 
-4.759 
n/a 
n/a 
n/a 
n/a 
-4.759 
n/a 
n/a 
n/a 
n/a 
-3.2295 -1.7695 -3.6595 0 -4.9225 -2.4945 -3.8245 -1.934 -4.167 -1.934 -3.8735 
-4.92 -5.805 -3.6595 -4.9225 -6.9525 -5.751 -4.7245 -5.9285 -5.437 -4.885 
-10.1555 -5.805 -9.7425 -6.9525 -9.3655 -6.158 -7.4855 -7.4325 -7.276501 
-10.1555 -12.8796 -11.7725 -9.3655 -9.7565 -9.0185 -8.918 -9.6 
-17.2301 -14.9096 -14.1855 -9.7565 -12.6492 -10.4765 -11.2737 
-2.645 -4.9225 -3.6595 0 -1.7565 -4.9225 -7.785 -1.934 -4.167 0 
-8.141001 -9.2805 -3.6595 -1.7565 -6.4125 -13.7217 -8.135 -5.9285 -4.167 
-12.7148 -9.2805 -6.0645 -6.4125 -15.6313 -14.0717 -12.6525 -5.9285 
-12.7148 -11.7627 -11.3893 -15.6313 -15.9813 -18.5892 -12.6525 
-15.197 -17.0875 -20.6081 -15.9813 -20.4988 -18.5892 
-3.6595 0 -1.7565 -1.4985 -3.1385 -3.511 -1.934 -4.167 -2.9705 -2.186 -1.4985 -4.1925 -1.934 -3.8735 
-3.6595 -1.7565 -2.4195 -4.2575 -5.979 -4.582 -5.9285 -6.877 -3.89 -3.339 -4.4615 -5.933 -4.885 
-6.0645 -2.4195 -5.013 -7.537001 -6.5055 -7.321 -8.354 -8.1805 -5.027 -5.8545 -6.3245 -8.7145 
-6.6715 -5.013 -8.003 -7.984 -8.313001 -9.336 -9.526001 -9.490001 -7.032001 -7.259501 -9.033 
-8.823 -8.003 -8.3015 -9.699 -10.5975 -10.8656 -10.9275 -11.5016 -8.332001 -9.7165 
-1.934 -3.8735 -3.7515 -3.6595 0 -1.7565 -1.4985 -3.1385 -3.511 -1.934 -4.167 
-4.885 -8.4845 -7.9005 -3.6595 -1.7565 -2.4195 -4.2575 -5.979 -4.582 -5.9285 
-8.7005 -13.1271 -7.9005 -6.0645 -2.4195 -5.013 -7.537001 -6.5055 -7.321 
-13.8283 -13.1271 -9.85 -6.6715 -5.013 -8.003 -7.984 -8.313001 
-13.8283 -15.0766 -10.4375 -8.823 -8.003 -8.3015 -9.699 
