-4.759 
n/a 
n/a 
n/a 
n/a 
-4.759 
n/a 
n/a 
n/a 
n/a 
-4.759 
n/a 
n/a 
n/a 
n/a 
-4.759 
n/a 
n/a 
n/a 
n/a 
-3.433 -1.7565 -1.4985 -4.3125 -4.625 -1.934 -1.4985 -3.16 -3.9515 0 -1.756 -1.4985 -2.95 -3.9595 -3.5455 -5.1465 -4.426 -1.7695 -2.985 -4.8425 -4.2915 -2.742 -4.6185 -1.4985 -3.5025 -3.664 -1.7695 -3.5395 -1.4985 -3.188 -4.0005 -3.16 -2.5045 -3.188 -4.0005 -4.1665 0 
-4.1845 -2.4195 -5.5105 -9.275 -6.2 -2.6125 -4.0625 -5.8585 -3.9515 -1.756 -3.0405 -3.9285 -6.121 -6.103 -10.038 -8.9355 -6.46 -4.281 -7.55 -9.723001 -7.047 -8.5425 -6.0975 -4.16 -5.7235 -4.894 -4.7845 -4.8575 -3.619 -4.969501 -5.2365 -6.242001 -6.2815 -4.969501 -8.315001 -4.1665 
-4.6515 -6.500501 -10.041 -11.0806 -6.719 -5.7115 -7.7485 -5.8585 -5.2425 -3.0405 -5.761 -6.5225 -8.946 -12.9657 -14.073 -11.2469 -9.2805 -9.037001 -12.8859 -10.752 -13.3583 -10.119 -9.865001 -7.187 -6.910501 -7.929501 -5.7725 -7.7165 -5.421 -5.246 -7.503 -9.981001 -7.989501 -8.352 -8.315001 
-7.2495 -11.1254 -11.9894 -11.5996 -10.553 -9.273001 -7.7485 -7.253 -6.6085 -5.761 -7.722 -9.493501 -15.7921 -17.0007 -16.3844 -14.0674 -14.1845 -14.4805 -13.9149 -17.9857 -14.9348 -14.0993 -12.9708 -8.785501 -10.2435 -9.0345 -8.368501 -9.106001 -5.466 -7.506001 -11.548 -12.0386 -10.7175 -8.352 
-12.2834 -13.0738 -12.5084 -15.4336 -14.1145 -9.273001 -9.161 -9.028501 -9.1735 -7.722 -10.6616 -16.3434 -19.8271 -19.3121 -19.2049 -18.9714 -19.628 -15.5095 -21.1486 -19.5622 -18.9151 -17.2051 -14.5693 -12.4407 -11.3485 -11.8229 -10.494 -9.158001 -7.543 -11.5524 -13.6056 -14.7666 -10.7175 
-3.433 -1.7565 -3.845 -1.7565 -3.9515 -3.8035 -1.756 -2.8965 -3.6885 -2.95 -6.4975 -1.934 -3.16 -4.101 -4.0395 0 -1.756 -3.074 -3.383 -4.4115 -3.976 -2.3335 -4.0195 -3.1385 -3.383 -4.9475 0 -1.756 -1.934 -3.493 -1.7565 -3.188 -4.0005 -3.16 -2.925 -3.264 -3.188 -4.0005 -4.1665 -2.356 -4.9475 0 
-4.1845 -6.398 -4.13 -5.384 -6.878 -4.9805 -3.751 -6.119 -7.476501 -8.498 -7.781001 -5.4145 -8.038501 -6.463 -4.0395 -1.756 -4.566 -5.617001 -5.898 -6.6925 -6.552 -5.719501 -6.8245 -6.726501 -6.453 -4.9475 -1.756 -4.0205 -4.6845 -4.416 -5.13 -4.969501 -5.2365 -6.984 -5.328 -7.3265 -4.969501 -8.315001 -6.909 -7.120501 -4.9475 
-9.028501 -7.794 -6.937 -8.440001 -7.976501 -7.224 -7.4045 -10.5984 -13.7757 -9.8585 -11.5611 -11.269 -11.0427 -6.463 -5.047 -4.566 -7.135 -8.153501 -7.983 -9.172 -10.3965 -7.8765 -11.3561 -7.694 -6.453 -6.068 -4.0205 -5.9785 -5.14 -8.4715 -6.884501 -5.246 -8.3085 -9.377501 -9.665001 -8.6125 -8.352 -10.228 -12.1953 -7.120501 
-9.227501 -10.668 -9.736 -9.384501 -9.679501 -10.7575 -12.4259 -16.8976 -15.1362 -13.7118 -17.4156 -14.2732 -11.0427 -7.522501 -7.9405 -7.135 -9.922501 -10.6259 -10.553 -13.0287 -12.5535 -13.0445 -12.3236 -7.694 -7.179501 -8.349001 -5.9785 -6.09 -9.562001 -9.6405 -7.428 -8.319 -10.8098 -13.8867 -11.0342 -12.6188 -10.233 -15.5143 -12.1953 
-12.2395 -13.467 -10.7525 -11.1541 -13.4146 -15.7789 -18.7251 -18.2581 -18.9895 -19.5663 -20.4198 -14.2732 -12.1022 -10.4675 -10.6647 -9.922501 -12.3993 -13.1959 -14.4097 -15.1857 -17.7215 -14.012 -12.3236 -7.7315 -9.594 -10.7792 -6.09 -11.4664 -10.9328 -9.955 -11.0014 -10.8311 -15.319 -15.2559 -15.0405 -14.4998 -15.5193 -15.5143 
-7.135 -1.934 -4.7135 -1.7565 -6.0575 -1.756 -2.95 -4.5625 -1.934 -4.5385 -1.934 -2.8965 -4.2915 -1.756 -3.644 -3.976 -1.934 -4.7135 -3.882 -3.8225 -3.6385 -5.3795 0 -2.925 -4.1585 -3.188 -4.0005 -3.16 -2.5045 -3.188 -4.0005 -4.1665 
-7.797 -7.483 -6.9075 -8.319 -7.5135 -4.868 -7.556001 -5.9265 -6.5195 -6.254001 -4.391 -5.294 -5.448 -5.0925 -5.9875 -6.01 -7.483 -8.663 -7.845 -6.441501 -9.289501 -5.3795 -2.925 -5.872 -8.277 -4.969501 -5.2365 -6.242001 -6.2815 -4.969501 -8.315001 
-13.5576 -9.861 -14.2646 -9.525001 -11.2413 -8.566501 -8.755501 -10.7565 -8.52 -8.856501 -5.798 -6.854 -9.508 -7.3335 -8.401501 -10.2865 -11.7373 -13.2232 -10.5035 -12.5657 -9.289501 -7.6785 -5.872 -10.6889 -10.3045 -5.246 -7.503 -9.981001 -7.989501 -8.352 
-15.9356 -17.3925 -15.4706 -13.3702 -14.9398 -9.948001 -13.8609 -12.757 -10.66 -10.2985 -7.695 -11.4052 -12.1208 -10.06 -12.954 -14.5408 -16.2975 -15.8817 -17.3207 -12.5657 -11.7597 -11.0689 -10.6889 -12.7164 -10.581 -7.506001 -11.548 -12.0386 -10.7175 
-23.4671 -18.5985 -19.3158 -17.0687 -16.3213 -15.0534 -15.8614 -14.897 -12.102 -12.1955 -12.7472 -14.018 -14.8473 -14.6709 -17.2083 -19.101 -18.956 -22.6989 -17.3207 -15.0359 -15.1501 -15.8858 -12.7164 -12.9929 -12.841 -11.5524 -13.6056 -14.7666 
-3.5025 -4.247 -4.186 -3.8035 0 -1.756 -2.645 -2.95 -3.9595 -2.0935 -4.426 -3.43 -3.1385 -1.7695 -4.661 -3.188 -4.0005 -3.16 -2.5045 -3.188 -4.0005 -4.1665 0 
-6.4315 -8.938 -6.455501 -3.8035 -1.756 -3.898 -5.117001 -6.121 -5.712 -6.383501 -7.9585 -6.8055 -4.6115 -6.597001 -8.5985 -4.969501 -5.2365 -6.242001 -6.2815 -4.969501 -8.315001 -4.1665 
-12.0167 -9.8015 -6.455501 -4.9805 -3.898 -6.566501 -9.092001 -7.002 -10.2085 -10.66 -11.929 -8.877501 -9.723001 -11.0243 -10.8108 -5.246 -7.503 -9.981001 -7.989501 -8.352 -8.315001 
-12.8802 -9.8015 -7.335001 -7.4385 -6.566501 -10.2695 -10.382 -10.4035 -14.485 -14.6305 -14.001 -14.1604 -14.3079 -13.2366 -11.0873 -7.506001 -11.548 -12.0386 -10.7175 -8.352 
-12.8802 -12.5854 -9.8585 -9.262 -10.2695 -11.5595 -13.7835 -14.68 -18.4555 -16.7025 -19.2839 -18.7453 -16.5202 -13.5131 -13.3473 -11.5524 -13.6056 -14.7666 -10.7175 
