-4.759 
n/a 
n/a 
n/a 
n/a 
-4.759 
n/a 
n/a 
n/a 
n/a 
-4.759 
n/a 
n/a 
n/a 
n/a 
-4.759 
n/a 
n/a 
n/a 
n/a 
-3.4075 -5.449 -1.7565 -5.1845 -6.844 
-6.826 -6.536 -6.580501 -6.9655 
-8.684501 -10.085 -7.1625 
-12.7137 -11.9518 
-14.5805 
-3.4075 -4.761 -1.7565 -5.1845 -6.844 
-7.0835 -6.1095 -6.580501 -6.9655 
-8.002001 -10.485 -7.1625 
-12.9871 -11.1462 
-13.6483 
-5.1845 -6.844 -3.4075 -5.6695 
-6.9655 -9.23 -7.318001 
-9.493 -13.8551 
-14.3709 
n/a 
-7.988 -6.844 -3.4075 -4.761 
-9.2425 -9.23 -7.0835 
-11.5965 -13.6206 
-15.9871 
n/a 
