-4.759 
n/a 
n/a 
n/a 
n/a 
-4.759 
n/a 
n/a 
n/a 
n/a 
-4.759 
n/a 
n/a 
n/a 
n/a 
-4.759 
n/a 
n/a 
n/a 
n/a 
-4.303 -4.3665 -1.756 -8.057501 -7.597001 0 
-5.6325 -5.698501 -9.483 -16.0477 -7.597001 
-6.7485 -14.4439 -17.6978 -16.0477 
-15.8269 -22.6587 -17.6978 
-24.0417 -22.6587 
-4.5735 -4.3665 -1.756 -3.982 -5.5085 0 
-8.1675 -5.698501 -5.594 -7.0985 -5.5085 
-10.028 -8.1735 -8.362 -7.0985 
-12.503 -8.9315 -8.362 
-13.261 -8.9315 
-3.8665 -4.3665 -1.756 -5.3625 -2.5195 -3.875 
-9.736 -5.698501 -7.34 -7.5165 -5.8335 
-11.1104 -10.163 -9.3615 -10.66 
-15.5749 -13.5045 -12.573 
-18.9164 -16.716 
-4.303 -4.3665 -1.756 -6.403 -5.59 
-5.6325 -5.698501 -7.663 -10.9855 
-6.7485 -12.6239 -12.8973 
-14.0069 -17.8582 
-19.2412 
