-4.759 
n/a 
n/a 
n/a 
n/a 
-4.759 
n/a 
n/a 
n/a 
n/a 
-4.759 
n/a 
n/a 
n/a 
n/a 
-4.759 
n/a 
n/a 
n/a 
n/a 
-4.8635 -5.1805 -1.934 -2.3615 -4.677 -2.742 -4.514 -1.4985 -4.972 -1.7565 -3.8475 -1.756 -3.5125 -1.7565 -4.253 -5.111 -3.9725 
-8.158 -6.3385 -3.539 -6.895 -7.5015 -6.197001 -4.9595 -6.02 -5.979 -5.437 -5.133 -5.334 -4.312 -6.242001 -10.4425 -10.147 
-8.570001 -7.9945 -7.899 -8.918501 -11.2791 -6.6725 -9.192 -6.304 -9.033 -6.321001 -7.561 -6.051 -8.3695 -12.4569 -15.0521 
-10.223 -9.8175 -10.4855 -12.8755 -11.7546 -10.5225 -9.409 -9.361501 -9.815001 -8.809501 -9.232 -10.621 -15.0536 -17.0665 
-10.6295 -12.4452 -14.4425 -13.351 -15.6046 -10.774 -12.5543 -10.068 -12.3941 -10.6085 -13.859 -17.3051 -19.6632 
-4.8635 -1.934 -2.3615 -4.677 -1.7695 -4.0645 -4.972 0 -4.253 -4.6805 -4.6825 -3.519 0 
-6.315 -3.539 -6.895 -6.6765 -7.863501 -9.661001 -4.972 -4.253 -8.7665 -9.38 -8.228001 -3.519 
-8.7025 -7.899 -8.42 -13.2633 -13.5532 -9.661001 -9.5765 -8.7665 -13.8028 -13.2175 -8.228001 
-13.3357 -9.6815 -15.3194 -18.953 -13.5532 -14.4451 -14.2954 -13.8028 -17.6403 -13.2175 
-15.1182 -16.6267 -21.0091 -18.953 -18.3373 -19.164 -19.3317 -17.6403 -17.6403 
-1.4985 -4.179 -5.1805 -1.934 -2.3615 -4.677 0 -2.186 -2.6165 -3.098 -1.4985 -3.668 -2.0935 -1.4985 -3.564 -6.4455 -1.7565 -2.5685 -1.4985 -3.1385 0 -2.872 -3.074 -4.6185 -1.4985 -4.649 -1.7565 -1.4985 -4.9295 -3.8405 -1.7565 -1.4985 -4.253 -4.6805 0 
-5.3495 -7.645 -6.3385 -3.539 -6.895 -4.677 -2.186 -3.5105 -4.283 -4.514 -5.2425 -5.612 -2.9725 -4.7165 -9.092501 -7.228001 -3.938 -3.7015 -4.2575 -3.1385 -2.872 -4.5415 -5.8455 -5.7175 -6.3655 -6.4 -2.4195 -5.637 -8.1815 -4.563 -2.4195 -5.429501 -8.7665 -4.6805 
-8.719 -8.359 -7.9945 -7.899 -6.895 -6.5685 -3.5105 -5.3935 -5.4775 -8.5495 -7.165 -6.412 -6.2815 -10.1385 -10.0615 -9.399 -4.8455 -5.7305 -4.2575 -5.623 -4.5415 -7.609 -7.3305 -11.3877 -6.758 -6.8865 -6.3715 -9.714001 -9.403 -5.737 -6.267 -9.250501 -8.7665 
-9.530001 -10.5975 -9.8175 -7.899 -7.6825 -8.2145 -5.3935 -6.442 -9.521001 -10.7124 -7.923501 -9.772 -12.1889 -10.3885 -12.3983 -10.104 -6.627501 -5.7305 -6.803 -7.146501 -7.609 -8.881001 -13.1855 -11.7802 -7.317 -11.3207 -10.7999 -9.911 -10.362 -9.0955 -9.645 -9.250501 
-12.1717 -12.4205 -9.8175 -9.122001 -9.5365 -9.415 -6.442 -10.586 -12.1151 -11.4709 -11.4681 -15.961 -12.4389 -12.7425 -13.1033 -11.9984 -6.627501 -8.264501 -8.262501 -10.2485 -8.881001 -14.9076 -13.578 -12.3392 -11.7076 -15.7491 -10.9969 -10.492 -13.7205 -13.0691 -9.645 
-1.4985 -4.8635 -1.934 -2.3615 -4.677 -2.4945 -2.6165 -3.098 -4.1205 -1.7695 -2.489 -2.664 -3.668 -1.7565 -9.843 -12.16972 -2.872 -3.074 -1.4985 -4.4525 -1.7565 -1.4985 -4.6805 -6.292 -1.934 -2.3335 -3.892 
-6.8315 -6.315 -3.539 -6.895 -7.5425 -3.8065 -4.283 -6.947001 -5.1155 -3.1405 -4.563 -4.7495 -4.660501 -12.5487 -22.54852 -15.04172 -4.5415 -4.6505 -4.731 -4.6715 -2.4195 -5.733001 -8.8465 -7.022501 -4.359 -6.2355 
-8.207001 -8.7025 -7.899 -8.8915 -9.1555 -5.8365 -8.1355 -8.206 -5.2255 -5.011 -6.759501 -5.055 -15.9761 -25.25422 -25.42052 -16.71122 -5.607 -7.771 -4.7575 -5.560501 -6.445001 -10.1385 -9.703501 -9.085501 -6.5425 
-10.1715 -13.3357 -9.502001 -10.647 -11.2809 -8.9265 -9.1955 -8.325001 -6.6405 -7.3525 -7.054 -16.6806 -28.68162 -28.12622 -27.09002 -17.77672 -8.286501 -7.8025 -5.6675 -10.674 -10.7495 -10.9955 -11.7373 -11.4674 
-14.8047 -14.9387 -11.2563 -12.7724 -14.3709 -9.812501 -9.243 -9.833501 -8.96 -7.614501 -18.6448 -29.38612 -31.55362 -29.79572 -28.15552 -20.45622 -8.318001 -8.502 -10.717 -14.9785 -11.6065 -13.0293 -14.1192 
