-4.759 
n/a 
n/a 
n/a 
n/a 
-4.759 
n/a 
n/a 
n/a 
n/a 
-4.759 
n/a 
n/a 
n/a 
n/a 
-4.759 
n/a 
n/a 
n/a 
n/a 
-3.2615 -3.429 -3.9185 -4.414 0 
-7.275001 -8.058001 -7.1045 -4.414 
-12.5988 -9.9925 -7.1045 
-14.5333 -9.9925 
-14.5333 
-3.321 -2.925 -3.013 -3.9185 -4.414 0 -6.462 -4.414 0 
-5.154 -4.609 -7.822001 -7.1045 -4.414 -6.462 -10.1305 -4.414 
-7.237 -9.562 -11.5744 -7.1045 -10.5865 -10.1305 -10.1305 
-12.342 -13.3644 -11.5744 -13.9378 -14.255 -10.1305 
-16.1444 -13.3644 -18.4077 -17.6063 -14.255 
-3.321 -3.9185 -4.414 -2.742 -2.489 -3.9595 -2.9705 -2.186 -3.849 -2.5045 -6.462 -7.4935 
-7.943 -7.1045 -7.591 -3.301 -4.74 -7.179 -3.89 -4.8565 -6.305 -9.026501 -10.061 
-11.4776 -10.3815 -8.3685 -5.601 -7.7655 -8.107 -6.3545 -7.104 -12.9306 -12.7059 
-14.7546 -11.159 -10.8203 -8.754001 -8.8345 -10.494 -8.307 -13.8594 -16.61 
-15.5321 -13.6108 -13.9733 -10.071 -11.3999 -12.4465 -15.0948 -17.5388 
-3.2615 -2.3335 -2.925 -2.742 -3.429 -3.9185 0 -6.021 -3.9185 0 -4.414 0 -6.462 -10.3 0 0 
-5.0495 -4.0295 -4.3725 -4.5865 -8.058001 -3.9185 -6.021 -9.6885 -3.9185 -4.414 -4.414 -6.462 -17.4194 -10.3 0 
-6.784 -5.3675 -6.4155 -9.504 -8.058001 -9.657001 -9.6885 -9.6885 -7.1045 -4.414 -10.5865 -17.4194 -17.4194 -10.3 
-7.916 -7.402 -11.2426 -9.504 -14.3159 -13.8029 -9.6885 -13.6287 -7.1045 -10.5865 -21.5439 -17.4194 -17.4194 
-9.9685 -12.3143 -11.2426 -16.0021 -18.4618 -13.8029 -13.6287 -13.6287 -13.9378 -21.5439 -21.5439 -17.4194 
