-4.759 
n/a 
n/a 
n/a 
n/a 
-4.759 
n/a 
n/a 
n/a 
n/a 
-4.759 
n/a 
n/a 
n/a 
n/a 
-4.759 
n/a 
n/a 
n/a 
n/a 
-5.1605 -4.267 -1.7695 -3.2345 -4.4385 
-10.2085 -6.9425 -3.713 -8.554501 
-13.0462 -8.776501 -9.0655 
-14.8802 -14.5096 
-20.6133 
-4.8915 -4.723 -2.3345 -4.7695 -1.4985 -5.1605 0 
-8.49 -6.059 -5.690001 -5.385 -6.014501 -5.1605 
-9.148001 -9.734 -6.526 -8.0235 -6.014501 
-13.5916 -10.0535 -9.555501 -8.0235 
-13.9111 -13.2536 -9.555501 
-2.3345 -4.7695 -3.824 -3.3255 -3.6185 0 -4.8255 -2.7765 -2.489 -4.723 0 
-5.690001 -8.123 -7.044001 -7.738501 -3.6185 -4.8255 -7.5145 -3.495 -5.6415 -4.723 
-9.84 -11.8418 -11.822 -7.738501 -8.3605 -7.5145 -7.654 -6.3605 -5.6415 
-13.5588 -16.6198 -11.822 -13.0015 -11.6577 -7.654 -10.2695 -6.3605 
-18.3368 -16.6198 -17.085 -16.2987 -11.7972 -10.2695 -10.2695 
-5.1605 -1.7695 -2.489 -4.256 -2.356 -3.42 -1.7695 -3.0465 -1.4985 -4.4385 
-6.8805 -3.1405 -5.5215 -5.265 -6.4405 -5.2875 -3.683 -4.046 -5.331 
-8.3335 -5.972 -6.66 -9.259501 -9.109501 -6.8905 -4.634 -8.121 
-9.3915 -7.116 -10.1225 -12.2175 -10.8629 -7.793 -8.422501 
-10.6831 -10.6745 -13.4723 -13.9709 -11.7654 -11.7935 
