-4.759 
n/a 
n/a 
n/a 
n/a 
-4.759 
n/a 
n/a 
n/a 
n/a 
-4.759 
n/a 
n/a 
n/a 
n/a 
-4.759 
n/a 
n/a 
n/a 
n/a 
-3.034 -2.7295 -3.047 -3.849 -3.3935 -3.748 -3.277 -1.4985 -3.995 -7.5295 -4.066 -1.756 -6.518 -3.851 -1.7695 -7.128 
-4.536 -5.018 -6.7585 -7.7605 -5.4335 -5.8405 -4.839 -4.712 -12.6539 -12.4917 -6.317 -9.376 -11.0558 -4.0015 -9.564501 
-6.446 -7.93 -10.8892 -9.1415 -7.407001 -7.409 -8.0045 -13.8775 -17.6161 -14.7427 -14.9068 -13.942 -11.2063 -10.2035 
-9.967001 -12.2503 -12.2702 -10.0285 -8.851501 -8.962001 -17.7944 -18.8397 -19.8671 -23.3325 -19.4728 -14.0925 -17.4083 
-14.3699 -13.6313 -13.1572 -11.5944 -10.2635 -18.9739 -22.7566 -21.0907 -28.4569 -27.8985 -19.6233 -20.2945 
-3.034 -4.4525 -2.7455 -1.8085 -4.565 -1.7565 -4.5445 -1.7565 -3.277 0 -1.4985 -4.1455 -1.7565 -3.995 -2.7415 -4.287 0 -2.5045 -1.4985 -5.5025 -2.4945 -4.5485 -1.756 -4.9345 -5.113 0 
-7.1215 -7.669001 -4.4765 -7.7115 -4.631 -5.5185 -4.771 -5.0515 -3.277 -1.4985 -4.870501 -5.11 -5.423 -6.3075 -6.743501 -4.287 -2.5045 -3.583 -6.737 -7.4915 -5.861 -6.1455 -6.2485 -10.131 -5.113 
-10.6094 -8.73 -10.0605 -7.901 -6.055 -5.6275 -6.377 -5.0515 -4.839 -4.870501 -5.3985 -7.788001 -8.0775 -9.9455 -6.743501 -6.7135 -3.583 -8.778 -8.238501 -9.755 -7.152 -9.2155 -10.6095 -10.131 
-11.6704 -14.6964 -10.4645 -9.472 -6.147 -7.1965 -6.377 -6.447001 -8.754001 -5.3985 -7.8915 -9.969001 -11.8303 -9.9455 -8.609 -7.583 -8.778 -10.3755 -10.0315 -11.297 -9.8585 -13.6945 -10.6095 
-17.6368 -15.1004 -12.0355 -9.609501 -7.532 -7.1965 -7.7105 -9.450001 -9.245001 -7.8915 -10.018 -13.9378 -11.8303 -11.8884 -9.471001 -13.03 -10.3755 -12.1685 -12.0107 -14.0035 -14.2941 -13.6945 
-3.3715 -3.3935 -4.5445 -1.7565 -3.158 -2.95 -3.047 -1.7695 -3.995 -3.956 -1.7695 -3.737 -1.756 -4.834 -3.6055 -2.4265 -4.287 0 
-7.9175 -7.712 -4.771 -5.26 -6.379001 -5.988 -5.9705 -5.497 -8.314 -4.324 -5.321 -5.5325 -5.8785 -7.54 -7.087 -7.257501 -4.287 
-10.7595 -8.235001 -8.5485 -8.304001 -10.7595 -9.104 -10.453 -9.669001 -8.757 -9.456 -7.778 -10.7025 -8.465 -11.4245 -12.8614 -7.257501 
-11.2825 -12.4925 -12.0935 -13.2941 -13.8755 -13.9343 -14.625 -10.3985 -14.0584 -11.938 -13.5772 -13.289 -12.4681 -17.1989 -12.8614 
-15.54 -16.0375 -17.0836 -16.4101 -18.7058 -18.1063 -15.3545 -15.6999 -16.5404 -17.7372 -16.1637 -17.2921 -18.2425 -17.1989 
-3.034 -4.4525 -3.135 -3.748 -3.277 -3.393 0 -1.4985 -5.5025 -1.934 -1.4985 -4.285 -3.355 -2.4945 -4.8585 -8.641001 -1.756 -5.412 
-7.1215 -6.4475 -8.028 -5.8405 -4.243 -3.393 -1.4985 -6.737 -7.1165 -2.6125 -4.774 -6.216001 -6.529 -5.682 -14.8875 -10.4265 -6.5055 
-9.4895 -11.7459 -9.316 -6.2535 -4.243 -5.169 -6.737 -8.3105 -7.8175 -5.297 -6.318 -9.109 -10.3475 -16.7562 -16.673 -15.176 
-14.9595 -13.0339 -9.7545 -6.2535 -5.654 -9.333501 -8.3105 -8.8405 -10.9982 -6.870501 -9.223001 -12.9453 -21.4217 -18.5417 -21.4225 
-16.2475 -13.4724 -9.7545 -7.226501 -9.391001 -11.2186 -8.8405 -12.133 -12.5717 -9.529501 -13.0665 -24.0195 -23.2072 -23.2912 
