-4.759 
n/a 
n/a 
n/a 
n/a 
-4.759 
n/a 
n/a 
n/a 
n/a 
-4.759 
n/a 
n/a 
n/a 
n/a 
-4.759 
n/a 
n/a 
n/a 
n/a 
-3.2615 -8.993501 -3.158 -5.5785 -4.752 -3.4075 -4.1865 -4.203 -3.774 -1.756 -2.9805 -4.33 -3.7905 -1.8085 -4.2245 -1.934 -2.3335 -3.774 0 
-13.3686 -12.4321 -9.395 -11.2019 -8.176001 -6.8985 -7.612 -6.491 -5.291 -4.3555 -6.051001 -8.06 -4.255 -5.274 -4.929 -4.359 -6.634501 -3.774 
-16.8072 -18.6691 -15.1696 -14.6259 -12.0368 -8.363001 -10.3475 -8.948 -7.704 -7.224 -9.758501 -8.549001 -6.783 -5.555 -7.794001 -8.234 -6.634501 
-23.0442 -24.4437 -18.5936 -18.4867 -13.5013 -12.4673 -12.8045 -11.407 -10.702 -10.4675 -10.267 -11.1348 -7.0085 -8.302501 -12.09 -8.234 
-28.8188 -27.8677 -22.4544 -19.9512 -17.6056 -14.9243 -15.2635 -14.405 -13.9455 -10.976 -12.8528 -11.3603 -9.639 -12.6937 -12.09 
-3.321 -5.3265 -5.5785 -2.7415 -3.584 -1.8085 -3.6825 -4.281 -2.5045 -4.203 -1.756 -2.9805 -2.186 -1.4985 -3.819 -1.7565 -2.3615 -3.6825 0 
-9.717001 -10.523 -7.358 -7.776 -4.729 -5.046 -7.601501 -5.893 -6.6495 -5.5325 -4.3555 -4.1635 -3.339 -4.8225 -4.3915 -3.523 -6.2875 -3.6825 
-15.2475 -12.3025 -12.8317 -8.759001 -8.23 -8.4095 -8.48 -10.3988 -7.899 -8.0045 -5.5675 -5.312 -6.2325 -5.2185 -7.308001 -7.489501 -6.2875 
-17.027 -17.7762 -13.8147 -12.291 -11.8285 -9.992001 -13.8294 -11.6483 -11.0432 -9.238 -6.7545 -7.352001 -6.301 -7.682 -11.8369 -7.489501 
-22.5007 -18.7592 -17.3467 -15.8895 -13.411 -15.8192 -15.0789 -14.7925 -12.2767 -10.6345 -9.000501 -7.401501 -8.759501 -12.4191 -11.8369 
-3.321 -1.934 -5.3265 0 -2.9805 -3.9535 -1.8085 -3.6825 -3.849 -9.862 -4.1865 -4.203 -1.756 -2.9805 -4.33 -4.3195 -1.4985 -4.259 -1.7565 -1.4985 -3.6825 0 
-5.4075 -6.6025 -5.3265 -2.9805 -5.607 -5.581 -5.046 -7.318 -13.8716 -14.1737 -7.612 -5.5325 -4.3555 -6.051001 -7.7145 -5.1515 -4.743 -4.755 -2.4195 -4.87 -3.6825 
-9.243501 -6.6025 -7.609 -5.607 -7.0505 -8.8275 -8.3225 -17.6852 -18.1833 -17.5992 -8.909 -8.0045 -7.224 -8.388 -8.562 -8.239 -5.0895 -5.4285 -5.6965 -4.87 
-9.243501 -7.876 -10.0445 -7.0505 -10.749 -10.3415 -18.6955 -21.9969 -21.6088 -18.8962 -11.5226 -10.757 -9.349501 -9.2705 -11.7345 -8.459 -5.767 -7.9285 -5.6965 
-9.921 -10.1585 -10.7235 -10.749 -12.263 -20.7145 -23.0072 -25.4224 -22.9058 -21.5098 -14.2751 -12.8825 -10.0965 -12.434 -11.9545 -8.695 -8.736 -7.9285 
-5.5785 -3.584 -1.8085 -3.6825 -2.0935 -3.098 -2.356 -5.451 -4.1865 -4.203 -1.756 -3.429 -4.1495 -2.5045 -6.8005 -3.8385 -4.156 0 
-9.915501 -4.729 -5.046 -5.525 -6.16 -5.7225 -7.8225 -7.833 -7.612 -5.5325 -4.86 -5.9855 -6.295501 -10.2185 -10.5755 -8.77 -4.156 
-11.2759 -8.23 -6.719501 -9.8675 -8.9285 -11.9862 -10.7931 -8.3555 -8.909 -8.9395 -7.3075 -8.283001 -14.7223 -13.9935 -15.507 -8.77 
-14.7769 -10.199 -10.7595 -12.7024 -15.6288 -14.9568 -11.3156 -9.5535 -12.4576 -11.6394 -9.571501 -17.054 -18.4973 -18.925 -15.507 
-16.7459 -14.239 -13.5944 -19.4027 -18.5994 -15.4793 -12.5136 -13.1571 -15.1575 -13.9034 -18.4897 -20.829 -23.4288 -18.925 
