-4.759 
n/a 
n/a 
n/a 
n/a 
-4.759 
n/a 
n/a 
n/a 
n/a 
-4.759 
n/a 
n/a 
n/a 
n/a 
-4.759 
n/a 
n/a 
n/a 
n/a 
-12.16972 -6.7925 -7.8165 -12.16972 -2.229 -3.4605 
-18.96222 -15.0618 -20.52602 -14.39872 -5.0395 
-27.23152 -27.77132 -22.75502 -17.20922 
-39.94104 -30.00032 -25.56552 
-42.17004 -32.81082 
-6.4925 -5.1995 -3.1435 -4.5205 0 0 -11.128 0 -3.4605 
-8.495501 -8.857 -7.768001 -4.5205 0 -11.128 -11.128 -3.4605 
-12.5946 -13.8701 -7.768001 -4.5205 -11.128 -11.128 -14.5885 
-17.6077 -13.8701 -7.768001 -16.8133 -11.128 -14.5885 
-17.6077 -13.8701 -20.2732 -16.8133 -14.5885 
-1.934 -3.16 -12.16972 -3.644 -3.043 -2.7295 -2.7765 -3.9765 -5.1995 
-5.4145 -16.46392 -15.81372 -6.463 -4.753 -4.065 -6.243001 -9.290001 
-19.69442 -20.10792 -18.63272 -8.559001 -5.476501 -6.784 -12.1585 
-23.33842 -22.92692 -20.72872 -9.8985 -9.4545 -13.1513 
-26.15742 -25.02292 -22.06822 -13.9465 -15.3444 
-5.3545 -5.249 -5.1995 -2.186 -3.401 -2.4285 -9.6355 0 -3.845 0 
-11.8209 -11.5981 -7.1215 -5.024 -5.481 -11.943 -10.038 -3.845 -3.845 
-18.17 -13.5201 -10.185 -6.7875 -12.4742 -12.3692 -14.9152 -3.845 
-20.092 -16.5836 -11.9485 -13.5348 -12.6858 -17.2464 -14.9152 
-23.1555 -18.3471 -19.1982 -14.0372 -17.563 -17.2464 
