-4.759 
n/a 
n/a 
n/a 
n/a 
-4.759 
n/a 
n/a 
n/a 
n/a 
-4.759 
n/a 
n/a 
n/a 
n/a 
-4.759 
n/a 
n/a 
n/a 
n/a 
-5.2805 0 -4.4925 -5.2115 0 -4.8675 -5.8165 -1.756 -2.8965 -5.1995 -5.5855 -2.4945 -3.535 -4.031 -2.0935 -1.4985 -5.089 -1.7565 -5.3085 0 
-5.2805 -4.4925 -6.1845 -5.2115 -4.8675 -6.5105 -6.683 -3.751 -7.897501 -8.2615 -7.3725 -7.103 -5.8145 -4.8935 -2.9725 -5.6315 -5.4455 -6.896501 -5.3085 
-9.269501 -6.1845 -6.1845 -9.448 -6.5105 -7.546 -8.672 -8.256001 -9.84 -10.0165 -12.482 -9.486 -6.2975 -5.596 -7.1285 -5.708001 -9.998 -6.896501 
-10.6345 -6.1845 -10.609 -10.2055 -7.546 -8.8725 -9.834001 -9.8395 -13.1052 -15.126 -14.865 -9.755 -6.9575 -8.892 -7.186501 -10.208 -9.998 
-10.6345 -10.609 -11.3665 -10.759 -8.8725 -9.836 -9.8455 -13.1041 -18.2147 -17.509 -15.134 -10.762 -10.0005 -8.933001 -11.7155 -10.208 
-1.4985 -3.699 -4.246 -2.3335 -4.6205 -8.144501 -2.4945 -3.995 -5.2425 0 -3.873 -8.859 0 -4.9635 -1.7565 -4.575 0 -2.4285 -5.1495 -1.7565 -4.921 -1.934 -1.4985 -3.7345 0 
-5.264 -6.0755 -5.2345 -5.8405 -14.0504 -11.5176 -7.486001 -7.2275 -5.2425 -3.873 -10.718 -8.859 -4.9635 -6.0415 -6.9185 -4.575 -2.4285 -7.4535 -6.638 -6.4395 -6.472 -2.6125 -4.9965 -3.7345 
-7.297 -6.742 -9.570001 -15.6188 -17.4235 -16.5091 -10.6095 -7.2275 -10.089 -10.718 -10.718 -14.1457 -6.0415 -10.1765 -6.9185 -7.736501 -7.4535 -8.9145 -11.8688 -7.8335 -7.0445 -5.795 -4.9965 
-7.772 -11.6143 -19.3435 -18.9919 -22.415 -19.6326 -10.6095 -12.4156 -17.0364 -10.718 -16.0047 -15.2237 -10.1765 -10.1765 -9.961 -13.2295 -8.9145 -14.3357 -13.2628 -8.2155 -10.0775 -5.795 
-12.6249 -21.3878 -22.7166 -23.9834 -25.5385 -19.6326 -15.7976 -19.363 -17.0364 -16.0047 -17.0827 -19.3587 -10.1765 -13.4058 -15.454 -14.6905 -14.3357 -15.7297 -13.6448 -11.4743 -10.0775 
-7.775001 -4.638 -3.851 -1.7695 -4.8345 0 -3.873 -5.043 0 -3.898 -4.147 0 -4.392 -3.9515 
-12.8686 -7.0595 -4.0015 -6.975501 -4.8345 -3.873 -7.851501 -5.043 -3.898 -7.120501 -4.147 -4.392 -8.793501 
-15.2901 -7.065 -8.0405 -6.975501 -9.001501 -7.851501 -7.851501 -9.672001 -7.120501 -7.120501 -7.794001 -8.793501 
-15.2956 -11.3466 -8.0405 -11.8865 -13.1998 -7.851501 -13.6979 -12.9713 -7.120501 -11.5769 -12.7579 
-19.5772 -11.3466 -13.4171 -16.0848 -13.1998 -13.6979 -16.9972 -12.9713 -11.5769 -16.5408 
-3.995 -5.2425 0 -3.873 -4.9095 0 -4.575 -5.084 -2.4945 -3.45 -2.9705 -2.882 -4.0195 -5.3085 
-7.2275 -5.2425 -3.873 -8.015 -4.9095 -4.575 -6.402 -8.259001 -5.1125 -5.748 -4.7675 -5.268001 -9.150001 
-7.2275 -10.089 -8.015 -8.015 -9.987 -6.402 -9.426001 -11.2534 -6.6205 -7.458 -6.4395 -10.209 
-12.4156 -14.3334 -8.015 -13.3677 -12.0684 -9.426001 -12.9482 -12.7614 -8.5435 -9.4855 -11.7883 
-16.66 -14.3334 -13.3677 -15.4491 -15.0924 -12.9482 -14.4562 -14.6844 -10.4855 -14.9313 
