-4.759 
n/a 
n/a 
n/a 
n/a 
-4.759 
n/a 
n/a 
n/a 
n/a 
-4.759 
n/a 
n/a 
n/a 
n/a 
-4.759 
n/a 
n/a 
n/a 
n/a 
-1.4985 -5.038 -3.9675 -1.7565 -4.38 -2.186 -5.986 -4.38 -4.508 -1.4985 -6.6205 -4.21 -1.7565 -1.4985 -4.845 -5.986 -5.004 -1.7565 -1.4985 -3.502 -1.756 -3.7745 -4.1385 -4.3355 -3.4985 -4.1955 -5.094 -3.9675 -4.461 -3.098 -2.5045 -6.614501 -1.934 -4.127 -5.094 -3.8475 0 -3.0365 -2.4945 -7.031 -1.7565 -1.4985 -5.377 -1.756 -5.031 -4.173 -1.4985 -3.8745 
-6.026501 -6.997 -5.258 -5.6185 -6.7035 -8.978001 -9.578501 -9.2875 -5.0065 -6.805 -8.9865 -5.086 -2.4195 -5.242001 -10.2285 -8.583 -6.652 -2.4195 -4.5955 -5.513 -5.3805 -6.435 -5.686 -7.552 -7.1685 -6.626501 -7.242001 -8.006001 -7.274001 -5.3345 -8.826 -8.571501 -5.5125 -8.518001 -8.679501 -3.8475 -3.0365 -3.688 -9.291 -7.8425 -2.4195 -6.756001 -6.4515 -6.037 -8.239 -4.3745 -5.655001 
-8.3155 -8.777 -8.1525 -7.545001 -10.3475 -10.451 -10.452 -9.7915 -9.273001 -9.076 -9.0755 -5.586 -6.450001 -10.259 -10.2785 -9.9255 -7.554 -5.5145 -5.966001 -6.4915 -7.315001 -7.4055 -8.488501 -10.361 -10.2925 -9.048501 -10.2755 -10.322 -8.791 -10.2235 -10.4195 -10.3895 -9.818001 -10.1995 -8.679501 -6.6985 -3.688 -9.889501 -9.532001 -8.345 -7.5705 -7.865 -8.599501 -9.144501 -8.406 -7.761001 
-9.344001 -10.368 -8.336 -10.411 -10.47 -10.465 -10.466 -10.386 -10.156 -9.112501 -9.22 -9.578501 -10.341 -10.2785 -10.3925 -10.1115 -9.9665 -7.049 -8.005501 -9.1715 -8.088 -10.0705 -10.375 -10.386 -10.3775 -10.368 -10.3635 -10.3515 -10.368 -10.5415 -10.623 -10.622 -10.5065 -10.1995 -10.335 -7.2335 -9.889501 -10.048 -10.07 -10.513 -8.665501 -9.622001 -10.3345 -9.3065 -10.264 
-10.3685 -10.423 -10.4105 -10.472 -10.484 -10.479 -10.48 -10.4125 -10.163 -9.259001 -10.336 -10.3695 -10.352 -10.3925 -10.404 -10.229 -10.365 -8.9525 -9.273001 -10.1195 -10.1895 -10.387 -10.3865 -10.3975 -10.389 -10.3795 -10.3745 -10.389 -10.621 -10.635 -10.643 -10.642 -10.5065 -10.376 -10.372 -10.3745 -10.048 -10.2845 -10.521 -10.529 -10.243 -10.515 -10.3645 -10.369 
-2.356 -4.3435 -6.104 -3.748 -4.6595 -3.9165 -1.756 -2.356 -2.7455 -4.849 -3.748 -3.1385 0 -1.4985 -3.4225 -3.468 -2.186 -1.4985 -4.3365 -2.4285 -4.4485 -4.1735 -3.59 -2.3345 -3.5085 -3.4425 -1.756 -1.934 -4.02 -2.4265 -2.186 -1.4985 -4.3365 -4.1735 -3.59 
-6.025001 -9.209001 -8.477501 -6.942 -6.896 -5.773 -4.553 -5.713 -8.42 -7.700001 -5.326 -3.1385 -1.4985 -3.9655 -3.628 -5.589 -3.339 -5.4085 -6.912 -6.9475 -7.285 -6.9245 -5.597 -6.254 -6.09 -4.9015 -4.0205 -6.1145 -6.503 -3.292 -3.339 -5.4085 -7.219 -6.9245 
-11.6385 -13.1345 -11.4175 -8.825001 -8.162001 -8.4725 -7.92 -10.1035 -9.423501 -9.352 -5.326 -4.564 -3.9655 -4.053 -5.694 -6.7135 -6.903 -7.483 -7.066 -9.566 -9.387 -8.203501 -8.938001 -8.319 -7.9425 -6.8205 -8.404501 -8.439 -6.914 -4.5995 -6.903 -7.492001 -9.522 
-12.2764 -12.614 -12.7963 -10.0955 -10.5035 -10.688 -12.6251 -11.107 -10.486 -9.352 -7.023 -7.813 -4.053 -5.7135 -6.7995 -10.2135 -8.802501 -7.576 -9.622001 -11.7052 -10.689 -8.9925 -9.000501 -9.0515 -10.0775 -9.606001 -10.044 -8.851 -8.211 -8.243 -7.9575 -9.6595 
-15.6674 -15.6578 -14.0668 -12.5834 -12.9384 -15.3931 -13.6286 -12.1695 -10.486 -10.205 -8.98 -7.975 -5.7135 -6.8165 -10.2485 -12.4266 -8.854 -9.7915 -11.7666 -13.0072 -11.478 -9.0035 -9.241501 -12.1627 -12.8458 -10.6755 -10.3465 -9.8715 -12.0707 -9.0825 -10.0095 
-1.4985 -3.5085 -5.4105 -2.7415 -6.104 -3.748 -5.513 -3.676 -2.186 -1.8085 -3.859 -4.4665 -3.59 -1.934 -3.188 0 
-4.4755 -8.252001 -8.032 -8.801001 -8.477501 -7.415 -10.089 -5.5015 -3.164 -4.7675 -7.0195 -7.635 -5.272 -5.387 -3.188 
-8.678 -11.2859 -14.1059 -11.64 -12.384 -12.4502 -12.4605 -6.3355 -6.392 -10.4505 -9.5225 -8.007001 -7.885 -5.387 
-12.1011 -17.3598 -15.6009 -14.5785 -17.8502 -14.8217 -13.2945 -9.536 -12.4648 -12.9535 -9.7915 -11.7918 -7.885 
-18.175 -18.8548 -20.1508 -19.7241 -20.2217 -15.6557 -16.495 -16.573 -14.9678 -13.2225 -13.9005 -11.7918 
-2.356 -6.104 -3.748 -4.197 -4.227 0 -6.905 -3.748 -4.197 -5.7335 0 -1.756 -1.8085 -4.02 -1.7565 -4.849 -3.748 0 -3.676 -2.186 -1.4985 -3.859 -2.4285 -4.4145 -4.1735 -3.59 -3.402 -2.264 -1.4985 -3.5085 -3.4425 -1.756 -3.859 -4.1735 -1.934 -1.4985 -3.188 -3.402 -2.264 -1.4985 -4.02 -1.756 -3.8245 -3.4425 0 
-8.165001 -8.477501 -6.221 -5.2115 -4.227 -6.0755 -8.867001 -6.221 -8.235001 -5.7335 -1.756 -3.584 -5.4725 -5.1665 -7.0635 -7.700001 -3.748 -3.676 -5.5015 -3.339 -4.4795 -6.360001 -6.5725 -6.417 -6.9245 -6.993 -3.793 -2.9195 -4.4755 -6.09 -4.9015 -5.337 -6.051001 -6.0375 -2.6125 -3.619 -6.956 -3.793 -2.9195 -4.914001 -5.292 -5.5 -5.967 -3.4425 
-11.51 -11.0835 -6.44 -5.2115 -10.9109 -9.064501 -11.693 -9.5525 -8.235001 -7.524501 -3.584 -7.129 -5.781 -9.3585 -8.613001 -7.700001 -8.0205 -5.5015 -6.601501 -5.8815 -6.9025 -6.6565 -8.7235 -7.936501 -10.5635 -7.3055 -4.34 -6.079 -6.5695 -7.9425 -8.7685 -7.5585 -7.383501 -6.2825 -4.377 -7.222 -7.084 -4.34 -6.744 -6.3065 -9.003 -7.388 -5.967 
-13.607 -11.7415 -6.44 -12.4223 -13.8999 -11.9132 -15.4479 -9.5525 -9.304 -9.076 -7.129 -7.407 -9.715 -10.02 -8.613001 -12.2749 -10.064 -6.601501 -9.104 -8.2155 -7.062 -8.735001 -9.3145 -12.4175 -10.876 -7.8695 -6.392 -8.565001 -8.3675 -9.871 -9.4995 -8.576 -7.652501 -6.665 -7.628 -7.350501 -7.6905 -7.6745 -8.0045 -9.935 -11.3306 -7.388 
-13.834 -11.7415 -14.2833 -15.4113 -16.7486 -15.4479 -15.4479 -10.6615 -10.0655 -9.706 -7.407 -11.4478 -10.4875 -10.02 -13.3467 -14.3184 -11.2544 -9.104 -11.847 -8.334001 -8.866501 -9.3155 -14.4633 -12.73 -11.44 -10.3405 -8.993 -10.176 -10.3714 -9.888 -10.376 -8.77 -7.921 -9.155 -7.730501 -7.999001 -11.2742 -9.009001 -11.807 -12.1648 -11.3306 
