-4.759 
n/a 
n/a 
n/a 
n/a 
-4.759 
n/a 
n/a 
n/a 
n/a 
-4.759 
n/a 
n/a 
n/a 
n/a 
-4.759 
n/a 
n/a 
n/a 
n/a 
-3.0365 -2.4945 -4.975 -2.0935 -1.4985 -4.547 -1.7565 -4.0325 -1.7565 -4.3305 -3.433 -1.7565 -1.4985 -4.3905 -4.848 -1.7565 -1.4985 -3.7075 
-3.688 -7.378 -5.789001 -2.9725 -5.4925 -5.206501 -6.431 -5.3175 -6.461501 -7.506001 -4.1845 -2.4195 -5.8485 -9.088501 -6.209 -2.4195 -4.6235 
-7.602001 -8.0235 -6.789001 -6.6585 -5.726 -9.098001 -8.2865 -10.1035 -10.31 -8.257 -4.6515 -6.776 -9.677001 -10.2815 -7.7585 -5.468501 
-8.1365 -9.116 -9.452001 -6.826 -10.45 -11.8177 -13.2777 -14.3108 -11.061 -8.8345 -7.628 -10.3345 -10.7045 -11.831 -11.2049 
-9.425501 -11.812 -9.4735 -11.6494 -13.1697 -16.8089 -17.485 -15.0618 -11.6385 -11.8516 -11.4247 -11.362 -12.254 -15.2774 
-3.0365 -2.742 -2.489 -1.8085 -4.2055 -1.7695 -4.449 -1.4985 -5.5085 -4.0325 -1.7565 -5.2365 -3.433 -1.7565 -4.2105 -1.7565 -1.4985 -3.7075 -5.3285 
-4.668 -3.301 -3.799 -4.713 -4.621 -4.935 -5.367001 -6.364 -10.143 -5.3175 -6.6165 -8.190001 -4.1845 -5.385 -5.477 -2.4195 -4.6235 -9.998 
-4.759501 -4.7705 -6.925 -4.9405 -7.78 -5.6595 -10.3815 -10.5325 -10.6675 -10.0345 -9.637 -9.087501 -8.4055 -7.173 -6.114 -5.468501 -10.3475 
-5.317501 -7.403501 -7.377 -8.079 -8.8795 -10.717 -14.55 -10.719 -15.3845 -13.055 -10.4525 -13.6681 -10.4259 -7.444 -7.712501 -11.5023 
-7.864001 -7.799 -10.334 -9.192 -13.9814 -14.8855 -14.7365 -15.436 -18.405 -13.8705 -15.0331 -15.6885 -10.6969 -9.537001 -14.1459 
-2.872 -2.5045 -1.4985 -3.7075 -2.229 -4.2105 -2.8645 -4.3905 -1.8085 -3.845 -3.0365 -2.186 -1.8085 -4.2055 -2.0935 -1.4985 -5.8885 -1.7695 -4.449 0 
-4.9055 -3.583 -4.6235 -5.5255 -6.4925 -7.107 -6.193501 -7.0305 -3.9645 -6.884 -3.66 -3.164 -4.713 -5.6535 -2.9725 -6.8995 -7.8325 -4.935 -4.449 
-5.91 -6.2375 -5.9985 -8.127001 -9.18 -10.2865 -8.493 -8.3345 -7.08 -7.626 -4.218 -6.195 -6.1005 -6.5065 -8.767 -9.032001 -10.7335 -4.935 
-8.3035 -7.8785 -8.229501 -10.298 -12.5469 -12.586 -9.302 -11.3682 -7.929 -8.078501 -6.433001 -6.9555 -6.693 -12.8594 -9.881001 -12.1566 -10.7335 
-10.1935 -10.316 -10.5745 -13.8527 -14.8464 -13.395 -12.5109 -12.2172 -8.401 -9.995001 -7.6975 -7.9195 -13.3997 -13.9734 -13.492 -12.1566 
-3.7075 -4.983 -2.186 -4.4115 -3.0365 -2.186 -4.2055 -1.7695 -4.673 
-7.178 -7.295 -5.996 -7.456 -3.66 -7.580501 -4.621 -5.0455 
-9.301001 -11.3816 -8.471001 -8.0805 -8.233001 -8.121 -9.2465 
-13.5268 -13.8566 -8.918 -12.7971 -9.1225 -13.2383 
-16.0018 -14.3036 -13.7118 -13.6866 -14.4022 
