-4.759 
n/a 
n/a 
n/a 
n/a 
-4.759 
n/a 
n/a 
n/a 
n/a 
-4.759 
n/a 
n/a 
n/a 
n/a 
-4.759 
n/a 
n/a 
n/a 
n/a 
0 -4.048 0 -13.653 0 -3.0465 -3.6175 -1.934 -3.1335 -4.415 0 -3.784 -5.5625 -4.269 -4.5735 -1.756 -3.8475 -4.3915 -4.415 -3.152 -1.934 -5.2825 -1.7695 -3.0465 -3.4985 
-4.048 -4.048 -13.7462 -13.7462 -3.0465 -6.412001 -5.347 -5.298 -6.7815 -4.415 -3.784 -9.0255 -9.211 -8.9425 -5.7525 -5.226 -7.3765 -8.767 -7.030001 -4.9115 -7.0235 -7.9175 -3.683 -6.4445 
-4.048 -18.1446 -13.7462 -17.4397 -6.412001 -8.281501 -8.952001 -9.2535 -6.7815 -9.098001 -8.6945 -12.576 -14.094 -10.019 -8.162001 -9.6245 -12.7662 -11.7406 -8.892501 -10.513 -9.975 -9.975 -7.1915 
-18.1446 -18.1446 -17.4397 -21.4838 -8.281501 -12.2607 -13.1997 -9.2535 -12.1157 -14.2297 -12.7642 -18.2795 -15.6273 -12.5139 -13.7229 -15.2542 -15.7398 -13.6031 -14.6296 -13.4645 -12.0325 -13.5709 
-18.1446 -21.8381 -21.4838 -23.3533 -12.2607 -16.5084 -13.1997 -14.6719 -17.2474 -18.2994 -18.2795 -19.356 -18.1222 -18.0748 -19.3526 -18.2278 -17.6023 -19.3402 -17.5811 -15.522 -15.6284 
-4.006 0 -1.7565 -1.4985 -3.5085 -4.02 -4.648 -1.934 -3.1335 -7.3765 -3.189 -1.756 -3.564 -4.5735 -3.6215 -2.186 -1.8085 -3.177 -3.17 -4.415 -2.0935 -3.972 -4.651 0 
-4.006 -1.7565 -2.4195 -4.4755 -5.651 -9.8085 -6.333 -5.298 -8.6925 -7.984 -4.275 -4.562 -5.74 -7.0065 -5.5965 -3.164 -5.0605 -6.564 -7.460001 -6.590001 -5.6565 -7.4705 -4.651 
-6.3395 -2.4195 -5.126 -6.240001 -12.0763 -11.6457 -10.5898 -11.091 -11.107 -9.482 -5.6435 -6.6235 -7.466001 -8.861501 -7.059501 -6.0645 -8.648001 -11.3272 -9.6175 -10.082 -9.6815 -7.4705 
-7.014 -5.126 -6.5205 -13.1173 -13.9135 -15.9025 -15.9253 -12.5935 -12.2235 -10.924 -7.305501 -8.925 -9.4385 -10.586 -9.958 -9.479501 -13.6896 -13.4847 -13.3315 -14.2084 -9.6815 
-8.4245 -6.5205 -13.4396 -14.9545 -18.1703 -21.238 -18.2953 -13.966 -14.208 -12.6825 -9.619 -11.0649 -11.194 -13.4845 -13.5164 -14.7687 -15.8471 -17.1987 -17.4579 -14.2084 
-3.17 -1.7565 -1.4985 -7.1445 0 -3.7555 -4.6075 -1.934 -3.1335 -5.9775 -1.4985 -5.5625 -3.1385 0 -3.237 -3.189 -1.756 -3.564 -3.0785 -3.6215 -2.4945 -1.934 -1.4985 -3.177 -4.088 -1.934 -4.1685 -3.972 -1.7695 -3.1385 
-4.179 -2.4195 -9.335501 -8.2165 -3.7555 -8.748 -5.4935 -5.298 -8.435 -7.0725 -7.587501 -8.407001 -3.1385 -3.237 -4.615 -4.275 -4.562 -7.897 -5.702 -6.4215 -4.2645 -2.6125 -4.0915 -6.972 -5.429501 -5.9795 -7.35 -6.3155 -5.0525 
-4.497 -10.5005 -9.745001 -13.254 -8.748 -9.656 -8.438001 -10.947 -8.493501 -13.5705 -12.1865 -9.393001 -7.163001 -4.615 -5.685 -5.6435 -8.802 -10.9615 -10.5975 -8.355 -4.935 -5.256001 -7.662001 -8.099 -10.6215 -9.747001 -8.5445 -8.474001 
-11.2825 -10.092 -14.8339 -18.4791 -9.656 -12.7079 -14.1634 -11.6915 -15.8183 -18.4547 -12.5429 -14.4884 -8.4575 -5.685 -7.2345 -11.3909 -12.0825 -15.857 -12.531 -8.8715 -7.0105 -9.208 -8.3415 -13.6964 -14.389 -9.989 -10.2925 
-11.8423 -15.1809 -20.059 -19.3871 -12.7079 -18.4333 -16.1831 -19.4404 -20.6697 -18.5193 -17.6383 -15.7829 -9.320001 -7.2345 -13.2479 -14.6714 -16.978 -17.7905 -13.0475 -11.2286 -10.687 -10.0355 -14.3129 -17.4639 -14.631 -11.8016 
-3.17 -1.7565 -3.277 0 -4.067 -4.006 0 -1.7565 -3.1385 -4.254 -2.264 -3.1335 -3.6215 -4.067 -2.356 -5.5625 0 -3.1385 -4.254 -2.264 -3.189 0 -3.564 -3.6215 -1.756 -5.2025 -2.5045 -1.4985 -4.216 -3.6215 0 
-4.179 -4.25 -3.277 -4.067 -8.448 -4.006 -1.7565 -4.388 -7.1095 -5.34 -6.053 -5.7895 -8.356001 -7.349501 -8.052501 -5.154 -3.1385 -7.1095 -5.34 -5.2445 -3.189 -3.564 -8.156 -5.3685 -7.779 -6.8205 -3.583 -5.547 -8.665501 -3.6215 
-5.4445 -4.25 -6.831 -8.448 -8.448 -6.3395 -4.388 -8.196501 -7.984 -9.4805 -9.5185 -11.0362 -11.8533 -13.6543 -8.152 -9.393001 -7.1095 -7.984 -8.620001 -5.2445 -5.8085 -8.156 -9.6435 -12.1941 -8.820001 -8.143001 -7.938 -9.7825 -8.665501 
-5.4445 -7.8195 -11.535 -8.448 -9.1835 -8.478001 -8.196501 -8.869 -12.5419 -13.1586 -15.0626 -14.5335 -18.1581 -13.6543 -12.8356 -13.8704 -7.984 -11.6814 -8.620001 -8.418 -10.621 -9.6435 -16.5029 -13.2351 -9.627001 -12.6762 -12.0725 -9.7825 
-9.118501 -12.6181 -11.535 -9.1835 -11.6476 -12.7511 -8.869 -13.5937 -16.22 -18.7027 -18.5599 -20.8383 -18.1581 -18.3379 -17.313 -14.2899 -11.6814 -11.6814 -12.2489 -13.7089 -12.1085 -16.5029 -17.5439 -14.0421 -14.7946 -16.8107 -12.0725 
