-4.759 
n/a 
n/a 
n/a 
n/a 
-4.759 
n/a 
n/a 
n/a 
n/a 
-4.759 
n/a 
n/a 
n/a 
n/a 
-4.759 
n/a 
n/a 
n/a 
n/a 
-3.091 -4.235 -5.1195 -5.1875 -4.231 -1.756 -4.2 -4.83 
-5.1065 -9.157001 -9.790501 -8.122001 -5.4195 -5.5055 -9.083 
-9.623501 -14.119 -12.725 -9.581001 -7.6215 -10.1465 
-14.8299 -17.0535 -14.184 -11.8188 -12.5003 
-17.7644 -18.5125 -16.4218 -16.6976 
-3.091 -4.235 -3.383 -4.0135 -1.7695 -5.1875 -4.936 -1.756 -3.284 -4.2 0 
-5.1065 -7.9355 -6.339 -5.915 -7.435501 -8.826 -5.995 -5.3135 -5.804 -4.2 
-8.6775 -11.2961 -7.2015 -12.1592 -10.6335 -9.809001 -9.518001 -7.867001 -5.804 
-12.1887 -12.1586 -13.8875 -15.3572 -11.6165 -13.332 -10.4695 -7.867001 
-13.0512 -18.8446 -17.0855 -16.3402 -15.1395 -14.2835 -10.4695 
-2.9805 -2.229 -4.235 -3.383 -6.152 -1.7695 -8.373501 -4.2655 -4.231 -1.756 -3.074 -3.284 -4.2 0 
-4.2145 -5.509 -7.9355 -7.8605 -8.472 -10.6095 -13.1484 -8.9235 -5.4195 -4.566 -7.7085 -5.804 -4.2 
-8.7545 -9.3655 -12.8176 -10.0745 -17.7594 -15.3844 -17.8064 -9.554 -8.314001 -8.98 -9.923 -5.804 
-13.083 -14.3664 -15.0316 -19.3619 -22.5343 -20.0424 -18.4369 -13.0147 -12.8148 -11.1919 -9.923 
-18.0839 -16.5804 -24.319 -24.1368 -27.1923 -20.6729 -21.8976 -17.5155 -15.0267 -11.1919 
-3.091 -4.235 -3.17 -3.115 -4.1865 -4.9 -1.756 -3.284 -4.2 
-5.1065 -7.976501 -6.214 -7.522 -7.748 -6.691 -5.3135 -5.804 
-8.941501 -11.4095 -11.2872 -11.3211 -9.4575 -10.8419 -7.867001 
-12.6113 -16.4827 -15.0863 -13.0306 -13.7926 -13.3954 
-17.6845 -20.2818 -16.7958 -17.3657 -16.3461 
