-4.759 
n/a 
n/a 
n/a 
n/a 
-4.759 
n/a 
n/a 
n/a 
n/a 
-4.759 
n/a 
n/a 
n/a 
n/a 
-4.759 
n/a 
n/a 
n/a 
n/a 
0 -4.567 -5.5715 -3.681 0 -4.8785 -2.3585 -5.5715 -8.649501 -4.838 -2.3585 -2.4945 -1.8085 -5.0155 0 
-4.567 -11.046 -9.8855 -3.681 -4.8785 -5.9775 -8.358 -15.1292 -13.8547 -6.4945 -3.538 -4.16 -5.7185 -5.0155 
-11.046 -15.36 -9.8855 -8.775001 -5.9775 -12.8474 -18.3865 -20.3344 -15.5112 -7.263 -4.793 -7.407001 -5.7185 
-15.36 -15.36 -14.9795 -9.556001 -12.8474 -22.8759 -23.5917 -21.9909 -16.2797 -8.075001 -7.4535 -7.407001 
-15.36 -20.454 -15.7605 -16.5143 -22.8759 -28.0811 -25.2482 -22.7594 -17.0917 -10.096 -7.4535 
-3.757 -4.722 -2.7455 -4.011 -2.3615 -4.7555 -2.6165 -3.89 -6.893 -4.269 0 
-7.6165 -5.0905 -5.645 -6.462501 -8.266001 -8.463501 -7.993501 -11.8472 -11.9256 -4.269 
-7.8625 -7.3175 -8.0535 -12.7676 -12.3414 -14.5139 -16.0959 -16.8798 -11.9256 
-10.3453 -9.706 -14.5132 -16.843 -18.3918 -22.6163 -21.1285 -16.8798 
-12.7338 -16.1851 -18.5886 -22.8934 -26.4942 -27.6489 -21.1285 
-4.8015 -4.9225 -2.4945 -2.6165 -5.5375 -2.0935 -3.6055 -4.1665 
-10.168 -6.9525 -3.8065 -7.0905 -7.5205 -4.7925 -8.878 
-12.7334 -8.2445 -8.583 -9.731 -10.733 -9.818501 
-14.0254 -13.201 -11.2633 -13.0007 -15.759 
-18.9819 -15.8813 -14.533 -18.0267 
0 -5.246 -4.495 -3.1435 -2.6165 -3.115 -1.8085 -4.9915 -4.612 0 
-5.246 -9.0105 -7.4585 -5.3155 -5.172501 -4.2095 -6.024 -10.7495 -4.612 
-9.0105 -12.3292 -9.012 -6.6875 -6.672 -7.554501 -12.3448 -10.7495 
-12.3292 -13.8827 -10.647 -8.318001 -10.2002 -14.0267 -12.3448 
-13.8827 -15.5177 -12.2775 -11.933 -16.6724 -14.0267 
