-4.759 
n/a 
n/a 
n/a 
n/a 
-4.759 
n/a 
n/a 
n/a 
n/a 
-4.759 
n/a 
n/a 
n/a 
n/a 
-4.759 
n/a 
n/a 
n/a 
n/a 
-4.468 0 -4.8505 -6.35 0 -5.1645 0 
-4.468 -4.8505 -11.5095 -6.35 -5.1645 -5.1645 
-9.517501 -11.5095 -11.5095 -11.9819 -5.1645 
-16.2697 -11.5095 -17.1414 -11.9819 
-16.2697 -17.1414 -17.1414 
-4.468 0 -4.8505 -6.863 0 -5.1645 0 
-4.468 -4.8505 -12.0225 -6.863 -5.1645 -5.1645 
-9.517501 -12.0225 -12.0225 -11.046 -5.1645 
-16.7827 -12.0225 -16.2055 -11.046 
-16.7827 -16.2055 -16.2055 
-4.468 0 -4.448 -6.863 0 -5.1645 0 
-4.468 -4.448 -10.1185 -6.863 -5.1645 -5.1645 
-8.908001 -10.1185 -10.1185 -11.046 -5.1645 
-14.7361 -10.1185 -15.2535 -11.046 
-14.7361 -15.2535 -15.2535 
-4.468 0 -5.413 -6.863 0 -5.1645 0 
-4.468 -5.413 -12.7468 -6.863 -5.1645 -5.1645 
-10.4035 -12.7468 -12.7468 -11.046 -5.1645 
-17.7373 -12.7468 -16.9298 -11.046 
-17.7373 -16.9298 -16.9298 
