-4.759 
n/a 
n/a 
n/a 
n/a 
-4.759 
n/a 
n/a 
n/a 
n/a 
-4.759 
n/a 
n/a 
n/a 
n/a 
-4.759 
n/a 
n/a 
n/a 
n/a 
-3.1015 -2.3335 -4.0135 -1.7565 -3.7545 -5.299 
-4.789 -5.4345 -4.201 -6.319 -6.6075 
-8.406 -5.4685 -7.193 -9.7215 
-8.4115 -8.238 -10.034 
-10.5745 -11.0554 
-3.8825 -3.6175 -2.4945 -3.1015 -4.5715 
-6.779 -5.6085 -4.616 -7.094 
-8.34 -8.0445 -7.518001 
-10.459 -11.3709 
-13.9136 
-3.6175 -2.4945 -4.978 -5.42 
-5.6085 -9.0965 -9.897 
-13.0463 -14.1277 
-18.0775 
n/a 
-3.1495 -3.6175 -2.4945 -4.854 -3.1015 0 
-5.447001 -5.6085 -7.549 -8.881001 -3.1015 
-6.5465 -8.7985 -9.747001 -8.881001 
-10.513 -10.7575 -9.747001 
-12.472 -10.7575 
