-4.759 
n/a 
n/a 
n/a 
n/a 
-4.759 
n/a 
n/a 
n/a 
n/a 
-4.759 
n/a 
n/a 
n/a 
n/a 
-4.759 
n/a 
n/a 
n/a 
n/a 
-5.1845 -6.844 -5.3745 -4.257 0 
-6.9655 -8.695001 -6.5625 -4.257 
-8.7215 -10.368 -6.5625 
-10.3815 -10.368 
-10.3815 
-5.1845 -6.844 -5.3745 -4.257 0 -6.7275 0 
-6.9655 -8.695001 -6.5625 -4.257 -6.7275 -6.7275 
-8.7215 -10.368 -6.5625 -10.7335 -6.7275 
-10.3815 -10.368 -13.703 -10.7335 
-10.3815 -17.5085 -13.703 
-5.1845 -6.844 -4.631 -4.257 
-6.9655 -12.4136 -9.2725 
-12.7045 -17.0551 
-17.346 
n/a 
-5.1845 -6.844 -5.3745 -4.257 0 -6.7275 0 
-6.9655 -8.695001 -6.5625 -4.257 -6.7275 -6.7275 
-8.7215 -10.368 -6.5625 -10.7335 -6.7275 
-10.3815 -10.368 -13.703 -10.7335 
-10.3815 -17.5085 -13.703 
