-4.759 
n/a 
n/a 
n/a 
n/a 
-4.759 
n/a 
n/a 
n/a 
n/a 
-4.759 
n/a 
n/a 
n/a 
n/a 
-4.759 
n/a 
n/a 
n/a 
n/a 
-7.2145 -3.152 -5.2725 -1.934 -1.4985 -3.8275 -1.7565 -5.2885 0 
-9.052501 -6.7755 -6.51 -2.6125 -4.726 -5.4695 -6.3275 -5.2885 
-12.723 -7.576 -7.0635 -5.815001 -6.01 -10.085 -6.3275 
-13.5235 -8.0245 -8.974501 -6.858 -10.281 -10.085 
-13.972 -9.9125 -9.6895 -11.3278 -10.281 
-7.2145 -2.7415 -5.2725 -1.934 -8.72 -3.8275 
-9.901001 -6.396 -6.51 -10.575 -12.8511 
-13.6195 -7.1315 -15.937 -14.7061 
-14.355 -16.8987 -20.0681 
-24.1222 -21.0298 
-7.2145 -3.966 -1.4985 -4.3685 -3.9205 -2.5045 -1.4985 0 -4.3685 -1.7565 -5.2885 0 0 
-10.634 -5.435 -5.106 -8.574 -4.449 -3.583 -1.4985 -4.3685 -5.0855 -6.3275 -5.2885 0 
-12.103 -7.351 -9.164001 -8.717 -5.019001 -3.583 -5.106 -5.0855 -8.1225 -6.3275 -5.2885 
-14.019 -11.734 -9.3805 -8.9785 -5.019001 -7.061501 -5.569 -8.1225 -8.1225 -6.3275 
-18.402 -11.9505 -9.709001 -8.9785 -7.785501 -7.487 -8.3085 -8.1225 -8.1225 
-7.2145 -3.966 -1.4985 -3.8275 -1.7565 -9.002501 0 
-10.634 -5.435 -4.726 -5.4695 -10.7335 -9.002501 
-12.103 -7.1485 -6.01 -15.7487 -10.7335 
-13.8165 -8.803 -16.6732 -15.7487 
-15.471 -19.426 -16.6732 
