-4.759 
n/a 
n/a 
n/a 
n/a 
-4.759 
n/a 
n/a 
n/a 
n/a 
-4.759 
n/a 
n/a 
n/a 
n/a 
-4.759 
n/a 
n/a 
n/a 
n/a 
-5.891 -3.2 -2.186 -1.4985 -3.9005 -2.0935 -1.4985 -4.1865 -3.564 -4.4675 0 
-6.864 -4.7335 -3.339 -4.797 -6.5135 -2.9725 -5.177 -7.622 -8.025001 -4.4675 
-8.1545 -6.109 -6.4005 -8.3585 -7.777 -6.746 -8.4655 -12.7758 -8.025001 
-9.339001 -8.870001 -9.136001 -9.222 -11.8737 -10.281 -13.8663 -12.7758 
-12.1638 -11.8225 -10.0645 -13.3601 -15.4087 -15.6818 -13.8663 
-4.273 -4.2655 -1.7565 -3.564 -3.473 -5.2495 -3.9005 -4.1375 0 
-9.0985 -6.026 -4.801 -7.195001 -9.811001 -10.27 -8.0635 -4.1375 
-11.1244 -9.4905 -10.31 -14.5422 -14.8531 -14.433 -8.0635 
-14.5889 -15.1173 -17.6572 -19.5843 -19.0161 -14.433 
-20.2157 -22.4645 -22.6993 -23.7473 -19.0161 
-5.891 -3.2 -1.934 -3.8735 -2.186 -1.4985 -3.918 -2.0935 -2.5685 -3.564 -3.354 -2.925 
-6.864 -4.9415 -4.885 -5.949 -3.339 -4.8715 -5.5555 -3.987 -6.412 -7.9095 -4.3775 
-7.931 -7.481501 -6.6635 -7.04 -6.5325 -6.561501 -7.370501 -7.5845 -11.3079 -8.688 
-8.404 -8.739 -7.871 -10.733 -7.4975 -8.1245 -10.757 -12.8364 -12.0864 
-9.6815 -9.961 -11.5226 -11.698 -8.658501 -11.631 -16.0089 -13.6149 
-3.4005 -4.4565 -1.7695 -3.277 -3.402 -3.893 -2.3615 -3.9455 
-7.6315 -4.9325 -4.619 -6.6875 -4.995 -5.835 -6.699 
-7.8125 -8.0225 -7.7735 -8.0305 -7.0005 -9.305 
-11.3011 -11.4658 -8.824 -9.838 -10.0375 
-14.7444 -12.5163 -11.0167 -12.9926 
