-4.759 
n/a 
n/a 
n/a 
n/a 
-4.759 
n/a 
n/a 
n/a 
n/a 
-4.759 
n/a 
n/a 
n/a 
n/a 
-4.759 
n/a 
n/a 
n/a 
n/a 
-1.934 -4.686 -3.433 -1.7565 -1.4985 -4.101 -3.8275 -1.934 -8.4635 0 -1.4985 -3.5645 -4.6165 -4.686 -1.934 -3.75 -1.756 -3.641 -8.4635 -3.325 -1.4985 -4.4525 -1.7565 -3.8735 -3.7555 -6.3195 -1.756 -1.4985 -3.641 -8.4635 -4.3195 -2.664 -4.015 -3.59 -3.849 -4.756 0 
-5.8635 -8.342501 -4.1845 -2.4195 -4.997 -7.710001 -5.2615 -9.752001 -8.4635 -1.4985 -4.884 -7.2755 -9.8055 -6.1685 -5.3465 -5.1985 -5.3625 -13.2841 -12.1905 -3.898 -5.199 -5.1195 -5.112 -8.014501 -8.763 -7.972501 -3.0405 -4.644 -13.2841 -13.185 -5.769 -4.926 -7.071501 -7.2185 -9.0115 -4.756 
-8.837501 -8.876 -4.6515 -5.646501 -8.444 -9.054501 -14.1639 -9.752001 -10.7025 -4.884 -8.545501 -12.8595 -10.6915 -8.227 -6.8455 -5.936501 -15.5326 -17.0111 -12.7635 -5.7135 -5.311501 -8.828001 -9.328 -13.2264 -9.736 -9.349501 -6.0315 -14.9011 -18.0056 -14.6345 -7.19 -7.4245 -9.673 -10.019 -9.0115 
-9.249001 -9.349001 -8.1505 -9.562 -9.7045 -17.9595 -14.1639 -11.991 -14.088 -8.545501 -14.3691 -13.7455 -12.75 -9.992001 -7.4515 -16.3976 -19.2596 -17.5841 -14.579 -5.9645 -9.168501 -13.4172 -14.6189 -14.1994 -11.2386 -12.3943 -16.5114 -19.6226 -19.4551 -16.0555 -8.476501 -9.781 -12.5645 -10.019 
-9.835 -12.912 -11.8824 -10.3975 -18.6297 -17.9595 -16.4029 -15.3765 -17.7495 -14.3691 -15.2551 -15.804 -14.515 -10.0655 -18.2696 -20.1246 -19.8326 -19.3996 -14.83 -10.181 -13.8105 -18.7081 -15.5919 -15.702 -14.2834 -22.8742 -21.2329 -21.0721 -20.8761 -17.342 -11.1244 -12.6711 -12.5645 
-3.2615 -1.4985 -4.058 -3.8275 -4.2725 -3.458 -1.4985 -3.75 -1.756 -3.641 -3.5645 -4.6165 -3.468 -1.7565 -4.4935 0 -3.75 -4.4935 -2.7415 -4.3215 -2.5045 -1.8085 -4.2775 -3.59 -4.281 -4.756 -3.325 -1.4985 -5.0765 -1.7565 -3.8735 0 
-4.032 -5.0995 -4.954 -8.493501 -7.752 -4.063 -4.8715 -5.1985 -5.3625 -8.0175 -7.2755 -8.389001 -4.7385 -5.805 -4.4935 -3.75 -7.070001 -7.0295 -5.758 -6.389 -3.3625 -4.8285 -7.607 -7.895 -9.4335 -8.148001 -3.898 -6.290501 -6.665 -5.112 -3.8735 
-6.752501 -5.56 -9.444 -12.3546 -8.627501 -7.250501 -5.991 -5.936501 -10.228 -12.3763 -11.443 -9.469001 -9.231501 -5.805 -8.019 -7.070001 -8.866 -9.978001 -7.098001 -7.372001 -5.875 -7.7015 -12.423 -10.335 -12.9687 -8.775001 -9.318 -7.068501 -10.6095 -5.112 
-6.794001 -9.8105 -13.5213 -13.2301 -11.994 -7.427001 -6.509501 -10.5225 -14.5868 -16.5438 -12.523 -14.2638 -9.231501 -8.9025 -9.1575 -8.866 -11.8501 -11.5134 -7.9045 -10.028 -8.623 -12.7077 -14.863 -13.8702 -13.5957 -14.3488 -10.017 -11.1654 -10.6095 
-11.2889 -13.976 -14.3968 -16.5966 -12.1705 -7.708001 -11.5349 -14.8813 -18.7543 -17.6238 -17.3178 -14.2638 -12.6324 -10.147 -10.3965 -11.8501 -13.3855 -12.3199 -10.597 -12.776 -13.5622 -15.1477 -18.3982 -14.4972 -19.1695 -15.0478 -14.0403 -11.1654 
-1.934 -4.686 0 -4.101 -3.8275 -5.145 -2.9905 -3.458 -1.4985 -4.794 -3.873 -3.7345 -1.7565 -3.641 -1.756 -3.75 -4.4935 -3.321 -2.264 -3.8735 -2.229 -4.717 -3.75 -4.4935 -4.3195 -4.015 -3.59 -3.849 -4.756 0 
-5.8635 -4.686 -4.101 -7.710001 -8.7285 -6.651501 -6.3985 -4.063 -6.842501 -9.054001 -7.704 -5.555 -5.457 -5.511001 -5.571 -7.070001 -8.01 -5.636 -6.4265 -5.3655 -6.6175 -9.4045 -7.070001 -8.219 -7.0655 -7.071501 -7.2185 -9.0115 -4.756 
-5.8635 -8.609 -7.710001 -13.0676 -9.856501 -9.9505 -7.0165 -8.601501 -10.434 -13.3514 -9.389 -10.2535 -7.513501 -6.751 -8.718 -10.022 -10.048 -10.2805 -7.026 -9.233 -11.729 -12.9247 -9.179001 -9.2185 -10.177 -9.673 -10.019 -9.0115 
-10.2699 -13.0808 -13.0676 -14.1956 -13.2469 -10.4465 -11.744 -12.362 -14.7314 -15.0364 -14.1781 -12.31 -8.215501 -9.172501 -11.9064 -12.06 -14.9923 -10.88 -11.2637 -14.5891 -15.2492 -15.0337 -10.1725 -12.379 -12.7785 -12.5645 -10.019 
-14.7417 -18.4384 -14.1956 -17.586 -13.7429 -15.174 -15.5045 -16.6594 -16.4164 -19.8255 -16.2346 -13.012 -10.1105 -12.4635 -13.9444 -17.0043 -15.5918 -15.1177 -16.6198 -18.1093 -17.3582 -16.0272 -13.333 -14.9805 -15.67 -12.5645 
-1.934 -4.686 -3.8735 -5.7095 -1.4985 -3.8275 -3.458 -1.4985 -7.906 -3.873 -1.7565 -3.641 -1.756 -3.75 -4.4935 -1.756 -4.839 -1.4985 -3.3755 -1.7695 -3.5185 -1.4985 -3.046 -3.59 -2.5045 -4.756 
-5.8635 -8.513 -10.071 -6.731501 -4.726 -6.105 -4.063 -9.138 -12.229 -5.197001 -5.457 -5.511001 -5.571 -7.070001 -5.977 -6.176 -6.16 -4.057 -3.992 -4.134 -4.9765 -4.5205 -6.559501 -5.8175 -7.589001 
-9.396501 -15.1865 -11.2008 -10.3658 -6.6875 -6.535501 -11.9873 -13.692 -13.553 -9.0485 -7.513501 -6.751 -8.718 -8.263 -10.4675 -7.161 -9.107 -5.0925 -6.1585 -5.28 -8.639 -8.521 -8.783001 -10.0815 
-16.1758 -16.3163 -14.8351 -12.3273 -6.977 -15.18 -16.5413 -15.016 -17.4045 -11.4398 -8.215501 -9.172501 -10.19 -12.8675 -11.4525 -10.044 -10.2595 -7.721001 -7.599501 -8.863001 -12.8691 -10.9639 -13.1884 
-17.3056 -19.9506 -16.7966 -12.6168 -15.9663 -19.734 -17.8653 -18.8675 -19.7958 -12.1418 -10.1105 -10.758 -14.7945 -13.8525 -14.3355 -11.2109 -12.888 -8.818501 -11.3679 -13.1857 -15.312 -15.3693 
