-4.759 
n/a 
n/a 
n/a 
n/a 
-4.759 
n/a 
n/a 
n/a 
n/a 
-4.759 
n/a 
n/a 
n/a 
n/a 
-4.759 
n/a 
n/a 
n/a 
n/a 
-4.1395 0 -3.9205 -3.9225 -8.006001 -5.6645 
-4.1395 -3.9205 -6.835501 -13.1583 -14.0745 
-8.4025 -6.835501 -16.2569 -19.2268 
-12.1717 -16.2569 -22.3254 
-21.5931 -22.3254 
-3.7855 0 -4.676 -2.9705 -2.4945 -3.264 -1.7695 -2.489 -4.969 -4.676 
-3.7855 -4.676 -6.681 -4.302 -5.985001 -4.908 -3.1405 -7.8075 -7.388 
-9.514501 -6.681 -7.504 -7.453001 -6.057 -5.5165 -8.309501 -10.0345 
-11.5927 -7.504 -11.036 -7.495 -6.361001 -10.0095 -10.071 
-12.4157 -11.036 -11.078 -7.895 -10.9064 -11.9042 
-3.74 0 -4.969 -4.676 
-3.74 -4.969 -7.388 
-9.071001 -7.388 
-12.1046 
n/a 
-3.7855 0 -4.676 -2.9705 -2.4945 -3.264 -1.7695 -2.489 -4.969 -4.5675 0 
-3.7855 -4.676 -6.681 -4.302 -5.985001 -4.908 -3.1405 -7.8075 -7.2465 -4.5675 
-9.514501 -6.681 -7.504 -7.453001 -6.057 -5.5165 -8.309501 -10.295 -7.2465 
-11.5927 -7.504 -11.036 -7.495 -6.361001 -10.0095 -11.0752 -10.295 
-12.4157 -11.036 -11.078 -7.895 -10.9064 -12.9084 -11.0752 
