-4.759 
n/a 
n/a 
n/a 
n/a 
-4.759 
n/a 
n/a 
n/a 
n/a 
-4.759 
n/a 
n/a 
n/a 
n/a 
-4.759 
n/a 
n/a 
n/a 
n/a 
-7.4075 -6.0705 -3.8495 -2.186 -4.0995 -3.8495 -2.0935 -4.373 0 
-14.3804 -6.45 -5.6985 -6.792001 -7.8265 -5.291 -6.4835 -4.373 
-14.7599 -8.5485 -10.494 -11.101 -9.874001 -9.863 -6.4835 
-16.8584 -13.5082 -15.283 -13.1485 -14.4644 -9.863 
-21.8181 -18.2972 -17.3305 -17.7389 -14.4644 
-5.876 -4.174 -3.9845 -3.774 0 -4.373 -2.186 -4.0995 -3.774 
-8.748001 -6.851501 -8.9165 -3.774 -4.373 -6.352 -6.792001 -5.912 
-12.4053 -12.9299 -8.9165 -7.821001 -6.352 -11.4858 -10.0475 
-18.4837 -12.9299 -13.0501 -10.7824 -11.4858 -14.7413 
-18.4837 -17.0635 -16.0115 -15.9162 -14.7413 
-2.3615 -3.2795 -2.186 -3.849 -2.5045 -6.0705 -3.8495 
-4.9565 -5.099 -4.8565 -6.305 -8.788 -6.45 
-6.0255 -7.539001 -7.104 -12.6921 -9.909 
-8.4715 -10.3675 -13.6209 -13.8131 
-11.5154 -16.8844 -14.7419 
-6.0705 -3.8495 -5.0075 -2.186 -1.8085 -6.696 -2.9705 -3.6845 -3.8495 -1.7695 -1.4985 -5.228 
-6.45 -8.373001 -7.3275 -3.164 -9.634001 -10.145 -6.2615 -8.3795 -5.648 -2.7955 -5.679501 
-10.674 -10.8016 -8.625 -10.337 -11.747 -14.069 -11.2221 -10.082 -6.9515 -6.882501 
-13.1026 -12.0991 -16.305 -13.3779 -16.1717 -19.2076 -12.9246 -10.4405 -9.9245 
-14.4001 -19.7791 -18.9949 -17.5162 -21.2065 -20.9101 -13.2831 -13.4135 
