-4.759 
n/a 
n/a 
n/a 
n/a 
-4.759 
n/a 
n/a 
n/a 
n/a 
-4.759 
n/a 
n/a 
n/a 
n/a 
-4.759 
n/a 
n/a 
n/a 
n/a 
-2.3615 -5.481 -4.7035 -2.5685 -3.873 -1.756 -4.1115 0 
-7.8085 -9.857 -7.122001 -6.541 -5.114 -5.7375 -4.1115 
-12.5553 -12.2755 -11.9175 -7.7265 -6.448 -5.7375 
-14.9738 -17.071 -13.103 -8.898001 -6.448 
-19.7693 -18.2565 -14.2745 -8.898001 
-2.3615 -4.502 -2.186 -4.504 -1.4985 -4.7505 -1.756 -5.0895 0 
-7.044001 -6.2555 -5.6115 -6.0605 -5.934 -5.869 -6.592 -5.0895 
-7.862 -9.55 -7.87 -10.9372 -7.068 -8.3925 -6.592 
-11.4529 -11.7709 -13.3225 -12.0712 -9.187 -8.3925 
-13.6738 -17.2234 -14.4565 -14.1902 -9.187 
-3.995 0 -4.1115 -2.5685 -2.4945 -5.603 -2.264 -2.3335 -4.8155 -3.098 0 
-3.995 -4.1115 -7.1645 -5.3665 -9.792 -8.557 -4.6785 -8.4075 -7.948 -3.098 
-7.51 -7.1645 -9.3585 -12.854 -12.8022 -11.3757 -11.2121 -11.9118 -7.948 
-11.472 -9.3585 -16.96 -15.8642 -15.6209 -17.9093 -14.7164 -11.9118 
-13.666 -16.96 -19.9702 -18.6829 -22.1545 -21.4136 -14.7164 
-3.873 -1.756 -4.3355 -2.4945 -4.3865 -1.934 -2.3615 -4.502 -3.098 
-5.114 -5.956 -7.226501 -5.93 -4.738501 -3.539 -7.044001 -7.740001 
-7.469 -8.478001 -10.6095 -6.0545 -5.426001 -8.062 -10.181 
-9.349501 -12.013 -10.667 -7.361001 -11.0258 -11.937 
-13.0171 -12.0705 -12.3203 -13.0074 -14.9008 
