-4.759 
n/a 
n/a 
n/a 
n/a 
-4.759 
n/a 
n/a 
n/a 
n/a 
-4.759 
n/a 
n/a 
n/a 
n/a 
-4.759 
n/a 
n/a 
n/a 
n/a 

n/a 
n/a 
n/a 
n/a 
-4.6795 -3.594 -1.756 -4.6795 -4.502 -1.934 -4.578 -2.4945 -5.552 -1.7565 -4.3665 
-5.801 -4.8265 -6.539 -8.9135 -6.054 -6.103 -6.4755 -8.2075 -6.881 -5.4475 
-6.8435 -7.964 -9.6675 -10.061 -9.097501 -8.573 -12.7429 -8.790501 -11.2154 
-8.4805 -12.3239 -10.8602 -13.5491 -11.4365 -14.9724 -13.3259 -13.3663 
-12.7018 -13.5166 -14.3483 -15.8881 -17.8359 -15.5554 -17.9017 
-1.934 -4.378 -4.6795 -9.200001 -1.756 -4.6795 -3.594 -3.152 -4.3665 -4.26 
-6.633 -7.803 -15.1555 -10.9315 -6.539 -5.801 -6.3275 -7.6 -8.632501 
-9.7995 -19.0334 -16.887 -15.7145 -7.3435 -8.238501 -11.3613 -12.2066 
-21.4331 -20.7649 -21.67 -16.519 -9.199 -13.4515 -15.9679 
-23.1646 -25.5479 -22.4745 -18.3745 -14.6856 -18.0581 
-2.9805 -4.378 -4.6795 -4.672 -1.756 -1.4985 -4.6795 -3.452 -2.4945 -3.5155 -5.214 -4.952 0 
-9.1505 -7.803 -6.0755 -6.225501 -3.0405 -5.83 -5.383 -6.1965 -5.238501 -7.316 -8.39 -4.952 
-12.6879 -8.1925 -7.8155 -7.209001 -7.521501 -6.489 -8.861 -8.741 -8.947001 -12.5245 -9.101501 
-13.0774 -9.563001 -8.925 -9.958501 -8.204 -9.344501 -10.1425 -10.2705 -12.2305 -10.1635 
-14.4479 -10.0455 -10.0475 -10.0515 -10.034 -10.1555 -10.1775 -11.363 -10.164 
