-4.759 
n/a 
n/a 
n/a 
n/a 
-4.759 
n/a 
n/a 
n/a 
n/a 
-4.759 
n/a 
n/a 
n/a 
n/a 
-4.759 
n/a 
n/a 
n/a 
n/a 
-4.447 0 -8.404 -8.009001 -10.105 0 -5.1645 0 
-4.447 -8.404 -16.72 -18.7694 -10.105 -5.1645 -5.1645 
-13.2204 -16.72 -27.4804 -18.7694 -15.2695 -5.1645 
-21.5364 -27.4804 -27.4804 -23.9339 -15.2695 
-32.2968 -27.4804 -32.6449 -23.9339 
-4.447 0 -9.689501 -12.16972 
-4.447 -9.689501 -22.13182 
-14.5059 -22.13182 
-26.94822 
n/a 
-4.4245 0 -8.89 -8.265 -7.844 
-4.4245 -8.89 -17.4906 -16.7262 
-13.6819 -17.4906 -25.9518 
-22.2825 -25.9518 
-30.7437 
-4.447 0 -6.7375 -8.265 -8.585 0 -5.1645 0 
-4.447 -6.7375 -15.6227 -17.4672 -8.585 -5.1645 -5.1645 
-11.5539 -15.6227 -24.8249 -17.4672 -14.1417 -5.1645 
-20.4391 -24.8249 -24.8249 -23.0239 -14.1417 
-29.6413 -24.8249 -30.3816 -23.0239 
