-4.759 
n/a 
n/a 
n/a 
n/a 
-4.759 
n/a 
n/a 
n/a 
n/a 
-4.759 
n/a 
n/a 
n/a 
n/a 
-4.759 
n/a 
n/a 
n/a 
n/a 
-3.135 -1.7565 -1.4985 -3.5905 -3.4005 -4.328 -2.4945 -4.06 -1.934 -6.3215 0 
-3.9195 -2.4195 -4.435 -8.037001 -6.021 -5.9755 -5.1305 -4.483 -7.453 -6.3215 
-4.168 -5.288001 -8.834001 -10.9741 -7.5805 -8.1675 -5.5445 -9.726001 -7.453 
-6.7815 -9.4545 -12.0073 -12.5336 -9.663501 -8.51 -11.0441 -9.726001 
-11.1962 -12.8168 -13.5668 -14.6166 -9.9175 -14.0654 -11.0441 
-3.135 -4.1955 -4.1135 -3.9245 -2.4945 -4.99 -1.934 -6.3215 
-6.815001 -7.523001 -6.8545 -6.9315 -6.2325 -5.477 -7.453 
-10.0545 -10.7826 -9.961 -10.223 -6.736001 -10.115 
-13.5101 -13.8891 -13.2525 -10.655 -11.4462 
-16.6166 -17.1806 -13.6845 -15.3652 
-3.135 -4.2235 -4.536 -2.4945 -3.8825 -1.934 -6.3215 0 -3.5015 0 
-6.8125 -9.838 -6.476 -5.478001 -4.9695 -7.453 -6.3215 -3.5015 -3.5015 
-12.9916 -11.8344 -10.2645 -5.959001 -10.9999 -7.453 -10.8215 -3.5015 
-14.988 -15.6229 -10.7455 -12.2612 -10.9999 -12.3982 -10.8215 
-18.7765 -16.1039 -17.0477 -12.2612 -15.9451 -12.3982 
-3.135 -3.5905 -9.119 -4.328 -2.4945 -4.99 -1.934 -6.3215 0 
-5.9425 -13.4947 -13.6196 -5.9755 -6.2325 -5.477 -7.453 -6.3215 
-16.3559 -17.9953 -15.2671 -9.205501 -6.736001 -10.115 -7.453 
-20.8565 -19.6428 -18.4971 -9.627501 -11.4462 -10.115 
-22.504 -22.8728 -18.9191 -14.2583 -11.4462 
