-4.759 
n/a 
n/a 
n/a 
n/a 
-4.759 
n/a 
n/a 
n/a 
n/a 
-4.759 
n/a 
n/a 
n/a 
n/a 
-4.759 
n/a 
n/a 
n/a 
n/a 
-2.3085 -3.8055 -1.8085 -3.452 -3.6845 -1.4985 -3.568 -2.9705 -2.7415 -3.757 -4.6585 -3.115 -1.8085 -5.603 -3.6385 
-5.2305 -5.0005 -4.787 -7.4145 -4.7485 -4.649 -6.3395 -4.512 -5.376 -8.261001 -7.2745 -4.2095 -6.456 -7.306 
-6.259 -7.916501 -8.026501 -8.9335 -7.3125 -7.162 -7.6725 -7.336 -9.040001 -10.5035 -7.870501 -7.469501 -7.682 
-9.153501 -12.0398 -10.4425 -11.5669 -9.8985 -8.3765 -10.1815 -11.1794 -11.5833 -11.0995 -10.2755 -8.314501 
-13.302 -14.4558 -13.0759 -14.1529 -11.1884 -11.0829 -14.0249 -13.7227 -12.1793 -13.5045 -11.1205 
-1.8085 -3.568 -1.934 -2.857 -2.8195 -2.7415 -5.4785 -3.115 -1.8085 -5.603 -1.756 -3.0415 -2.3085 -4.4725 -1.8085 -3.452 -3.325 -1.4985 -4.7055 
-5.1135 -5.48 -4.104 -5.166 -6.028501 -6.9545 -7.6765 -4.2095 -6.456 -7.647 -4.454 -4.208 -5.7645 -6.137001 -4.787 -6.9825 -3.898 -5.9095 
-6.4745 -7.545 -6.148 -7.5195 -9.3765 -8.314501 -7.881001 -7.469501 -8.655001 -9.901501 -5.8205 -7.1155 -7.3145 -8.707001 -8.0625 -7.5265 -8.408501 
-8.14 -9.5515 -8.847 -9.397 -12.0131 -8.462501 -11.8888 -10.5325 -10.9805 -11.786 -8.601501 -8.887 -9.8695 -12.5755 -8.5235 -12.4704 
-10.459 -12.4847 -10.9019 -12.9552 -12.1611 -12.8283 -14.9518 -12.858 -12.865 -14.567 -10.434 -11.5182 -13.7408 -13.0365 -13.7502 
0 -3.6055 -2.95 -2.3615 -3.8255 -4.1465 -1.934 -3.8605 -5.9875 -4.372 -1.934 -2.857 -3.568 -2.3085 -3.8055 -2.985 -3.452 -1.934 -2.857 -3.568 -4.7055 
-3.6055 -4.8985 -5.1805 -7.190001 -9.3675 -6.0425 -6.4335 -8.217 -10.696 -6.2735 -4.104 -6.4975 -5.79 -5.2305 -5.706501 -6.405 -5.2935 -4.104 -6.4975 -7.4675 
-4.8985 -7.027 -10.411 -12.953 -11.4749 -11.1346 -11.3145 -14.9943 -13.3415 -7.95 -7.942 -7.858 -8.732 -8.3 -9.344501 -8.318501 -7.147 -7.942 -10.389 
-7.027 -12.5969 -16.174 -15.0604 -16.567 -14.4101 -16.2322 -17.3114 -15.018 -12.435 -9.042001 -10.4945 -11.9055 -12.1816 -10.265 -9.6455 -11.4126 -12.1273 
-12.5969 -18.3599 -18.2814 -20.1525 -19.8425 -21.1163 -18.5159 -18.9879 -19.503 -13.535 -12.0033 -13.668 -15.7871 -13.1021 -11.592 -14.6105 -15.5979 
-2.857 -2.8195 -4.717 -2.4945 -3.757 -5.043 0 -2.4265 -4.1675 -3.115 -6.559 -8.157001 -3.6765 
-5.166 -8.013 -6.5695 -5.0075 -8.250501 -5.043 -2.4265 -4.8995 -4.664 -10.821 -15.4492 -12.3697 
-11.2941 -10.3183 -9.158501 -10.3618 -8.250501 -6.281 -4.8995 -5.1585 -12.891 -19.7112 -19.6619 
-13.5994 -12.9073 -14.6476 -10.3618 -9.887001 -10.0095 -5.1585 -13.5251 -21.7812 -23.9239 
-16.1884 -18.3964 -14.6476 -11.9983 -13.7411 -10.303 -13.5251 -22.4153 -25.9939 
