-4.759 
n/a 
n/a 
n/a 
n/a 
-4.759 
n/a 
n/a 
n/a 
n/a 
-4.759 
n/a 
n/a 
n/a 
n/a 
-4.759 
n/a 
n/a 
n/a 
n/a 
-3.995 -4.285 -4.35 -4.237 -2.742 -4.0195 -3.922 -1.934 -5.127 -5.222 0 -2.9705 -2.742 -4.7075 -1.4985 -13.7805 -3.518 -2.9705 -2.186 -4.3035 -2.0935 -4.2335 -1.756 -4.442 0 -5.1045 -3.7805 -3.3935 -5.4405 0 
-9.031501 -6.4325 -8.194 -6.9695 -5.431 -8.179001 -4.558 -6.7975 -9.6075 -5.222 -2.9705 -4.601501 -6.24 -5.6415 -13.631 -16.0585 -6.2165 -3.89 -5.1255 -5.4225 -6.3625 -5.316 -6.048 -4.442 -5.1045 -9.6745 -7.515 -7.809501 -5.4405 
-11.5172 -10.028 -11.5469 -8.432 -9.361 -8.585 -7.7675 -11.959 -9.6075 -8.7015 -4.601501 -7.941 -6.899 -13.0675 -13.8301 -15.3706 -6.825 -6.749001 -5.7605 -9.030001 -7.234 -6.904 -6.048 -9.377501 -9.6745 -13.409 -12.4288 -7.809501 
-15.1127 -13.8425 -13.0094 -12.6272 -9.5895 -11.8543 -13.4684 -11.959 -13.2716 -10.1855 -7.941 -8.292001 -14.9726 -17.7349 -16.8408 -16.0863 -9.556001 -7.105501 -9.408001 -9.702001 -8.91 -6.904 -11.3013 -14.8725 -13.409 -18.3228 -12.4288 
-18.9272 -15.305 -17.2046 -12.8557 -13.02 -17.5552 -13.4684 -15.6231 -14.7556 -13.525 -8.292001 -16.5932 -19.2132 -20.6794 -17.4493 -18.8173 -9.8065 -10.553 -10.0355 -11.5822 -8.91 -12.4205 -16.7963 -18.607 -18.3228 -18.3228 
-2.5045 -4.237 -4.507 -1.934 -1.4985 -4.7885 -3.7345 -1.7565 -3.995 0 -2.4265 -4.507 -1.4985 -4.6225 0 -4.7475 -1.934 -1.4985 -3.291 -4.4385 -3.748 -3.277 0 -13.7805 -2.9705 -2.186 -4.3035 -2.0935 -4.2335 -1.7695 -4.5055 -5.661 0 -5.2845 -1.934 -1.4985 -3.7345 
-6.692 -8.0985 -5.251 -2.6125 -5.282001 -5.866 -5.555 -5.423 -3.995 -2.4265 -6.2875 -5.318 -5.606501 -4.6225 -4.7475 -6.546 -2.6125 -3.9665 -8.544001 -6.581501 -5.8405 -3.277 -12.3565 -14.709 -3.89 -5.1255 -5.4225 -6.3625 -6.032 -4.9495 -9.83 -5.661 -5.2845 -6.03 -2.6125 -4.9965 
-9.3315 -9.7885 -6.014501 -6.3055 -7.474 -8.493 -9.199501 -5.423 -6.386 -6.2875 -6.693 -10.7175 -5.606501 -8.821001 -6.546 -7.170001 -4.871 -8.9165 -10.4425 -8.719001 -5.8405 -12.615 -10.627 -11.1715 -6.749001 -5.7605 -9.030001 -7.7385 -9.258 -10.0995 -9.83 -9.876501 -6.03 -6.791 -5.795 
-10.7585 -10.273 -9.708501 -8.263 -8.976001 -12.4007 -9.199501 -7.9465 -10.3675 -6.693 -12.3401 -10.7175 -9.737 -10.575 -7.170001 -9.232 -10.2535 -10.6875 -12.58 -8.719001 -14.3919 -14.7865 -11.1665 -13.292 -7.105501 -9.408001 -9.5625 -11.4549 -14.5328 -10.0995 -14.0455 -10.7098 -6.791 -9.6475 
-11.243 -13.967 -11.812 -9.922001 -13.0591 -12.4007 -11.8338 -12.004 -10.773 -12.3401 -12.3401 -14.848 -11.5054 -11.199 -9.232 -14.8079 -12.1283 -12.825 -12.58 -17.6146 -16.5634 -15.331 -13.292 -13.4445 -10.553 -9.890501 -13.4399 -16.7297 -14.5328 -14.315 -14.8788 -11.4708 -9.6475 
-1.934 -4.7615 -3.851 -1.7695 -3.922 -1.7565 -4.2485 -5.127 -5.6785 -2.742 -3.5015 0 -3.291 -4.4385 -3.748 -3.277 -3.3715 -3.699 -5.2735 -2.742 -4.209 0 -5.1045 -3.7805 -4.983 -2.6615 -6.493001 0 -2.742 -4.7075 0 
-6.4845 -9.159 -4.0015 -4.5985 -5.2335 -5.969 -8.536001 -11.9013 -8.8405 -6.162 -3.5015 -3.291 -8.544001 -6.581501 -5.8405 -6.3105 -6.1545 -8.6815 -7.522 -5.923 -4.209 -5.1045 -9.6745 -6.826 -7.702001 -9.471001 -6.493001 -2.742 -6.24 -4.7075 
-10.403 -9.289001 -7.359 -7.759 -8.029 -9.729 -15.5565 -15.0633 -12.3477 -6.162 -6.778501 -8.544001 -10.4425 -8.719001 -9.146501 -8.910501 -10.199 -10.6605 -11.3802 -5.923 -10.019 -9.6745 -12.72 -10.185 -15.1355 -9.471001 -9.269501 -6.24 -6.24 
-10.535 -12.8019 -8.288 -10.2865 -12.1136 -16.9497 -18.7185 -18.5705 -12.3477 -10.0035 -12.9715 -10.4425 -12.58 -12.3692 -11.8881 -13.27 -12.178 -14.5187 -11.3802 -12.7378 -14.589 -12.72 -16.079 -17.6185 -15.1355 -12.4605 -12.8751 -6.24 
-14.0479 -13.7309 -10.6465 -14.3711 -19.3343 -20.1117 -22.2257 -18.5705 -16.1892 -16.4579 -14.87 -12.58 -16.2302 -15.1108 -16.2476 -15.249 -16.0362 -14.5187 -18.195 -17.3078 -17.6345 -16.079 -23.5125 -17.6185 -18.125 -16.0661 -12.8751 
-2.5045 -1.4985 -4.2485 -1.7565 -1.4985 -4.7885 -5.201 -4.507 0 -1.4985 -5.3945 -5.127 -4.678 -4.507 -1.756 -1.934 -1.4985 -3.291 -4.4385 -3.748 -3.277 -1.4985 -4.3685 -4.2875 -5.1245 -3.989 -2.0935 -1.4985 -4.2335 0 -2.0935 -5.9865 -2.6615 -5.1385 0 -2.742 -4.7075 -1.934 -1.4985 -4.6985 0 
-3.583 -5.307 -5.5065 -2.4195 -5.282001 -9.995501 -9.962 -4.507 -1.4985 -6.802501 -9.669001 -8.6625 -8.902 -6.003 -4.0205 -2.6125 -3.9665 -8.544001 -6.581501 -5.8405 -4.839 -5.643001 -8.353001 -8.291 -9.778 -5.0175 -2.9725 -5.605 -4.2335 -2.0935 -7.399 -8.775001 -6.815001 -5.1385 -2.742 -6.24 -5.1835 -2.6125 -5.1995 -4.6985 
-6.8545 -5.982501 -5.9265 -6.1885 -10.1675 -14.9331 -9.962 -5.318 -6.802501 -11.2002 -13.5815 -13.4133 -10.293 -8.2705 -4.6845 -4.871 -8.9165 -10.4425 -8.719001 -7.409 -8.8125 -9.757001 -8.4505 -13.2181 -10.29 -5.791 -7.289501 -5.605 -6.0285 -7.399 -10.533 -13.4131 -6.815001 -8.1285 -6.24 -7.538 -5.8585 -5.99 -5.1995 
-7.739 -6.1565 -8.837001 -11.1886 -15.2323 -14.9331 -10.765 -10.6465 -11.2002 -15.1127 -18.3323 -14.8043 -12.5605 -8.978001 -6.9165 -10.2535 -10.6875 -12.58 -10.123 -10.717 -13.0999 -9.8135 -13.4848 -13.7301 -11.0635 -9.559501 -7.289501 -7.705 -9.106 -10.533 -15.1711 -13.4131 -9.8105 -11.8265 -7.538 -8.1995 -10.028 -5.99 
-7.867 -8.9805 -14.1983 -16.2534 -15.2323 -15.7361 -16.0935 -15.0442 -15.1127 -19.8635 -19.7233 -17.0718 -13.268 -11.3982 -12.4856 -12.1283 -12.825 -13.984 -13.7796 -15.0044 -13.1564 -14.8478 -13.9968 -14.5036 -14.832 -9.559501 -9.43 -10.403 -12.4584 -15.1711 -15.1711 -16.4086 -13.6283 -13.1245 -8.1995 -12.8702 -10.028 
