-4.759 
n/a 
n/a 
n/a 
n/a 
-4.759 
n/a 
n/a 
n/a 
n/a 
-4.759 
n/a 
n/a 
n/a 
n/a 
-4.759 
n/a 
n/a 
n/a 
n/a 
-4.685 -2.5195 -2.3615 -3.0365 -2.7415 -3.7375 -3.634 -3.908 -3.851 -1.7695 -2.3615 -4.031 0 
-5.093 -4.4095 -5.891 -4.2225 -7.925 -8.702001 -7.7155 -6.8035 -4.0015 -3.736 -5.4055 -4.031 
-6.587 -7.5235 -7.0295 -8.805 -13.1377 -13.0891 -10.9134 -6.814001 -6.14 -7.843 -5.4055 
-7.987501 -8.873 -11.798 -14.1477 -17.5248 -16.287 -10.9239 -9.571001 -7.929501 -7.843 
-9.3015 -13.6911 -17.1407 -18.5348 -20.7227 -16.2975 -13.6809 -11.4477 -7.929501 
-1.7565 -2.5685 -3.1495 -3.0365 -2.8645 -3.1125 -3.535 -3.535 -5.2015 -2.3335 -2.4945 -4.0035 -3.5015 -3.908 0 
-3.938 -4.8995 -6.811501 -4.989 -3.5345 -7.2285 -6.4245 -8.735001 -7.277501 -3.947 -5.3525 -5.3325 -7.6095 -3.908 
-6.100501 -8.406 -8.904501 -5.1195 -7.923501 -10.674 -12.2369 -10.316 -8.4925 -6.8885 -6.4675 -9.170501 -7.6095 
-9.2945 -10.335 -9.115001 -9.4005 -11.4994 -16.4864 -13.8179 -11.531 -10.2135 -7.151 -9.767 -9.170501 
-11.2425 -10.4535 -13.2612 -13.0794 -17.3118 -18.0674 -15.0329 -13.252 -10.2465 -10.7185 -9.767 
-4.685 -2.5195 -2.3335 -3.0365 -2.186 -3.535 -5.2015 -3.757 
-5.093 -4.9535 -4.2925 -3.66 -5.677 -8.735001 -8.906 
-6.458001 -7.434 -4.7505 -7.8475 -11.521 -12.6951 
-7.782501 -8.0165 -9.050501 -13.7099 -15.4811 
-8.345 -12.5321 -15.0259 -17.67 
-1.934 -3.458 -2.3615 -3.535 -5.2015 -3.074 -4.0705 -3.5015 
-5.207 -5.925 -5.8265 -8.735001 -8.383 -6.267 -5.208 
-7.257 -9.1675 -11.5029 -12.1721 -11.874 -7.4665 
-10.389 -14.9765 -14.94 -15.6631 -13.0735 
-16.198 -18.4136 -18.431 -16.8626 
