-4.759 
n/a 
n/a 
n/a 
n/a 
-4.759 
n/a 
n/a 
n/a 
n/a 
-4.759 
n/a 
n/a 
n/a 
n/a 
-4.759 
n/a 
n/a 
n/a 
n/a 
-3.7485 -3.6705 0 -3.672 -3.6885 -3.8135 -1.934 -3.135 -3.959 -2.4945 -4.07 -1.7695 -4.116 -1.8085 -4.2275 -3.402 -2.264 -4.1975 -4.5855 -1.7565 -1.8085 -3.6435 -4.9715 -1.7565 -1.8085 -4.144 -1.7565 -3.3935 -3.6505 0 -4.0955 -3.5005 -2.7455 -2.7035 -3.6505 -1.7565 -4.5295 -4.1445 -3.895 0 
-6.903 -3.6705 -3.672 -7.37 -6.305 -5.0835 -4.4015 -5.8285 -5.624 -5.139501 -4.3955 -5.3195 -5.025 -5.192 -6.948001 -3.793 -6.4355 -5.7355 -4.9095 -3.2595 -5.17 -7.7885 -5.005001 -3.2595 -4.7955 -5.067 -5.022501 -6.358 -3.6505 -4.0955 -7.589 -6.918 -5.54 -5.271 -4.7235 -6.5055 -8.272 -6.7025 -3.895 
-6.903 -7.665501 -7.37 -8.1385 -7.2445 -7.876501 -6.122001 -7.2255 -7.724 -5.194 -6.9345 -6.3355 -7.697001 -8.0415 -7.764501 -7.660501 -6.832 -5.8335 -5.9785 -6.513 -8.875501 -7.805 -5.830501 -6.4915 -5.159 -7.0025 -7.714001 -6.358 -7.391 -7.589 -10.757 -8.801001 -6.5365 -6.6285 -9.2005 -9.283 -9.127 -6.7025 
-10.757 -11.7315 -8.1385 -9.059 -10.4115 -9.255001 -8.007501 -9.6815 -7.739501 -7.547 -7.8865 -9.0705 -10.0405 -8.674001 -10.442 -8.42 -6.922501 -6.7485 -7.608 -10.092 -8.909 -8.5235 -7.985001 -6.773 -7.06 -8.217501 -7.714001 -10.328 -10.419 -10.757 -12.64 -10.3473 -8.252501 -9.6485 -9.505 -9.495001 -9.127 
-14.823 -12.5 -9.059 -12.4872 -11.79 -10.5645 -10.354 -9.7145 -9.9245 -8.573001 -10.485 -10.76 -10.1315 -11.5653 -10.481 -8.437 -8.417001 -8.1 -11.5468 -10.1865 -9.72 -9.726 -8.109501 -8.549001 -8.272501 -8.217501 -11.9242 -13.356 -13.587 -12.64 -14.1863 -12.0633 -11.4357 -9.744 -9.603001 -9.495001 
-6.9935 -3.2825 -4.681 -3.9795 0 -4.6695 -4.085 -3.9795 -1.756 -7.745 -4.6695 -3.9795 -2.0935 -8.267 -1.934 -1.4985 -3.8195 -1.7565 -7.377501 -1.934 -3.7485 0 
-7.788 -6.239501 -7.3555 -3.9795 -4.6695 -8.693501 -8.3605 -5.7275 -9.9615 -10.647 -7.987 -5.1125 -11.0805 -11.046 -2.6125 -4.771 -5.8865 -9.938001 -8.6085 -5.12 -3.7485 
-8.5445 -7.545501 -7.3555 -9.121 -8.693501 -10.173 -10.7575 -14.763 -12.8635 -13.9645 -9.4315 -14.8673 -13.8595 -11.7245 -5.7325 -6.9685 -14.8352 -11.169 -12.2473 -5.12 
-8.6085 -7.545501 -12.9066 -13.3986 -10.173 -12.6596 -19.793 -17.665 -16.181 -15.409 -19.3589 -17.6463 -14.538 -14.8445 -7.947001 -16.2812 -16.0662 -14.8078 -12.2473 
-8.6085 -13.2552 -17.1842 -14.8781 -12.6596 -21.6951 -22.695 -20.9825 -17.6255 -25.3364 -22.1379 -18.3248 -17.658 -17.059 -17.4313 -17.5122 -19.705 -14.8078 
-1.934 -1.4985 -8.991501 -6.705 -5.171 -3.7555 -6.9935 -3.2825 -4.681 -3.9795 0 -4.6695 -4.085 -3.9795 -1.756 -8.318001 -4.6695 -3.9795 -2.0935 -3.091 -3.6505 -1.934 -1.4985 -3.8195 -8.185 
-2.6125 -9.876 -15.9509 -7.959001 -8.989 -10.31 -7.788 -6.239501 -7.3555 -3.9795 -4.6695 -8.693501 -8.3605 -5.7275 -10.9315 -13.3375 -7.987 -5.1125 -4.5345 -6.72 -5.299 -2.6125 -4.771 -10.6345 
-10.4505 -16.941 -17.2049 -12.1134 -15.7709 -10.596 -8.5445 -7.545501 -7.3555 -9.121 -8.693501 -10.173 -10.7575 -15.733 -15.951 -16.655 -9.4315 -6.543 -7.7465 -7.901 -5.926 -5.7325 -12.0862 
-17.5155 -18.195 -21.3593 -18.8953 -16.0569 -11.3525 -8.6085 -7.545501 -12.9066 -13.3986 -10.173 -12.6596 -20.763 -20.7525 -19.2685 -18.0995 -10.649 -10.233 -8.8155 -8.521 -8.630501 -13.1635 
-18.7695 -22.3494 -28.1412 -19.1813 -16.8134 -11.4165 -8.6085 -13.2552 -17.1842 -14.8781 -12.6596 -22.6651 -25.7825 -24.07 -20.713 -19.317 -14.339 -11.302 -9.431001 -11.4107 -16.2391 
-3.7485 -2.9805 -5.939 -3.2825 -4.681 -3.9795 -1.7695 -5.227 -1.934 -10.0425 0 0 
-6.3505 -7.682001 -9.498501 -6.239501 -7.3555 -5.853001 -8.833 -6.109 -13.324 -10.884 0 
-11.8102 -11.5493 -12.4697 -7.545501 -8.9755 -13.3099 -10.2645 -17.7314 -13.8524 -10.884 
-15.6775 -14.5205 -13.7757 -9.1105 -16.6088 -14.7414 -21.8869 -17.7314 -13.8524 
-18.6487 -15.8265 -15.3407 -16.8236 -18.0403 -26.3638 -21.8869 -17.7314 
