-4.759 
n/a 
n/a 
n/a 
n/a 
-4.759 
n/a 
n/a 
n/a 
n/a 
-4.759 
n/a 
n/a 
n/a 
n/a 
-4.759 
n/a 
n/a 
n/a 
n/a 
-4.722 -4.4925 -1.756 -6.6755 -9.241501 -3.9535 -2.3615 
-6.9735 -5.864 -8.725 -16.5918 -13.3708 -5.943501 
-8.31 -13.8568 -18.8741 -20.7211 -15.3608 
-16.7998 -24.0059 -23.0034 -22.7111 
-26.9489 -28.1352 -24.9934 
-7.1765 -6.402 -1.756 -4.5145 -6.0375 -8.688001 -2.4265 
-14.2571 -7.927001 -6.103 -7.672 -15.5691 -10.802 
-15.7821 -12.75 -8.995001 -17.8184 -17.6831 
-20.6051 -15.642 -19.4518 -19.9324 
-23.4971 -26.0988 -21.5658 
-2.3615 -2.186 -3.584 -1.4985 -8.189 -7.08 -1.756 -6.585001 -6.0065 0 
-3.5005 -6.897 -5.0595 -10.4675 -15.8256 -8.765 -8.425501 -13.3519 -6.0065 
-8.7045 -8.257001 -14.5911 -18.1041 -17.5106 -15.5737 -15.713 -13.3519 
-10.513 -17.913 -22.2277 -19.7891 -24.3193 -22.8612 -15.713 
-20.169 -25.5496 -23.9127 -26.5978 -31.6068 -22.8612 
-4.722 -4.4925 -2.8645 -4.164 -4.278 -2.5045 0 -2.664 -4.299 -1.7695 -3.5185 -1.756 -4.839 -1.8085 -3.046 -4.571 -1.7565 -1.4985 -4.1925 -3.768 -3.6045 -1.7695 -3.6055 -3.7285 -3.6765 -2.264 -1.4985 -4.3305 -1.934 -2.985 -3.5205 -3.6885 
-6.9735 -6.909 -6.433001 -9.356001 -7.179501 -2.5045 -2.664 -5.186 -4.783 -4.134 -5.195 -5.5975 -6.313 -4.2695 -5.3015 -5.427 -2.4195 -4.4615 -6.187 -6.874001 -5.9615 -5.259501 -5.3355 -6.0335 -5.6835 -2.9195 -5.05 -6.2615 -4.111 -4.257 -6.3485 
-8.724 -9.684501 -9.673 -9.511001 -7.179501 -4.074 -5.186 -5.2565 -6.7005 -5.5695 -7.1775 -7.037001 -8.4125 -8.245501 -8.190001 -6.6 -5.5705 -6.238 -7.1935 -8.8 -8.682501 -6.908501 -6.7815 -7.6305 -6.162 -5.5515 -6.6725 -8.524 -5.3075 -6.722 
-9.998501 -9.969501 -9.675 -9.511001 -8.1125 -7.066 -5.2565 -7.1655 -8.137501 -7.471 -8.2775 -9.259501 -9.583 -8.955 -9.1245 -9.5365 -7.483001 -7.238501 -8.9655 -9.618501 -9.528501 -7.937 -7.882501 -8.040501 -7.2225 -7.401501 -8.803 -9.129001 -6.993 
-10.012 -9.974001 -9.675 -9.948 -9.927501 -7.145 -7.1655 -8.6635 -9.4875 -8.625 -9.5585 -9.6665 -9.673 -9.621 -9.566501 -9.6025 -7.837 -8.974001 -9.621 -9.629001 -9.6055 -8.878 -8.229501 -8.4445 -8.955 -9.0895 -9.3055 -9.4305 
