-4.759 
n/a 
n/a 
n/a 
n/a 
-4.759 
n/a 
n/a 
n/a 
n/a 
-4.759 
n/a 
n/a 
n/a 
n/a 
-4.759 
n/a 
n/a 
n/a 
n/a 
-3.228 -3.7825 -3.6905 -2.6165 -3.013 -2.688 -6.09 -3.895 -3.435 -2.742 -4.224 0 
-5.845 -6.4385 -6.8745 -5.317 -6.592501 -9.463 -10.9958 -7.4115 -5.692 -6.370501 -4.224 
-9.278 -10.3931 -10.76 -9.164001 -13.8253 -14.6358 -14.5123 -9.4995 -9.4195 -6.370501 
-13.5344 -14.2786 -14.607 -16.551 -18.9981 -18.1523 -16.6003 -13.8162 -9.4195 
-17.4199 -18.1256 -21.994 -21.7238 -22.5146 -20.2403 -20.917 -13.8162 

n/a 
n/a 
n/a 
n/a 
-4.269 -3.0695 -2.674 -2.6165 -3.754 -2.985 -6.143001 -3.435 -2.0935 -1.4985 -3.814 -2.543 -3.5785 -2.742 -2.489 -4.6225 0 
-5.369 -4.343 -4.447 -6.0125 -6.092 -7.173501 -6.132 -4.971 -2.9725 -4.198 -6.437 -4.89 -6.581501 -3.301 -5.521 -4.6225 
-6.2005 -5.7665 -7.486 -7.481501 -10.076 -9.05 -7.9315 -5.6335 -5.1435 -6.5335 -7.128 -8.5555 -7.013 -5.93 -5.521 
-7.517 -8.882501 -8.3745 -11.8297 -12.2535 -10.187 -8.927501 -8.365001 -7.0745 -7.16 -10.513 -9.160001 -9.2945 -5.93 
-11.1374 -9.064501 -12.5079 -14.1246 -14.1184 -11.3995 -11.991 -10.468 -8.085 -10.553 -11.1175 -11.4971 -9.2945 
-2.0935 -1.4985 -2.543 -3.5785 -3.4155 -3.127 -2.742 -2.489 -4.6225 
-2.9725 -5.1495 -4.89 -8.6975 -6.933001 -5.582 -3.301 -5.521 
-6.5185 -7.83 -10.4035 -12.5474 -9.172501 -5.7555 -5.93 
-8.805 -13.2159 -14.2534 -14.7869 -9.698501 -8.044001 
-14.4039 -17.0658 -16.4929 -15.3129 -12.2296 
