-4.759 
n/a 
n/a 
n/a 
n/a 
-4.759 
n/a 
n/a 
n/a 
n/a 
-4.759 
n/a 
n/a 
n/a 
n/a 
-4.759 
n/a 
n/a 
n/a 
n/a 
-3.915 -3.4605 -1.7565 -3.757 -2.229 -4.219 
-5.1545 -5.245501 -5.584 -4.946 -5.88 
-5.7 -9.2005 -7.2225 -8.4835 
-9.429501 -11.2498 -11.226 
-11.723 -15.2533 
-3.915 -3.4605 -2.0935 -4.445 -4.219 
-5.1545 -5.0435 -5.936501 -7.7035 
-6.2165 -10.1635 -9.295 
-12.0083 -13.522 
-15.3668 
-3.915 -3.4605 -1.7565 -3.757 -2.229 -4.219 
-5.1545 -5.245501 -5.584 -4.946 -5.88 
-5.7 -9.2005 -7.2225 -8.4835 
-9.429501 -11.2498 -11.226 
-11.723 -15.2533 
-1.4985 -3.915 -3.4605 -1.7565 -4.6535 -4.219 0 
-4.5295 -5.1545 -5.245501 -6.356501 -5.671 -4.219 
-5.748 -5.7 -10.5325 -7.8595 -5.671 
-5.9175 -11.4298 -12.3999 -7.8595 
-12.0361 -13.2972 -12.3999 
