-4.759 
n/a 
n/a 
n/a 
n/a 
-4.759 
n/a 
n/a 
n/a 
n/a 
-4.759 
n/a 
n/a 
n/a 
n/a 
-4.759 
n/a 
n/a 
n/a 
n/a 
-8.911501 -4.5315 0 -5.7865 0 0 -3.54 -4.114 0 0 -2.701 0 
-14.7245 -4.5315 -5.7865 -5.7865 0 -3.54 -6.679 -4.114 0 -2.701 -2.701 
-14.8635 -11.1165 -5.7865 -5.7865 -3.54 -6.679 -6.679 -4.114 -2.701 -2.701 
-21.4485 -11.1165 -5.7865 -10.468 -6.679 -6.679 -6.679 -7.928 -2.701 
-21.4485 -11.1165 -10.468 -13.607 -6.679 -6.679 -10.2865 -7.928 
-4.3285 0 -9.191 -12.16972 0 -5.7865 0 0 -4.789 -3.9825 0 0 -2.701 0 
-4.3285 -9.191 -22.06992 -12.16972 -5.7865 -5.7865 0 -4.789 -8.2805 -3.9825 0 -2.701 -2.701 
-13.8699 -22.06992 -22.06992 -17.95622 -5.7865 -5.7865 -4.789 -8.2805 -8.2805 -3.9825 -2.701 -2.701 
-26.74882 -22.06992 -27.85642 -17.95622 -5.7865 -11.7471 -8.2805 -8.2805 -8.2805 -8.172501 -2.701 
-26.74882 -27.85642 -27.85642 -17.95622 -11.7471 -15.2386 -8.2805 -8.2805 -12.7425 -8.172501 
-4.3285 0 -12.16972 -12.16972 0 -3.54 -4.1665 0 0 -2.701 0 
-4.3285 -12.16972 -24.33944 -12.16972 -3.54 -7.416 -4.1665 0 -2.701 -2.701 
-16.84862 -24.33944 -24.33944 -15.70972 -7.416 -7.416 -4.1665 -2.701 -2.701 
-29.01834 -24.33944 -27.87944 -19.58572 -7.416 -7.416 -8.009001 -2.701 
-29.01834 -27.87944 -31.75544 -19.58572 -7.416 -10.702 -8.009001 
-4.3285 0 -9.191 -12.16972 0 -5.7865 0 0 -3.54 -6.9375 -2.229 0 
-4.3285 -9.191 -22.06992 -12.16972 -5.7865 -5.7865 0 -3.54 -11.6019 -8.729 -2.229 
-13.8699 -22.06992 -22.06992 -17.95622 -5.7865 -5.7865 -3.54 -11.6019 -13.3934 -8.729 
-26.74882 -22.06992 -27.85642 -17.95622 -5.7865 -10.468 -11.6019 -13.3934 -13.3934 
-26.74882 -27.85642 -27.85642 -17.95622 -10.468 -18.5299 -13.3934 -13.3934 
