-4.759 
n/a 
n/a 
n/a 
n/a 
-4.759 
n/a 
n/a 
n/a 
n/a 
-4.759 
n/a 
n/a 
n/a 
n/a 
-4.759 
n/a 
n/a 
n/a 
n/a 
-3.3985 -3.13 0 -7.443501 -2.802 0 
-5.295 -3.13 -7.443501 -9.4145 -2.802 
-5.295 -10.4425 -9.4145 -9.4145 
-13.6131 -12.7971 -9.4145 
-15.9677 -12.7971 
-3.3985 -3.13 0 -9.469001 -2.802 0 
-5.295 -3.13 -9.469001 -12.6814 -2.802 
-5.295 -13.1218 -12.6814 -12.6814 
-16.2924 -16.3342 -12.6814 
-19.5048 -16.3342 
-3.3985 -3.13 0 -4.687 -2.802 0 
-5.295 -3.13 -4.687 -6.4115 -2.802 
-5.295 -8.144001 -6.4115 -6.4115 
-10.4425 -9.9175 -6.4115 
-10.7735 -9.9175 
-13.088 -2.802 
-15.3761 
n/a 
n/a 
n/a 
