-4.759 
n/a 
n/a 
n/a 
n/a 
-4.759 
n/a 
n/a 
n/a 
n/a 
-4.759 
n/a 
n/a 
n/a 
n/a 
-4.759 
n/a 
n/a 
n/a 
n/a 
-4.1035 -1.7565 -4.812 0 -4.1885 -1.756 -5.5105 -3.8625 -1.7565 -4.1885 
-5.0635 -6.211501 -4.812 -4.1885 -6.85 -6.706 -9.195001 -5.847 -5.741 
-9.993101 -6.211501 -8.997001 -6.85 -12.4122 -10.1265 -10.5985 -10.31 
-9.993101 -10.688 -12.1973 -12.4122 -15.8327 -11.53 -15.0615 
-14.4696 -13.8883 -17.7595 -15.8327 -17.2362 -15.993 
-4.0105 -4.928 0 -7.884501 -1.756 -6.951 -4.0215 
-10.111 -4.928 -7.884501 -8.884501 -8.445 -8.3625 
-10.111 -14.0165 -8.884501 -15.7755 -9.832001 
-19.1995 -15.0165 -15.7755 -17.1625 
-20.1995 -21.9075 -17.1625 

n/a 
n/a 
n/a 
n/a 
-3.0835 -4.928 0 -7.884501 -1.756 -6.951 -4.0215 
-8.407001 -4.928 -7.884501 -8.884501 -8.445 -8.3625 
-8.407001 -14.0165 -8.884501 -15.7755 -9.832001 
-17.9643 -15.0165 -15.7755 -17.1625 
-18.9643 -21.9075 -17.1625 
