-4.759 
n/a 
n/a 
n/a 
n/a 
-4.759 
n/a 
n/a 
n/a 
n/a 
-4.759 
n/a 
n/a 
n/a 
n/a 
-4.759 
n/a 
n/a 
n/a 
n/a 
-8.110001 -2.7415 -1.8085 -3.6765 -3.0695 -3.2955 -3.7805 -2.5045 -2.664 -3.699 -4.1335 -2.0935 -3.97 0 
-9.8325 -3.891 -4.452 -4.7945 -5.797501 -8.063001 -6.536 -4.074 -4.654 -7.6635 -5.9765 -6.6895 -3.97 
-10.6505 -6.9635 -5.2675 -7.7535 -10.9732 -10.031 -8.387 -5.973001 -8.0655 -8.226501 -9.797501 -6.6895 
-13.723 -7.5975 -8.323 -13.414 -12.9412 -12.1568 -10.575 -8.818501 -8.406 -12.2803 -9.797501 
-14.357 -9.8395 -14.1293 -15.382 -15.067 -14.3448 -13.4205 -9.124001 -12.4836 -12.2803 
-2.9805 -3.2955 -4.3225 -2.5045 -1.8085 -3.8175 -3.36 -2.0935 -3.9655 -4.037 -4.9095 
-5.6305 -8.877501 -6.396501 -3.3625 -4.55 -6.5235 -5.629 -5.7445 -8.2395 -8.289001 
-11.6251 -10.382 -7.556 -5.866 -7.6085 -8.8985 -8.825001 -10.8907 -12.8311 
-13.1296 -11.5415 -10.1465 -9.099001 -10.503 -12.2775 -14.2692 -15.4823 
-14.2891 -14.132 -13.3795 -12.1099 -13.882 -17.7217 -18.8608 
-8.110001 -3.2955 -1.7695 -4.3225 -2.0935 -3.383 -4.4525 -1.7695 -3.36 -3.6215 0 
-11.136 -3.9425 -7.0125 -6.1955 -5.7335 -8.5185 -5.610001 -5.864 -7.037001 -3.6215 
-11.783 -9.7775 -8.892 -9.752001 -11.6252 -9.4975 -9.614 -10.248 -7.037001 
-17.618 -11.8032 -12.5239 -15.8631 -12.6042 -13.4921 -14.024 -10.248 
-19.6437 -15.4351 -18.635 -16.8421 -16.5988 -17.9021 -14.024 
-9.634001 -3.2955 -1.4985 -3.7805 -2.5045 -1.8085 -3.36 -1.7695 -4.4755 -3.091 -4.414 0 
-13.1867 -4.8715 -5.3595 -6.536 -3.3625 -5.447001 -5.5955 -5.448 -6.932 -6.019 -4.414 
-14.7627 -9.4645 -7.748001 -7.621 -6.8355 -8.406 -8.066 -7.332 -10.0645 -6.019 
-19.3557 -10.544 -8.536 -11.4544 -9.085501 -10.382 -9.8135 -10.367 -10.0645 
-20.4352 -11.332 -12.4578 -13.7044 -10.5235 -12.4719 -13.1695 -10.367 
