-4.759 
n/a 
n/a 
n/a 
n/a 
-4.759 
n/a 
n/a 
n/a 
n/a 
-4.759 
n/a 
n/a 
n/a 
n/a 
-4.759 
n/a 
n/a 
n/a 
n/a 
-2.9805 -2.7415 -6.237 -3.9205 -2.5045 -8.6765 -4.649 0 
-4.004 -7.698 -6.626501 -4.449 -10.8025 -8.693501 -4.649 
-8.571501 -8.1855 -6.695001 -12.4778 -10.8195 -8.693501 
-8.781501 -8.366 -14.9982 -12.4948 -10.8195 
-9.106001 -16.8282 -15.0152 -12.4948 
-2.9805 -2.7415 -4.7935 -3.849 -2.5045 0 -4.649 0 0 
-4.004 -6.9495 -6.2965 -6.305 -2.5045 -4.649 -4.649 0 
-8.459001 -8.1925 -8.479 -6.305 -7.328501 -4.649 -4.649 
-9.065001 -10.5035 -8.479 -10.564 -7.328501 -4.649 
-11.3516 -10.5035 -12.8048 -10.564 -7.328501 
-4.251 -3.9205 -2.9805 -2.5045 -9.141001 -4.649 0 
-6.6035 -6.833 -6.592501 -12.5629 -10.1995 -4.649 
-9.355501 -10.688 -17.0287 -13.6214 -10.1995 
-13.2477 -21.1242 -18.0872 -13.6214 
-23.6839 -22.1827 -18.0872 
-2.9805 -4.742 -3.9205 -2.5045 -9.141001 -4.649 
-8.856001 -6.147 -4.449 -12.5629 -10.1995 
-10.3815 -6.9495 -14.2382 -13.6214 
-11.184 -17.2225 -15.2967 
-21.457 -18.281 
