-4.759 
n/a 
n/a 
n/a 
n/a 
-4.759 
n/a 
n/a 
n/a 
n/a 
-4.759 
n/a 
n/a 
n/a 
n/a 
-4.759 
n/a 
n/a 
n/a 
n/a 
-2.3335 -4.1665 0 -3.16 -1.756 -4.533 -3.188 -3.17 -4.435 -2.3335 -2.186 -4.4265 -2.186 -3.8755 -2.3335 0 -4.7255 -3.8445 -4.5925 0 -2.186 -3.3785 0 
-6.924001 -4.1665 -3.16 -5.1995 -6.5445 -8.092 -6.3405 -9.199 -7.157001 -3.7085 -6.437 -7.381001 -5.2415 -6.451 -2.3335 -4.7255 -5.942 -6.3435 -4.5925 -2.186 -6.8005 -3.3785 
-6.924001 -7.9595 -5.1995 -9.198 -10.4331 -11.8847 -12.9407 -11.9752 -7.9705 -8.01 -8.955001 -10.7605 -7.2945 -6.451 -7.413501 -5.942 -6.9295 -6.3435 -6.186 -6.8005 -6.8005 
-11.6198 -10.6636 -9.198 -14.1458 -14.2258 -18.4849 -15.7169 -12.7887 -12.5608 -10.403 -12.4893 -12.8135 -7.2945 -11.8102 -9.669001 -6.9295 -6.9295 -8.049 -11.6637 -6.8005 
-14.3239 -14.6621 -14.1458 -17.9385 -20.826 -21.2611 -16.5304 -17.379 -14.9538 -13.9373 -14.5423 -12.8135 -13.1325 -14.0657 -10.9189 -6.9295 -8.962 -14.3257 -11.6637 
-3.1495 -3.772 0 -3.16 -1.756 -2.9995 -3.355 -1.7695 -1.4985 -4.6555 -3.2295 -3.188 -1.756 -4.2775 -4.031 -1.7695 -4.3215 -1.7695 -3.2345 -4.273 0 -3.1495 -3.518 -4.6555 -4.435 -4.7255 -3.8445 -4.5925 0 -1.7695 -3.8935 0 
-5.6875 -3.772 -3.16 -5.1995 -4.665 -5.2965 -5.411 -2.7955 -5.724501 -7.659 -7.143 -4.863 -6.009 -8.694 -5.006 -7.015 -6.3595 -3.713 -7.991 -4.273 -3.1495 -7.882 -8.8195 -8.4855 -9.457001 -5.942 -6.3435 -4.5925 -1.7695 -7.011001 -3.8935 
-5.6875 -7.502 -5.1995 -8.697001 -7.131001 -8.171 -6.0855 -7.118001 -9.501 -12.2123 -8.5425 -9.5725 -10.354 -9.953501 -11.6065 -10.19 -8.649501 -8.2215 -7.991 -7.404 -7.882 -13.5913 -12.7003 -14.6495 -10.349 -6.9295 -6.3435 -6.23 -7.011001 -7.011001 
-10.2035 -10.2645 -8.697001 -11.3888 -10.6105 -9.255501 -9.7075 -11.6897 -13.9565 -13.6118 -13.639 -14.0595 -11.6135 -16.554 -14.7815 -12.48 -13.33 -8.2215 -11.7996 -12.4721 -13.5913 -17.4721 -18.8643 -15.5415 -11.7117 -6.9295 -8.402 -10.66 -7.011001 
-12.966 -13.762 -11.3888 -14.8683 -11.695 -12.9625 -14.6536 -16.1452 -15.356 -18.7083 -18.126 -15.319 -18.214 -19.729 -17.0715 -17.1605 -13.33 -13.0579 -16.8677 -18.1814 -17.4721 -23.6361 -19.7563 -16.9042 -11.7117 -9.526501 -13.5848 -10.66 
-2.3335 -3.6505 -3.432 -1.756 -3.874 -2.871 -3.013 -5.651501 -3.047 -3.776 -3.047 -1.7695 -5.009 0 
-6.2545 -8.023001 -5.5865 -5.917 -6.976 -6.316 -8.529501 -6.8925 -6.8805 -7.635 -5.9705 -8.644 -5.009 
-11.2648 -10.2485 -10.322 -8.7335 -10.523 -11.553 -11.252 -12.971 -11.3721 -10.9841 -13.6 -8.644 
-13.4903 -14.984 -13.3129 -12.5489 -15.76 -13.4245 -14.0679 -17.2944 -14.7212 -18.6136 -13.6 
-18.2258 -17.9749 -17.1283 -17.7859 -17.6315 -18.1358 -18.8483 -20.6435 -22.3507 -18.6136 
-1.934 -2.3615 -3.585 -2.847 -3.5015 -4.435 -3.8755 
-3.539 -5.071 -6.692 -5.691 -8.528501 -8.769501 
-5.9845 -8.2015 -10.485 -11.9362 -13.105 
-8.755 -12.1821 -16.7302 -16.5127 
-12.7976 -18.4273 -21.3067 
