-4.759 
n/a 
n/a 
n/a 
n/a 
-4.759 
n/a 
n/a 
n/a 
n/a 
-4.759 
n/a 
n/a 
n/a 
n/a 
-4.759 
n/a 
n/a 
n/a 
n/a 
-2.8965 -3.9035 -1.7565 -3.688 -8.5465 
-5.4185 -4.616 -5.642 -8.748001 
-5.5165 -8.872 -10.6465 
-10.159 -14.3753 
-15.8563 
-2.8965 -4.8275 -1.7565 -3.688 -8.5465 
-6.83 -5.741 -5.642 -8.748001 
-7.298 -10.0345 -10.6465 
-12.0853 -15.2892 
-17.34 
-2.8965 -3.9035 -1.934 -3.688 -8.5465 
-5.4185 -5.7625 -5.932 -8.748001 
-7.6555 -10.476 -10.7495 
-12.8408 -15.2935 
-17.6583 
-2.8965 -3.845 -1.7565 -3.688 -8.5465 
-7.8395 -4.948 -5.642 -8.748001 
-8.8345 -8.295 -10.6465 
-12.3727 -14.0773 
-18.155 
