-4.759 
n/a 
n/a 
n/a 
n/a 
-4.759 
n/a 
n/a 
n/a 
n/a 
-4.759 
n/a 
n/a 
n/a 
n/a 
-4.759 
n/a 
n/a 
n/a 
n/a 
-3.5315 -3.1205 0 -1.934 -4.871 -6.246 -1.7565 -4.2985 0 -2.664 -4.73 -5.6985 -4.6295 -4.9005 -1.934 -1.4985 -5.0695 -1.756 -4.2765 -2.356 -4.6105 -1.934 -2.9705 -3.5005 -4.6975 -4.73 -1.756 -2.645 -3.1575 -3.8605 -4.424 0 
-5.4875 -3.1205 -1.934 -6.432 -12.6836 -9.684501 -6.0065 -4.2985 -2.664 -9.2115 -9.502501 -10.4265 -9.814501 -6.489 -2.6125 -5.8625 -6.6495 -6.0815 -5.3195 -7.597501 -6.099501 -4.051 -7.541 -8.874001 -9.818501 -6.344 -3.898 -3.72 -5.431001 -7.405 -4.424 
-5.4875 -5.7015 -6.432 -15.3452 -16.1221 -13.9303 -6.0065 -7.684 -9.2115 -14.1382 -14.3301 -15.6115 -11.7514 -7.2235 -8.046 -6.986501 -11.6598 -6.7465 -8.8415 -10.0545 -7.2795 -9.493501 -13.1285 -14.0612 -11.5271 -9.3465 -5.4925 -5.5665 -9.728001 -7.405 
-8.1475 -10.075 -15.3452 -18.7837 -20.3679 -13.9303 -8.845 -14.6005 -14.1382 -18.9658 -19.5151 -17.5484 -12.4859 -13.1128 -9.436001 -12.2074 -12.3248 -10.4733 -11.7209 -11.2345 -13.2426 -15.1856 -18.3157 -15.7698 -14.5296 -10.25 -7.1175 -9.856501 -9.728001 
-12.734 -19.2136 -18.7837 -23.0295 -20.3679 -16.7688 -15.9073 -19.5272 -18.9658 -24.1508 -21.452 -18.2829 -18.3752 -14.5028 -14.7029 -12.8724 -16.0516 -13.3527 -12.9009 -17.1976 -18.9347 -20.3728 -20.0243 -18.7723 -15.4331 -12.1732 -11.7287 -9.856501 
-3.5315 -8.086 -4.624 -1.934 -6.939 -8.763 -1.7565 -4.2985 -4.2765 -2.356 -2.664 -4.6105 -1.934 -3.958 -4.0325 0 -3.7555 -4.9005 -1.756 -4.8635 -1.934 -3.956 -1.7565 -3.8605 -4.9225 -3.5005 -4.6975 -3.1385 -1.934 -1.4985 -4.624 
-10.7265 -12.908 -6.3515 -9.265 -16.246 -10.7123 -6.0065 -8.6315 -5.3195 -4.135 -5.5265 -6.099501 -6.081 -8.0865 -4.0325 -3.7555 -6.877501 -6.518001 -6.401 -4.9455 -5.7365 -4.932 -5.5915 -9.342 -7.745 -8.874001 -7.8805 -4.522 -2.6125 -5.3995 
-16.4482 -14.8751 -14.2635 -18.6616 -18.1953 -14.9623 -9.8105 -8.805 -7.1285 -7.558001 -6.9215 -10.8747 -10.6637 -8.0865 -8.636001 -6.877501 -8.030001 -10.5035 -6.429501 -7.5645 -6.672501 -9.297001 -11.6294 -12.2131 -13.5055 -12.1232 -9.373 -5.087501 -6.434501 
-18.1891 -22.7871 -23.6601 -20.6109 -22.4453 -18.7663 -10.1295 -11.8146 -8.008 -8.787001 -12.1181 -15.4574 -10.6637 -12.9848 -11.8216 -8.030001 -12.4435 -10.5285 -9.1785 -8.752501 -11.7661 -15.6461 -14.5005 -17.9736 -16.7547 -13.6157 -10.052 -8.806001 
-26.1011 -32.1837 -25.6094 -24.8609 -26.2493 -19.0853 -13.5647 -12.6941 -9.014501 -14.0744 -16.7008 -15.4574 -15.562 -16.1704 -12.9741 -12.4435 -12.4685 -13.2775 -10.1155 -14.1579 -18.1152 -18.5172 -20.261 -21.2228 -18.2472 -14.2947 -13.7705 
-2.7455 -3.8605 -3.1385 -3.5005 -4.6975 -1.934 -1.4985 -4.73 -4.5175 -3.152 -4.493 -2.264 -1.4985 -4.7815 -1.7565 -3.5315 -3.851 -1.7695 -3.898 -4.413 -1.934 -1.4985 -4.5175 -2.264 -3.1435 -5.0695 0 
-5.9165 -6.241 -5.9425 -8.874001 -7.280001 -2.6125 -5.8195 -7.092 -6.797 -5.593 -6.3085 -2.9195 -5.759001 -6.6635 -5.2425 -7.824 -4.0015 -5.5235 -7.1335 -6.5995 -2.6125 -5.494 -6.6385 -4.6705 -8.2865 -5.0695 
-7.272 -8.142 -11.993 -10.4685 -8.248 -6.797 -9.032001 -9.4725 -9.2095 -7.199 -6.8725 -6.650001 -6.993001 -7.966001 -8.743501 -8.0305 -7.042 -9.475 -10.1465 -7.29 -6.884 -7.563 -8.526001 -9.571001 -8.2865 
-9.045 -14.3145 -13.5875 -11.4365 -12.5425 -10.434 -11.5163 -12.0094 -10.8849 -7.766001 -10.061 -7.241001 -8.221001 -11.8686 -8.9975 -11.2196 -9.9975 -12.4758 -10.6805 -11.8289 -9.2815 -9.0725 -13.6901 -9.571001 
-15.2635 -15.909 -14.5555 -15.731 -16.1795 -12.9183 -14.0532 -13.6848 -11.4519 -11.0591 -10.5285 -8.433001 -12.0922 -12.1226 -12.2576 -14.1751 -13.4453 -13.0098 -15.2194 -14.2264 -10.9328 -14.2982 -13.6901 
-3.5315 -3.1205 0 -1.934 -6.923501 -8.763 0 -4.2985 -1.8085 -4.73 -4.624 -5.404 -1.756 -4.9005 -1.934 -5.0695 0 -3.8605 -4.493 -3.5005 -4.6975 -4.624 -4.9655 0 
-5.4875 -3.1205 -1.934 -9.628501 -16.5093 -8.763 -4.2985 -6.82 -6.001 -7.364 -6.9315 -6.4175 -6.438 -6.489 -7.9 -5.0695 -3.8605 -8.415 -7.3945 -8.874001 -10.2185 -8.326 -4.9655 
-5.4875 -5.7015 -9.628501 -19.2517 -16.5093 -13.2543 -6.82 -10.688 -8.0385 -8.998 -8.316501 -12.3493 -7.9505 -13.1944 -7.9 -9.146501 -8.415 -11.5679 -13.378 -14.4612 -13.9205 -8.326 
-8.1475 -13.8078 -19.2517 -19.2517 -21.0006 -15.7758 -10.688 -12.7255 -9.401501 -10.486 -14.7681 -13.8618 -15.1259 -13.1944 -12.4344 -14.352 -11.5679 -17.5514 -18.9652 -18.1632 -13.9205 
-16.4668 -23.431 -19.2517 -23.743 -23.5221 -19.6438 -12.7255 -14.0885 -11.1701 -17.486 -16.2806 -21.0372 -15.1259 -17.7288 -17.6399 -17.5049 -17.5514 -23.1386 -22.6672 -18.1632 
