-4.759 
n/a 
n/a 
n/a 
n/a 
-4.759 
n/a 
n/a 
n/a 
n/a 
-4.759 
n/a 
n/a 
n/a 
n/a 
-4.759 
n/a 
n/a 
n/a 
n/a 
-3.5905 -6.7975 0 -5.1645 0 0 -4.0275 -3.6505 0 
-10.1555 -6.7975 -5.1645 -5.1645 0 -4.0275 -6.8435 -3.6505 
-10.1555 -10.884 -5.1645 -5.1645 -4.0275 -6.8435 -6.8435 
-14.3486 -10.884 -5.1645 -10.1765 -6.8435 -6.8435 
-14.3486 -10.884 -10.1765 -13.2539 -6.8435 
-3.5905 0 -5.463 0 -5.1645 0 0 -4.4485 -3.9825 0 
-3.5905 -5.463 -5.463 -5.1645 -5.1645 0 -4.4485 -6.759 -3.9825 
-9.133 -5.463 -11.2561 -5.1645 -5.1645 -4.4485 -6.759 -6.759 
-9.133 -11.2561 -11.2561 -5.1645 -9.39 -6.759 -6.759 
-15.0997 -11.2561 -11.2561 -9.39 -12.8605 -6.759 
-3.5905 -8.5275 0 -5.1645 0 -4.0275 -4.1665 0 -1.8085 0 
-12.6432 -8.5275 -5.1645 -5.1645 -4.0275 -8.997 -4.1665 -1.8085 -1.8085 
-12.6432 -14.0076 -5.1645 -10.1765 -8.997 -8.997 -6.471 -1.8085 
-18.1233 -14.0076 -10.1765 -15.4074 -8.997 -11.4691 -6.471 
-18.1233 -19.0196 -15.4074 -15.4074 -11.4691 -11.4691 
-3.5905 0 -5.463 0 -5.1645 0 -4.0275 -4.609 0 0 -1.8085 0 
-3.5905 -5.463 -5.463 -5.1645 -5.1645 -4.0275 -6.966001 -4.609 0 -1.8085 -1.8085 
-9.133 -5.463 -11.2561 -5.1645 -10.1765 -6.966001 -6.966001 -4.609 -1.8085 -1.8085 
-9.133 -11.2561 -11.2561 -10.1765 -13.3764 -6.966001 -6.966001 -7.0445 -1.8085 
-15.0997 -11.2561 -16.2681 -13.3764 -13.3764 -6.966001 -9.755 -7.0445 
