-4.759 
n/a 
n/a 
n/a 
n/a 
-4.759 
n/a 
n/a 
n/a 
n/a 
-4.759 
n/a 
n/a 
n/a 
n/a 
-4.759 
n/a 
n/a 
n/a 
n/a 
-3.321 -4.0555 -9.196501 -3.9725 
-5.986 -14.9178 -10.058 
-16.5431 -15.7793 
-17.4046 
n/a 
-6.864 -3.9725 -3.45 -4.0555 -3.2615 
-8.775001 -8.231 -7.5955 -6.207 
-13.2621 -12.6009 -9.1905 
-17.632 -14.1959 
-19.227 
-1.4985 -9.196501 -3.9725 0 -3.0695 -4.0555 -3.2615 
-9.906 -10.058 -3.9725 -3.0695 -5.5715 -6.207 
-10.4465 -10.058 -6.484 -5.5715 -7.6355 
-10.4465 -12.5695 -8.7305 -7.6355 
-12.958 -14.816 -10.3225 
-3.882 -4.0555 -9.196501 -5.2875 
-7.004001 -14.9178 -11.046 
-17.9519 -16.7673 
-19.8014 
n/a 
