-4.759 
n/a 
n/a 
n/a 
n/a 
-4.759 
n/a 
n/a 
n/a 
n/a 
-4.759 
n/a 
n/a 
n/a 
n/a 
-4.759 
n/a 
n/a 
n/a 
n/a 
-1.4985 -3.9515 -1.7565 -3.1495 -10.201 -2.742 -2.489 -3.383 -4.6345 0 
-4.8235 -4.4625 -3.914 -14.6457 -13.0556 -3.301 -4.85 -6.1445 -4.6345 
-4.896 -6.509 -15.4638 -17.5003 -13.6146 -5.7675 -7.022 -6.1445 
-6.784 -18.5866 -18.3184 -18.0593 -16.0811 -8.59 -7.022 
-18.8844 -21.4412 -18.8774 -20.5258 -18.9036 -8.59 
-5.246 -4.1975 -3.873 -2.8645 -12.16972 
-8.478001 -6.907001 -6.495501 -16.63722 
-11.5185 -9.450001 -20.72102 
-14.0615 -23.83212 
-28.44362 
-3.9545 -4.6205 -3.383 -4.308 -3.9515 
-8.6055 -7.842 -5.873 -7.2675 
-11.942 -9.7325 -8.7655 
-13.8325 -12.8106 
-16.9106 
-4.4125 -1.7565 -5.802 -4.942 -2.4945 -3.383 -5.396 
-5.1365 -7.194001 -7.6645 -6.518001 -4.732 -7.411 
-11.6916 -8.625001 -9.254 -8.89 -8.693001 
-13.1226 -10.543 -11.6796 -13.1394 
-15.0406 -12.9686 -15.929 
