-4.759 
n/a 
n/a 
n/a 
n/a 
-4.759 
n/a 
n/a 
n/a 
n/a 
-4.759 
n/a 
n/a 
n/a 
n/a 
-4.759 
n/a 
n/a 
n/a 
n/a 
-2.3085 -3.0805 -1.4985 -3.9725 -1.756 -4.328 
-3.7245 -4.9235 -4.88 -5.5515 -6.229 
-5.3305 -7.626 -6.1175 -9.548 
-7.699 -8.823501 -10.134 
-8.988 -13.1222 
-8.77 -5.847 -8.77 -9.965501 
-10.209 -10.3545 -11.1415 
-10.376 -13.0716 
-13.1099 
n/a 
-2.3085 -3.0805 -1.4985 -3.9725 0 -2.3085 -3.0805 -1.4985 -4.3055 
-3.7245 -4.9235 -4.88 -3.9725 -2.3085 -3.7245 -4.9235 -4.7155 
-5.3305 -7.626 -4.88 -6.334 -3.7245 -5.3305 -6.801 
-7.699 -7.626 -7.2275 -7.755 -5.3305 -6.812 
-7.699 -9.1805 -8.496 -8.943501 -6.812 
-4.374 -3.9725 -1.756 -4.328 
-8.4615 -5.5515 -6.229 
-9.89 -9.548 
-13.8865 
n/a 
