-4.759 
n/a 
n/a 
n/a 
n/a 
-4.759 
n/a 
n/a 
n/a 
n/a 
-4.759 
n/a 
n/a 
n/a 
n/a 
-4.759 
n/a 
n/a 
n/a 
n/a 
-3.7855 -3.6845 -2.186 -1.4985 -3.9755 -1.7565 -5.1845 -4.245 -2.5045 -4.4155 -1.934 -1.4985 -3.452 -3.881 -2.3345 -12.16972 
-6.0565 -5.215 -3.339 -5.323501 -4.312 -6.580501 -7.991 -6.467501 -5.495501 -5.054 -2.6125 -4.4485 -6.449 -4.5275 -14.83482 
-7.626 -6.003 -8.211 -5.3995 -10.4765 -8.729001 -10.064 -9.178501 -6.0705 -5.585 -5.475 -7.5525 -6.722 -17.79482 
-8.3345 -11.4582 -8.288 -12.007 -12.625 -10.757 -12.775 -9.731501 -6.397501 -7.3855 -8.686501 -7.733 -20.48112 
-14.0259 -11.5352 -15.0077 -14.1555 -14.653 -13.468 -13.328 -9.943501 -8.805501 -10.5525 -8.854 -21.50632 
-3.6845 -3.7855 -2.4945 -1.4985 -3.2795 -3.402 -2.264 -5.1845 -4.245 -3.8405 -3.7855 -1.934 -1.4985 -5.1845 -4.245 -3.881 -2.3345 -7.062 0 
-7.634501 -6.734 -3.9315 -4.423 -6.344501 -3.793 -7.422001 -7.991 -7.915 -7.351501 -5.059 -2.6125 -6.5205 -7.991 -7.434501 -4.5275 -9.5165 -7.062 
-9.4505 -7.831501 -7.424 -7.724501 -6.9055 -9.594501 -9.491501 -11.9804 -12.5538 -8.672501 -5.6785 -7.672 -9.690001 -10.6465 -8.004001 -12.4765 -9.5165 
-9.854001 -11.6638 -11.2533 -8.008 -13.107 -11.7516 -13.6621 -16.6192 -13.8748 -8.956 -11.2004 -10.4765 -12.3753 -11.216 -16.3398 -12.4765 
-13.6863 -15.4931 -11.5368 -14.5323 -15.2641 -15.9222 -18.3009 -17.9402 -14.1583 -14.7947 -14.0049 -13.1618 -12.9448 -19.5518 -16.3398 
-12.16972 -2.229 -5.1845 -5.87 -3.452 -4.174 -5.1845 -5.87 -4.1175 -1.7565 -3.999 -4.066 -3.325 
-14.39872 -7.7055 -10.907 -9.257 -6.732 -10.368 -10.907 -10.9075 -4.7545 -6.017001 -8.479 -6.5505 
-19.87522 -13.9584 -14.294 -12.6956 -13.4718 -16.0905 -15.9445 -11.5445 -9.035001 -10.322 -9.8505 
-26.12812 -17.3454 -17.7326 -19.4354 -19.1943 -21.128 -16.5815 -15.825 -13.6494 -11.6935 
-29.51512 -20.784 -24.4724 -25.1579 -24.2318 -21.765 -20.862 -20.4394 -15.0209 
-3.4635 -4.7285 -2.4945 -4.7715 -3.7855 -2.3345 -8.798 -2.229 -5.1845 -4.245 0 
-6.719501 -7.396501 -6.0565 -7.883 -5.0075 -11.046 -10.31 -7.7055 -7.991 -4.245 
-9.530001 -11.2633 -9.229501 -9.4165 -14.3626 -12.558 -15.7865 -11.0424 -7.991 
-13.4992 -14.4363 -10.2495 -18.9444 -15.8746 -18.0345 -19.1234 -11.0424 
-16.6722 -15.4563 -19.8952 -20.4564 -21.3511 -21.3714 -19.1234 
