-4.759 
n/a 
n/a 
n/a 
n/a 
-4.759 
n/a 
n/a 
n/a 
n/a 
-4.759 
n/a 
n/a 
n/a 
n/a 
-4.759 
n/a 
n/a 
n/a 
n/a 
-4.347 -5.8255 -3.5385 -3.152 -4.493 -1.934 -2.3615 -3.8275 0 
-9.168501 -9.439501 -5.624 -5.593 -5.1865 -3.539 -5.965 -3.8275 
-12.7825 -11.9958 -7.319 -6.176001 -7.4315 -6.813 -5.965 
-15.3388 -13.6908 -7.8395 -8.118501 -8.7235 -6.813 
-17.0338 -14.2113 -9.7 -9.691001 -8.7235 
-1.934 -1.4985 -4.015 -3.8275 -4.3435 -5.8255 -5.1475 -4.493 0 
-2.6125 -5.216001 -7.943501 -8.046 -9.3895 -11.7392 -10.862 -4.493 
-6.4055 -9.2945 -12.5598 -13.4058 -15.3734 -17.4537 -10.862 
-10.2085 -14.1742 -17.9196 -19.3897 -21.0879 -17.4537 
-15.6572 -19.534 -23.9035 -25.1042 -21.0879 
-5.8255 -3.5385 -2.4945 -4.493 -1.934 -2.3615 -3.8275 
-9.439501 -5.223 -6.256001 -5.1865 -3.539 -5.965 
-11.5948 -7.6565 -7.058001 -7.4315 -6.813 
-14.0283 -8.637 -8.910501 -8.7235 
-15.0088 -10.5225 -10.513 
-1.934 -2.3615 -3.8275 -5.8255 -2.8645 -3.1125 -4.493 0 
-3.539 -5.965 -10.4345 -9.8675 -3.5345 -5.9275 -4.493 
-6.813 -13.3188 -14.4765 -10.6375 -6.9 -5.9275 
-14.3548 -17.3608 -15.2465 -14.003 -6.9 
-18.3968 -18.1308 -18.612 -14.003 
