-4.759 
n/a 
n/a 
n/a 
n/a 
-4.759 
n/a 
n/a 
n/a 
n/a 
-4.759 
n/a 
n/a 
n/a 
n/a 
-4.759 
n/a 
n/a 
n/a 
n/a 
-2.3615 -3.8375 -4.1675 -5.4875 0 -1.756 -4.7925 -1.7695 -3.54 -3.9035 0 -2.3335 -2.186 -4.1115 -4.7505 0 -4.622 -3.046 -3.873 0 -3.9785 -4.0685 -4.0465 -2.4285 -4.1925 -3.873 
-6.362 -8.131001 -10.784 -5.4875 -1.756 -6.509 -7.181 -5.1675 -6.125501 -3.9035 -2.3335 -3.7085 -7.4705 -9.052501 -4.7505 -4.622 -9.0205 -7.13 -3.873 -3.9785 -8.2085 -6.8765 -6.2115 -7.1115 -8.2365 
-9.145 -15.0249 -10.784 -6.911 -6.509 -8.674001 -8.759001 -8.1485 -6.125501 -5.981 -3.7085 -8.771501 -12.8719 -9.052501 -10.254 -9.0205 -13.4027 -7.13 -7.933001 -8.2085 -10.7575 -9.4855 -11.5615 -11.4231 
-16.8417 -15.0249 -12.2075 -12.384 -8.674001 -10.76 -9.23 -8.1485 -8.2285 -7.8 -8.771501 -14.5957 -12.8719 -14.6102 -14.6525 -13.4027 -13.4027 -11.5486 -12.9106 -10.7575 -13.3665 -14.9995 -15.8731 
-16.8417 -16.4484 -17.6805 -14.549 -10.76 -11.231 -9.23 -10.3751 -9.576501 -13.1078 -14.5957 -14.5957 -18.4296 -19.0087 -19.0347 -13.4027 -17.8213 -16.5262 -15.4596 -13.3665 -18.8805 -19.3111 
-2.3615 -3.8375 -2.186 -3.115 -2.664 -5.4875 -4.0395 -2.9705 -2.7765 -2.489 -4.5275 -3.222 -2.461 -4.957 0 -3.45 -2.4945 -4.1115 -3.7575 -3.644 -3.5015 0 -3.8225 -1.934 -4.255 -3.5015 0 -3.9785 -7.607501 -3.59 -2.4285 -5.0275 0 
-6.362 -5.9065 -4.989 -5.1145 -9.892 -10.4392 -6.192 -4.677 -3.495 -6.13 -5.867 -6.3125 -7.614 -4.957 -3.45 -5.354 -7.5895 -6.964001 -7.776 -7.877501 -3.5015 -3.8225 -5.496 -5.4475 -9.297501 -3.5015 -3.9785 -13.0548 -11.0145 -5.6145 -8.088501 -5.0275 
-7.384 -8.512 -6.558001 -12.7481 -14.9213 -12.5917 -7.601 -4.966 -6.869 -6.6325 -7.5955 -8.910501 -7.614 -8.675 -5.354 -10.13 -10.4945 -11.4355 -12.4303 -7.877501 -8.18 -5.496 -8.8535 -10.586 -9.297501 -7.9295 -13.0548 -16.4618 -13.039 -12.4659 -8.088501 
-9.687 -9.9645 -14.516 -17.7774 -17.0738 -14.0007 -7.845 -8.2735 -7.192 -8.556001 -9.878 -8.910501 -11.6658 -10.304 -10.13 -13.035 -14.966 -16.0898 -12.4303 -12.8462 -10.3885 -8.8535 -14.4072 -10.586 -14.0113 -17.2464 -16.4618 -18.4863 -19.8904 -12.4659 
-11.3465 -17.9973 -19.5453 -19.9299 -18.4828 -14.2447 -11.3699 -8.595 -9.074 -10.6875 -9.878 -13.0423 -13.2948 -15.08 -13.035 -17.5065 -19.6203 -16.0898 -17.399 -15.0547 -13.746 -14.4072 -14.4072 -15.2998 -23.3282 -20.6534 -18.4863 -25.3377 -19.8904 
-5.4875 -4.877 -3.8375 -2.7765 -2.489 -4.7925 -3.222 -3.54 -3.8195 0 -7.162001 -6.0515 0 -4.622 -4.624 -1.756 -3.7745 -4.147 -2.4285 -5.1765 0 
-8.096001 -7.665 -7.1585 -3.495 -5.7645 -5.2095 -5.6115 -6.17 -3.8195 -5.3155 -12.341 -6.0515 -4.622 -8.382 -6.004 -5.3805 -6.5925 -6.8745 -8.52 -5.1765 
-12.356 -10.259 -7.6145 -6.2235 -6.0075 -6.088 -7.335001 -6.17 -9.2915 -12.7752 -12.7752 -11.5081 -8.382 -9.954 -10.275 -9.086 -9.485001 -10.634 -8.52 
-14.95 -10.766 -9.634501 -6.3145 -6.8085 -7.7385 -7.335001 -11.6395 -16.8928 -12.7752 -18.2318 -15.2681 -9.954 -14.225 -13.9805 -12.4173 -13.9335 -10.634 
-15.457 -12.786 -9.7035 -7.0465 -8.5975 -7.7385 -12.197 -19.2408 -16.8928 -18.2318 -21.9918 -16.8401 -14.225 -17.9305 -17.3118 -16.8658 -13.9335 
-1.4985 -3.8375 -2.186 -1.4985 -5.4875 -4.4385 -1.756 -2.7295 -2.7765 -5.043 -2.4265 -2.5045 -3.54 -4.4315 -4.957 0 -1.756 -2.925 -2.4945 -4.693 -3.7575 0 -4.4315 -6.487 0 -3.7745 -4.2085 -3.873 -2.4285 -5.0275 0 
-5.0225 -5.9065 -3.339 -6.863501 -9.7675 -5.527 -4.083 -4.065 -6.9725 -6.78 -4.6185 -6.0935 -7.915 -9.188501 -4.957 -1.756 -4.2585 -3.7675 -7.9075 -8.592001 -3.7575 -4.4315 -12.0595 -6.487 -3.7745 -7.6185 -6.416501 -5.879 -8.088501 -5.0275 
-6.469501 -6.8815 -8.505 -10.485 -10.856 -7.935501 -5.5535 -7.586 -8.3975 -9.139501 -8.404501 -10.6095 -13.1344 -9.188501 -6.1885 -4.2585 -5.16 -9.3885 -11.9897 -8.592001 -8.044001 -12.0595 -12.0595 -9.948501 -7.6185 -10.7237 -8.337501 -12.5128 -8.088501 
-7.738 -12.6493 -12.5213 -11.5735 -13.2645 -9.304501 -9.374001 -9.0365 -10.5745 -12.8733 -13.0153 -15.8289 -13.1344 -10.427 -8.8105 -5.16 -11.0762 -13.5183 -11.9897 -13.3309 -16.0238 -12.0595 -15.521 -13.9707 -10.7237 -12.6447 -15.2015 -12.5128 
-13.594 -16.6656 -13.6098 -13.982 -14.6335 -13.212 -10.2595 -11.3893 -14.3083 -17.4841 -18.2347 -15.8289 -14.3729 -13.049 -9.627001 -11.0762 -15.206 -13.5183 -16.7286 -21.3107 -16.0238 -15.521 -19.5432 -17.0759 -12.6447 -19.5087 -15.2015 
