-4.759 
n/a 
n/a 
n/a 
n/a 
-4.759 
n/a 
n/a 
n/a 
n/a 
-4.759 
n/a 
n/a 
n/a 
n/a 
-4.759 
n/a 
n/a 
n/a 
n/a 
-3.5715 -3.281 -4.2815 -4.8165 -3.502 -6.266 -1.756 -6.396 -2.5045 -1.8085 -5.707 -3.59 
-5.5495 -8.023001 -8.431001 -8.918 -6.377501 -7.151 -7.3155 -8.1875 -3.3625 -6.3 -8.967001 
-9.995001 -12.5389 -13.0855 -10.468 -7.196 -7.4045 -8.469501 -9.2515 -7.4545 -9.060501 
-14.6515 -17.1934 -14.6355 -11.2865 -7.4215 -8.486501 -10.1305 -13.5415 -9.938 
-19.306 -18.7434 -15.454 -11.512 -8.497001 -10.2535 -14.4205 -16.025 
-3.5715 -3.281 0 -4.2815 -4.3465 -4.461 -1.7695 -3.502 -6.266 -1.756 -6.374 -2.5045 -4.2775 -3.959 0 
-5.5495 -3.281 -4.2815 -8.372001 -8.433001 -6.370501 -5.535 -6.377501 -7.151 -7.9025 -8.6885 -6.0845 -7.7775 -3.959 
-5.5495 -8.023001 -8.372001 -12.5117 -8.496501 -9.928 -8.0845 -7.196 -14.2133 -10.025 -12.5931 -8.9825 -7.7775 
-9.995001 -12.4799 -12.5117 -12.5752 -12.347 -10.3585 -8.7375 -14.3727 -16.3358 -14.28 -15.4911 -8.9825 
-14.5925 -16.6196 -12.5752 -16.4257 -12.7775 -10.51 -15.9704 -16.4952 -20.5908 -17.178 -15.4911 
-3.5715 -6.783 -12.16972 0 -12.16972 -2.4945 -4.3215 -2.5045 -3.7285 -3.59 
-9.4305 -20.83032 -12.16972 -12.16972 -14.66422 -6.37 -6.389 -6.181 -6.758 
-24.28752 -21.14552 -24.33944 -14.66422 -18.53972 -8.1415 -10.6053 -9.6495 
-24.28752 -33.31524 -26.83394 -18.53972 -20.31122 -12.5528 -14.0738 
-36.45724 -35.80974 -30.70944 -20.31122 -24.72252 -16.0213 
-12.7235 -9.0035 0 -6.266 -1.756 -6.396 -3.2495 -4.2775 -3.959 
-23.1152 -9.0035 -6.266 -7.151 -7.3155 -9.426001 -5.6285 -7.7775 
-23.1152 -15.8715 -7.151 -7.4045 -9.595501 -12.1008 -8.5465 
-29.9832 -16.7565 -7.4045 -9.628501 -12.4217 -15.0188 
-30.8682 -17.01 -9.628501 -12.5009 -15.3397 
