-4.759 
n/a 
n/a 
n/a 
n/a 
-4.759 
n/a 
n/a 
n/a 
n/a 
-4.759 
n/a 
n/a 
n/a 
n/a 
-4.759 
n/a 
n/a 
n/a 
n/a 
-2.985 -4.84 -3.539 -2.264 -3.1405 -3.6785 -6.5 -3.228 
-10.0575 -8.048 -5.0015 -5.213 -6.0815 -11.0145 -10.068 
-13.2655 -10.3885 -6.817501 -8.940001 -14.1337 -14.5825 
-15.606 -12.7243 -10.8337 -17.2194 -17.7017 
-17.9418 -16.7405 -19.1131 -20.7874 
-6.5 -3.264 0 -2.5235 -6.141 -2.4945 -4.174 -1.7695 -3.1405 
-8.982 -3.264 -2.5235 -7.5675 -8.1295 -8.5275 -6.3525 -4.2535 
-8.982 -6.4195 -7.5675 -9.4445 -14.4771 -10.733 -8.129001 
-12.3991 -11.7115 -9.4445 -15.9127 -16.6826 -12.5095 
-17.6911 -13.5885 -15.9127 -18.1182 -18.4591 
-6.5 0 -2.3585 -3.8055 -2.5685 -2.5235 -5.7085 -2.264 -3.1405 -2.5045 -3.228 0 
-6.5 -2.3585 -5.311 -5.885 -4.6405 -7.637 -6.5785 -5.213 -5.1565 -5.1825 -3.228 
-9.676001 -5.311 -7.222 -6.927001 -9.057501 -9.086 -9.6245 -7.285 -7.659 -5.1825 
-12.9895 -7.222 -7.8665 -11.8252 -10.0255 -9.97 -11.8045 -9.409 -7.659 
-14.9005 -7.8665 -12.9945 -12.7932 -10.603 -12.1976 -13.9285 -9.409 
-4.1885 -6.5 -3.644 0 -3.539 -2.5235 -4.153 -1.934 -4.374 0 
-11.5695 -9.0045 -3.644 -3.539 -5.6505 -7.475 -5.759501 -6.61 -4.374 
-14.074 -9.0045 -8.135 -5.6505 -10.4265 -9.671501 -10.757 -6.61 
-14.074 -13.8071 -10.6981 -10.4265 -12.623 -14.7818 -10.757 
-18.8766 -16.3702 -15.4741 -12.623 -17.7333 -14.7818 
