-4.759 
n/a 
n/a 
n/a 
n/a 
-4.759 
n/a 
n/a 
n/a 
n/a 
-4.759 
n/a 
n/a 
n/a 
n/a 
-4.759 
n/a 
n/a 
n/a 
n/a 
-1.934 -3.9415 -3.973 -3.188 -4.168 -1.934 -4.753 
-5.2535 -8.779501 -6.896 -4.7425 -6.042 -6.88 
-9.913 -11.7543 -7.31 -6.3765 -9.757 
-13.2326 -12.1683 -9.727501 -9.818001 
-13.6466 -14.5858 -13.343 
-6.6585 -3.9955 -1.4985 -4.753 -3.188 -4.168 -1.934 -3.9415 0 
-10.177 -5.0175 -6.505501 -6.759501 -4.7425 -6.042 -5.2535 -3.9415 
-10.6815 -9.136001 -7.637001 -6.882 -6.3765 -8.609501 -5.2535 
-14.8 -9.481001 -7.829501 -8.3485 -9.1315 -8.609501 
-15.145 -9.485001 -8.780001 -10.3155 -9.1315 
-4.628 -4.743 -3.9955 -1.4985 -4.753 -3.188 -4.168 -1.934 -3.9415 0 
-4.7515 -8.0155 -5.0175 -6.505501 -6.759501 -4.7425 -6.042 -5.2535 -3.9415 
-8.018001 -8.687 -9.136001 -7.637001 -6.882 -6.3765 -8.609501 -5.2535 
-8.691001 -13.5365 -9.481001 -7.829501 -8.3485 -9.1315 -8.609501 
-13.5509 -13.8815 -9.485001 -8.780001 -10.3155 -9.1315 
-1.934 -3.9415 -6.6585 -3.9955 -1.4985 -3.188 -4.168 -4.753 
-5.2535 -11.0624 -10.177 -5.0175 -3.619 -4.7425 -7.422 
-12.883 -14.5809 -10.6815 -6.879 -5.7995 -7.594 
-16.4015 -15.0854 -12.543 -7.6255 -8.9075 
-16.906 -16.9469 -13.2895 -11.1689 
