-4.759 
n/a 
n/a 
n/a 
n/a 
-4.759 
n/a 
n/a 
n/a 
n/a 
-4.759 
n/a 
n/a 
n/a 
n/a 
-4.759 
n/a 
n/a 
n/a 
n/a 
-3.882 -10.4975 -6.864 -5.8285 -7.680501 -3.892 -4.493 -10.4975 -10.0905 -1.756 -4.9385 -7.680501 -3.892 -1.756 -2.9805 -5.018 -3.277 -2.356 -6.864 -4.0965 
-15.2167 -17.4805 -10.564 -14.564 -10.884 -8.506001 -16.1039 -20.707 -11.9355 -6.501 -13.6498 -10.884 -5.337 -4.3555 -8.009501 -7.964 -4.9055 -9.6225 -8.968 
-22.1997 -21.1805 -19.2995 -17.7675 -15.498 -20.5727 -26.3134 -22.552 -16.6805 -15.4215 -16.8533 -12.329 -8.0745 -9.7075 -9.646001 -8.682 -12.7518 -11.7623 
-25.8997 -29.916 -22.503 -22.3815 -27.5647 -30.7822 -28.1584 -27.297 -25.601 -18.625 -18.2983 -15.0665 -13.6369 -11.4152 -10.6402 -16.8495 -14.8916 
-34.6352 -33.1195 -27.117 -34.4482 -37.7742 -32.6272 -32.9034 -36.2175 -28.8045 -20.07 -21.0358 -20.6289 -15.3446 -12.4094 -18.8077 -18.9893 
-3.2615 -2.3335 -8.171 -9.275001 -7.84 -9.196501 -12.16972 -3.918 -3.091 -3.59 
-5.0495 -10.8215 -17.9552 -17.2948 -17.5009 -21.69962 -16.08772 -6.912001 -5.8 
-13.9603 -20.6057 -25.975 -26.9557 -30.00402 -25.61762 -19.08172 -9.726001 
-23.7445 -28.6255 -35.6359 -39.45882 -33.92202 -28.61162 -21.89572 
-31.7643 -38.2864 -48.13902 -43.37682 -36.91602 -31.42562 
-3.2615 -3.469 -2.95 0 -10.1525 -8.164001 -3.43 -3.8275 -3.7015 -8.171 -1.756 -3.074 -4.493 -10.4535 -7.680501 -1.756 -6.442 -3.5155 -7.680501 -1.756 -7.4885 -3.4425 0 
-6.360001 -4.7535 -2.95 -10.1525 -18.3953 -12.1176 -7.412 -5.687 -12.8625 -9.14 -4.566 -6.8595 -16.0599 -18.2506 -9.297501 -7.985 -10.1345 -12.0016 -9.297501 -9.3265 -11.5582 -3.4425 
-7.793 -4.7535 -14.0361 -18.3953 -22.3489 -16.0996 -8.2505 -15.7266 -13.8315 -12.329 -8.7665 -18.6126 -23.857 -19.8676 -15.8563 -12.0147 -18.7658 -13.6186 -17.1978 -13.4996 -11.5582 
-7.793 -16.1976 -22.2789 -22.3489 -26.3309 -16.9381 -18.8973 -16.6956 -17.0205 -16.5295 -20.6496 -26.4097 -25.474 -26.4264 -19.886 -20.646 -20.3828 -21.5189 -21.3709 -13.4996 
-19.3847 -24.4404 -26.2325 -26.3309 -27.1694 -27.5849 -19.8663 -19.8846 -21.221 -28.4126 -28.4467 -28.0267 -32.0328 -30.4561 -28.5173 -22.263 -28.2831 -25.692 -21.3709 
-3.321 -2.925 -3.0465 -4.299 -1.7695 -7.4885 -1.756 -4.493 -8.737 -3.59 
-5.154 -5.1415 -8.710001 -6.4355 -10.361 -8.7505 -5.8105 -14.3434 -12.856 
-7.049 -10.259 -10.9505 -15.471 -11.623 -13.1912 -15.9227 -18.4624 
-12.3491 -12.4995 -19.986 -16.733 -16.0637 -23.3034 -20.0417 
-14.5896 -21.535 -21.248 -21.1737 -26.1759 -27.4224 
