-4.759 
n/a 
n/a 
n/a 
n/a 
-4.759 
n/a 
n/a 
n/a 
n/a 
-4.759 
n/a 
n/a 
n/a 
n/a 
-4.759 
n/a 
n/a 
n/a 
n/a 
-4.7455 0 -2.846 -6.557 -5.0955 
-4.7455 -2.846 -9.332001 -10.329 
-8.532001 -9.332001 -13.9112 
-15.126 -13.9112 
-19.7052 
-4.7455 -2.846 -5.1845 -5.74 -3.397 -3.452 
-8.532001 -8.172001 -5.7465 -9.906 -6.251 
-13.966 -9.335501 -9.910501 -10.1 
-15.1295 -13.5057 -10.1035 
-19.2997 -13.6987 
-8.1385 -6.557 -3.397 -3.452 
-15.3825 -9.9925 -6.251 
-19.768 -10.0365 
-19.812 
n/a 
-4.7455 -2.846 -5.1845 -5.74 -3.397 -3.452 
-8.532001 -8.172001 -5.7465 -9.906 -6.251 
-13.966 -9.335501 -9.910501 -10.1 
-15.1295 -13.5057 -10.1035 
-19.2997 -13.6987 
