-4.759 
n/a 
n/a 
n/a 
n/a 
-4.759 
n/a 
n/a 
n/a 
n/a 
-4.759 
n/a 
n/a 
n/a 
n/a 
-4.759 
n/a 
n/a 
n/a 
n/a 
-2.264 -1.4985 -3.498 -1.7565 -3.091 -5.128 0 -2.264 -3.5195 -4.859 -5.306 0 -2.9805 -4.518 -8.505 -6.6585 -1.756 -3.251 -1.8085 -5.069 -2.264 -1.4985 -3.8845 -2.9705 -2.186 -5.139 -2.3345 -1.4985 -4.1115 -3.4715 0 -3.183 -3.115 -3.8375 0 0 
-2.9195 -4.0295 -4.005 -4.0655 -7.812 -5.128 -2.264 -4.863 -6.521501 -9.8125 -5.306 -2.9805 -6.243 -14.0712 -10.907 -8.421 -4.834 -4.1695 -6.650001 -6.495 -2.9195 -5.2735 -6.8765 -3.89 -6.0175 -5.2295 -3.233 -4.843 -6.271 -3.4715 -3.183 -4.7715 -8.049 -3.8375 0 
-6.0295 -4.188 -6.116 -8.750501 -7.812 -6.587501 -4.863 -7.3005 -12.3236 -9.8125 -7.566 -6.243 -16.229 -16.4732 -12.6695 -10.2285 -5.641 -9.363 -7.0655 -6.948 -6.496 -7.785 -7.634501 -7.373001 -6.06 -6.251 -5.7655 -7.386001 -6.271 -6.822001 -4.7715 -10.4425 -8.049 -3.8375 
-6.284501 -6.153501 -11.5314 -8.750501 -10.1265 -10.494 -7.3005 -13.2542 -12.3236 -12.0725 -11.4035 -16.229 -18.631 -18.2357 -14.477 -12.2257 -11.0251 -10.751 -7.541501 -11.0251 -8.914001 -8.5375 -10.253 -7.408501 -7.052001 -8.089001 -8.883 -7.386001 -9.641001 -8.101 -10.4425 -10.4425 -8.049 
-7.969501 -11.6763 -11.5314 -11.1534 -14.1416 -12.9315 -13.2542 -13.2542 -14.5836 -15.91 -21.3895 -18.631 -20.3935 -20.0432 -16.4742 -17.6098 -12.4131 -11.227 -11.7576 -13.4431 -9.514001 -11.3032 -10.2725 -8.325001 -8.8575 -11.7965 -8.883 -10.503 -10.9732 -13.9692 -10.4425 -10.4425 
-1.934 -5.306 0 -2.5045 -1.4985 -3.498 -1.7565 -3.091 -4.533 -1.934 -3.8735 -2.9805 -4.101 -1.7695 -7.053 0 -3.0365 -2.9805 -6.87 -2.264 -1.8085 -3.8845 -4.99 -1.934 -4.1115 -2.0935 -3.54 -3.4795 0 
-6.5415 -5.306 -2.5045 -3.1915 -4.0295 -4.005 -4.0655 -6.332 -6.2095 -4.885 -6.729 -5.2985 -4.6905 -8.283501 -7.053 -3.0365 -5.6105 -7.918 -7.693 -3.5925 -5.4845 -8.9285 -5.477 -6.27 -6.535 -5.122 -5.272 -3.4795 
-6.5415 -7.6415 -3.1915 -4.454 -4.188 -6.116 -7.2315 -7.769 -8.8065 -7.1955 -9.0485 -5.869 -10.647 -8.283501 -9.984001 -5.6105 -10.181 -8.841001 -9.385501 -6.7225 -10.0095 -9.5305 -9.378 -8.991001 -8.3015 -6.2155 -5.272 
-8.366 -8.314 -4.454 -4.526 -6.153501 -8.2705 -8.719501 -10.4505 -11.3288 -9.4835 -9.483001 -12.1089 -10.647 -10.586 -12.9824 -10.181 -11.104 -10.5535 -12.6337 -11.4895 -10.591 -13.5349 -12.711 -11.1469 -9.390501 -6.2155 
-8.7425 -10.2375 -4.526 -6.578 -8.2875 -9.729 -11.4836 -12.9728 -13.6168 -9.9875 -15.7595 -12.1089 -12.9495 -13.5844 -17.5529 -11.104 -12.8165 -13.8017 -17.4007 -12.071 -14.5954 -16.8679 -14.8669 -12.2359 -9.390501 
-3.2615 -4.955 -3.091 -3.5285 -2.5045 -7.053 -1.934 -3.5195 -3.1475 -5.306 0 -2.9805 -4.0325 -2.264 -1.8085 -3.8845 -1.756 -6.87 -2.0935 -3.54 -3.4795 
-5.794 -6.541501 -7.089 -6.4775 -8.7995 -9.0015 -5.009 -5.6965 -7.9305 -5.306 -2.9805 -6.121 -5.960001 -3.5925 -5.4845 -5.239 -7.8435 -8.1975 -5.122 -5.272 
-6.9385 -11.4591 -9.799 -13.4219 -10.396 -12.5579 -7.992 -9.332001 -7.9305 -7.566 -6.121 -7.1435 -6.831 -6.7225 -6.457 -10.5975 -9.026501 -9.6435 -6.2155 
-12.0499 -14.1691 -16.9266 -15.0184 -13.9524 -15.5409 -12.2619 -9.332001 -10.155 -11.2815 -7.1435 -7.9715 -8.463501 -7.7695 -12.3375 -11.7805 -10.2485 -10.0145 
-14.7599 -21.2967 -18.5231 -18.5748 -16.9354 -19.8108 -12.2619 -11.7223 -13.9163 -12.304 -7.9715 -9.580001 -9.159 -13.452 -13.5205 -13.0025 -10.7453 
-2.5045 -1.4985 -3.498 -1.7565 -3.091 -4.533 -2.264 -3.5195 -3.1475 0 -4.5255 -2.9805 -4.101 -12.16972 -2.9805 -6.87 -2.264 -3.8845 -3.54 -3.4795 -2.186 -4.06 -3.307 -1.7565 -1.4985 -4.1115 -3.0365 0 
-3.1915 -4.0295 -4.005 -4.0655 -6.332 -6.6335 -4.863 -5.6965 -3.1475 -4.5255 -6.814 -5.2985 -18.02912 -15.15022 -7.918 -7.693 -6.409 -7.929001 -5.272 -5.9865 -4.672 -8.318001 -4.8035 -2.4195 -4.843 -7.0505 -3.0365 
-4.454 -4.188 -6.116 -7.2315 -8.16 -9.3125 -6.632501 -5.6965 -7.1045 -6.814 -8.960501 -19.55342 -21.00962 -20.08772 -8.841001 -12.4194 -10.5425 -9.314501 -7.689 -9.238501 -8.9925 -9.1745 -5.2765 -5.5165 -7.379 -7.0505 
-4.526 -6.153501 -8.2705 -9.092 -10.459 -10.3355 -6.632501 -9.074501 -10.0095 -8.960501 -23.92962 -22.53392 -25.94712 -21.01072 -13.7146 -16.5529 -11.928 -12.4587 -11.1804 -13.8258 -10.0385 -9.801501 -8.653501 -8.102 -7.379 
-6.578 -8.2875 -10.0995 -11.601 -10.688 -10.3355 -9.577001 -12.1123 -12.2106 -23.92962 -26.91012 -27.47142 -26.87012 -25.88432 -17.8481 -17.9384 -15.0722 -15.9501 -15.7677 -14.8718 -10.417 -13.2403 -11.807 -8.102 
