-4.759 
n/a 
n/a 
n/a 
n/a 
-4.759 
n/a 
n/a 
n/a 
n/a 
-4.759 
n/a 
n/a 
n/a 
n/a 
-4.759 
n/a 
n/a 
n/a 
n/a 
-1.4985 -3.616 -4.176 -2.7415 -6.9115 0 
-4.8055 -6.547501 -6.5725 -8.894 -6.9115 
-7.447001 -8.7185 -13.473 -8.894 
-9.324 -15.8256 -13.473 
-16.5119 -15.8256 
-3.433 -1.7565 -2.3615 -3.616 -4.176 -4.1665 -2.7415 -10.2665 0 
-4.1845 -3.523 -6.429501 -6.547501 -8.326 -6.2155 -14.3738 -10.2665 
-5.5485 -7.7 -9.765 -11.2211 -10.2235 -18.2926 -14.3738 
-9.472 -11.2249 -14.4386 -13.1186 -22.3006 -18.2926 
-13.0155 -15.8985 -16.3361 -25.1957 -22.3006 
-3.851 -1.7695 -2.3615 -1.4985 -3.616 -4.176 -4.931 -2.7415 -5.2645 0 
-4.0015 -3.736 -4.913 -4.8055 -6.547501 -8.74 -7.027 -6.613501 -5.2645 
-6.14 -6.1655 -8.232 -7.447001 -9.611501 -11.3264 -10.01 -6.613501 
-7.62 -9.522 -11.0031 -10.994 -12.6881 -14.3094 -10.01 
-11.0793 -12.3091 -14.5501 -14.0706 -15.6711 -14.3094 
-3.433 -1.7565 -2.3615 -2.925 -5.0495 -1.4985 -3.616 -4.176 -4.931 
-4.1845 -3.523 -5.8255 -7.404 -6.406001 -4.8055 -6.547501 -8.74 
-5.5485 -6.8675 -10.281 -8.015 -9.822001 -7.447001 -9.611501 
-7.33 -11.4996 -10.892 -10.2805 -12.6991 -10.994 
-12.1709 -12.1106 -13.1575 -13.6076 -16.2461 
