-4.759 
n/a 
n/a 
n/a 
n/a 
-4.759 
n/a 
n/a 
n/a 
n/a 
-4.759 
n/a 
n/a 
n/a 
n/a 
-4.759 
n/a 
n/a 
n/a 
n/a 
-2.9805 -2.186 -1.4985 -3.098 -4.1865 -3.0695 -3.9955 -3.1495 -3.2495 -3.9035 0 
-4.1635 -3.339 -4.123 -7.539 -7.288 -5.72 -7.7575 -4.8975 -6.783 -3.9035 
-5.312 -4.9155 -7.841001 -9.254 -9.9055 -9.212501 -9.227 -8.392 -6.783 
-6.592 -8.400001 -9.272 -12.2815 -13.465 -10.7824 -9.984 -8.392 
-9.4455 -10.243 -12.3087 -15.841 -15.0349 -11.5394 -9.984 
-2.9805 -2.186 -1.4985 -3.0835 -4.1865 -1.7695 -3.0465 -3.1495 -3.9035 
-4.1635 -3.339 -3.535 -7.092501 -7.28 -3.683 -5.76 -6.3755 
-5.312 -4.8925 -7.2605 -8.1145 -9.0975 -6.0085 -9.258 
-6.942 -8.219 -8.159 -9.626 -11.6508 -9.613 
-9.34 -9.156501 -9.704 -12.3951 -15.2553 
-3.1495 -3.9035 -3.9955 -2.3345 -1.4985 -3.0835 -4.1865 
-6.3755 -6.96 -5.7745 -3.233 -3.535 -7.092501 
-10.1765 -7.4295 -6.5675 -5.7815 -7.2605 
-10.7405 -8.438001 -8.717501 -9.743 
-11.749 -10.8018 -13.2622 
-2.9805 -2.7415 -1.4985 -3.0835 -4.1865 -3.0695 -3.7555 -2.3615 -3.2495 -3.9035 
-4.004 -4.063 -3.535 -7.092501 -7.288 -5.774 -5.523 -5.9175 -6.783 
-5.390501 -5.12 -7.2605 -9.686001 -9.925 -7.901 -9.2015 -10.3256 
-6.419001 -8.219501 -9.727 -12.3562 -12.052 -11.6611 -13.8228 
-8.880501 -10.381 -12.4012 -14.4832 -15.8121 -16.2824 
