-4.759 
n/a 
n/a 
n/a 
n/a 
-4.759 
n/a 
n/a 
n/a 
n/a 
-4.759 
n/a 
n/a 
n/a 
n/a 
-4.759 
n/a 
n/a 
n/a 
n/a 
-3.17 -3.1385 -1.7695 -3.3785 -1.4985 -4.6895 -3.432 
-4.946 -4.6115 -4.1685 -4.6165 -5.682 -6.6195 
-6.956501 -6.619 -5.3175 -9.389501 -7.173 
-9.125501 -7.8735 -9.910001 -10.9993 
-10.281 -12.7736 -11.6132 
0 -1.4985 -2.9825 -2.9705 -2.186 -4.6225 -2.3345 -2.871 -3.6765 -2.882 -5.3305 -4.1375 -2.915 0 -1.756 -2.3335 -2.882 -2.489 -4.2735 -4.9665 -2.5195 -1.4985 -3.237 -3.383 -4.021 0 0 -2.3615 -2.7415 -1.4985 -3.992 -1.7565 -1.4985 -3.3785 -3.237 -3.0695 -3.322 -1.4985 -3.992 -1.7565 -6.396 0 
-1.4985 -4.039001 -5.7605 -3.89 -5.717 -5.382501 -4.9425 -5.168 -5.729 -7.079 -9.783001 -6.901 -2.915 -1.756 -4.016 -4.5385 -3.631 -6.298 -9.4735 -7.254001 -3.1695 -4.1875 -7.8745 -5.7425 -4.021 0 -2.3615 -4.455 -4.063 -5.2675 -5.2285 -2.4195 -4.4495 -4.9495 -6.542 -5.9995 -4.2895 -5.2675 -5.2285 -8.507 -6.396 
-4.039001 -6.628 -6.4475 -7.410501 -6.5035 -8.241501 -6.7055 -7.1305 -9.943001 -12.1247 -10.4375 -6.901 -4.266 -4.016 -6.5235 -4.95 -7.803 -12.4806 -11.9508 -8.0935 -5.749 -8.2965 -8.814501 -5.7425 -4.021 -2.3615 -4.455 -5.3025 -7.622001 -5.5385 -5.6125 -5.316 -5.3265 -7.3795 -9.311501 -6.8985 -7.4065 -5.5385 -12.8674 -8.507 
-6.628 -7.306001 -10.0345 -7.888 -9.197001 -9.801001 -9.0745 -11.8769 -14.9887 -12.7792 -10.4375 -8.156 -6.7935 -6.5235 -6.955 -9.072001 -14.1572 -14.9579 -12.7903 -11.2352 -9.742001 -9.1745 -8.814501 -5.7425 -6.4735 -4.455 -5.3025 -8.464001 -7.7 -5.796 -8.103001 -6.278 -7.411 -10.111 -9.851 -10.085 -8.571501 -13.6568 -12.8674 
-7.306001 -11.008 -10.538 -10.041 -10.9633 -12.4762 -14.0875 -16.9226 -15.6432 -12.7792 -11.6925 -9.818001 -9.054501 -6.955 -11.4928 -15.6414 -16.6345 -15.7974 -15.932 -15.2282 -10.8642 -9.1745 -8.814501 -7.741 -8.219001 -5.3025 -8.464001 -8.5365 -8.073001 -8.222501 -8.703 -7.875501 -10.138 -10.6505 -13.1301 -11.4004 -16.9954 -13.6568 
-3.17 -1.7565 -1.4985 -3.1385 -3.3785 -1.4985 -4.1145 -2.5045 -3.0835 -2.95 -2.847 -2.871 -3.8755 -1.4985 -3.4605 -2.915 -4.2735 -4.504 -2.5045 -4.1975 0 
-4.179 -2.4195 -4.2575 -5.7395 -4.6165 -5.3525 -7.0645 -4.934 -4.3945 -5.7555 -4.4675 -7.0725 -5.275 -4.652 -6.2065 -6.817 -8.67 -5.1795 -6.845 -4.1975 
-4.497 -5.013 -7.4075 -7.0335 -9.092501 -7.802 -9.5765 -7.661 -7.534 -7.0015 -8.8625 -8.7375 -8.092 -7.395 -10.8589 -11.7223 -10.2135 -8.642 -6.845 
-6.2035 -8.580501 -8.481501 -11.7547 -11.8336 -10.322 -12.5221 -10.9275 -8.789001 -11.7417 -9.7275 -11.7393 -11.0122 -12.9824 -15.7642 -13.2658 -13.676 -8.642 
-9.014501 -9.7045 -13.4283 -14.4958 -14.3536 -13.3246 -15.7886 -12.1825 -13.5774 -12.6067 -12.8937 -14.6595 -16.5996 -17.8877 -17.3077 -16.7283 -13.676 
-3.034 -1.4985 -3.1385 -3.9205 -1.4985 -4.1145 -3.998 0 -2.9705 -2.186 -1.8085 -3.6385 -4.3325 -1.8085 -3.4605 -2.9705 -2.186 -1.8085 -2.6165 -3.2955 -4.3685 -2.915 0 
-3.947 -4.2575 -7.269001 -5.912001 -5.3525 -9.2825 -3.998 -2.9705 -3.89 -3.164 -4.581 -8.681 -6.923 -4.9875 -5.989 -3.89 -3.164 -5.405 -5.259501 -8.2665 -6.996 -2.915 
-6.6475 -8.3985 -9.691501 -10.7335 -10.259 -9.2825 -6.827001 -3.89 -4.9965 -6.032 -10.096 -10.6475 -10.3516 -6.9215 -6.681 -4.9965 -6.1175 -8.2045 -10.228 -10.418 -6.996 
-11.1761 -10.9626 -14.708 -15.64 -10.259 -12.2265 -7.6495 -4.9965 -8.6645 -12.165 -12.3591 -14.0761 -12.2856 -7.823501 -8.047501 -8.1695 -9.814501 -13.2646 -12.3795 -10.418 
-13.7402 -15.9791 -19.6145 -15.64 -13.203 -13.049 -8.941001 -8.6645 -15.0373 -14.4281 -15.7877 -16.0101 -13.1876 -9.185 -11.5267 -11.4833 -15.0866 -15.4161 -12.3795 
