-4.759 
n/a 
n/a 
n/a 
n/a 
-4.759 
n/a 
n/a 
n/a 
n/a 
-4.759 
n/a 
n/a 
n/a 
n/a 
-4.759 
n/a 
n/a 
n/a 
n/a 
-3.851 -1.7695 -4.8615 -1.934 -4.448 -3.091 -3.4005 0 -8.445001 -3.918 -1.934 -3.091 -5.0225 -2.229 -4.98 -3.5665 -2.5045 -1.8085 -4.6245 0 
-4.0015 -6.961 -5.78 -6.3555 -6.828001 -6.4455 -3.4005 -8.445001 -13.0948 -6.013 -4.2105 -6.2495 -6.5155 -7.294 -8.262 -6.288 -3.3625 -5.915501 -4.6245 
-7.446 -7.3025 -9.026 -8.5135 -8.226501 -6.4455 -11.136 -13.0948 -15.1898 -8.0885 -7.988501 -7.1095 -12.0969 -8.775001 -10.76 -6.761 -7.317 -5.915501 
-7.73 -10.6801 -11.492 -9.748 -8.226501 -15.047 -15.7858 -15.1898 -17.2653 -12.1451 -8.094001 -12.8215 -13.5779 -11.728 -11.233 -11.6015 -7.317 
-11.2016 -13.1461 -12.7265 -9.748 -17.1046 -19.6968 -17.8808 -17.2653 -21.3219 -12.2506 -14.0876 -14.3025 -16.5309 -12.201 -16.0735 -11.6015 
-2.9805 -3.9535 -1.7695 -3.213 -1.934 -3.091 -5.0225 -2.229 -5.077 -3.6715 -3.034 -2.9805 -3.423 -5.651501 -3.956 -3.091 -5.437 0 
-5.607 -5.098001 -4.1345 -4.4465 -4.2105 -6.2495 -6.5155 -7.1455 -8.5235 -6.960501 -4.4605 -4.896501 -9.4665 -8.672501 -6.3875 -7.42 -5.437 
-6.528501 -6.795 -5.2645 -6.8915 -7.988501 -7.1095 -10.6095 -10.204 -12.1391 -8.2335 -6.8955 -8.808001 -12.524 -12.0095 -9.046 -7.42 
-8.002501 -7.9315 -7.5125 -9.38 -8.094001 -10.66 -13.668 -13.8196 -13.4121 -10.411 -10.848 -14.2714 -15.5665 -14.7952 -9.046 
-8.907001 -9.848001 -9.564501 -9.405001 -11.9261 -13.7185 -17.2836 -15.0926 -15.5896 -14.3635 -16.3102 -16.7453 -18.3056 -14.7952 
-3.2615 -2.9805 -3.423 -2.6165 -3.956 -3.091 -3.4005 0 -8.445001 -3.918 -1.7695 -3.213 -1.934 -3.091 -5.0225 -2.229 -4.98 -3.6715 0 
-5.2875 -4.896501 -4.4935 -6.193 -6.3875 -6.4455 -3.4005 -8.445001 -13.0948 -6.328 -4.1345 -4.4465 -4.2105 -6.2495 -6.5155 -7.294 -8.082001 -3.6715 
-8.4665 -5.744 -7.193 -8.4615 -7.785501 -6.4455 -11.136 -13.0948 -15.5048 -9.293501 -5.2645 -6.8915 -7.988501 -7.1095 -12.0969 -9.731 -8.082001 
-8.9195 -8.264001 -8.928 -9.700001 -7.785501 -15.047 -15.7858 -15.5048 -18.4703 -10.419 -7.5125 -9.38 -8.094001 -12.8215 -14.5339 -9.731 
-11.6555 -9.222501 -9.9175 -9.700001 -16.6912 -19.6968 -18.1958 -18.4703 -19.5958 -12.667 -9.564501 -9.405001 -14.0876 -15.2585 -14.5339 
-3.851 -1.7695 -3.135 -4.2895 -2.9805 -2.6165 -4.416 -2.186 -3.833 -12.16972 -5.0225 -3.7875 -5.168 -3.0415 -2.9805 -4.254 -3.0365 
-4.0015 -4.779 -6.575 -6.675 -5.981 -8.736 -7.5655 -8.099 -16.97612 -17.19222 -8.833 -10.932 -8.7985 -5.0885 -5.5985 -6.4875 
-6.268 -8.2405 -9.026001 -10.2755 -10.757 -11.8537 -13.8355 -21.75072 -21.99862 -21.00272 -16.0357 -14.5625 -11.0057 -8.09 -7.749001 
-8.277 -10.4945 -12.7529 -15.3985 -13.8747 -18.1237 -27.48722 -26.77322 -25.80912 -28.20542 -19.6662 -16.7697 -14.0072 -10.298 
-10.503 -14.2214 -17.8759 -18.5162 -20.1447 -31.77542 -32.50972 -30.58372 -33.01182 -31.83592 -21.8734 -19.7712 -16.2152 
