-4.759 
n/a 
n/a 
n/a 
n/a 
-4.759 
n/a 
n/a 
n/a 
n/a 
-4.759 
n/a 
n/a 
n/a 
n/a 
-4.759 
n/a 
n/a 
n/a 
n/a 
-1.934 -12.16972 -3.851 -1.7695 -3.8275 -3.1385 -5.7565 -1.756 -1.4985 -4.09 -3.383 -3.9555 -2.7415 -8.973001 0 
-15.11012 -16.02072 -4.0015 -5.686 -7.2735 -7.9635 -7.633 -3.0405 -5.988 -7.395 -5.706 -7.4195 -13.0803 -8.973001 
-18.96112 -16.17122 -7.606 -9.0535 -12.4453 -9.861 -8.814501 -7.6655 -9.7916 -8.9305 -8.954 -18.0961 -13.0803 
-19.11162 -19.77572 -11.3165 -14.3695 -14.3428 -11.0995 -13.5653 -11.4297 -11.3271 -12.4285 -19.9164 -18.0961 
-22.71612 -23.48622 -16.6325 -16.267 -15.5813 -15.8503 -17.3295 -12.9652 -14.8251 -23.3909 -19.9164 
-12.16972 -2.186 -1.4985 -2.871 -1.7565 -1.4985 -3.2875 -2.9705 -2.7415 -5.123 -4.164 -3.851 -1.7695 -1.4985 -4.4115 -1.7565 -3.1385 -1.934 -1.4985 -6.6585 0 
-14.35572 -3.339 -4.316 -3.5385 -2.4195 -4.127 -6.257 -4.512 -7.2005 -6.8775 -7.039001 -4.0015 -2.7955 -5.647 -5.553 -4.388 -4.522 -2.6125 -9.0305 -6.6585 
-15.50872 -5.399 -6.0265 -3.7675 -4.8825 -6.712501 -7.3615 -9.036 -8.704 -9.4355 -7.051 -4.5775 -6.9915 -6.172 -9.378 -5.585501 -5.087501 -10.0475 -9.0305 
-17.56872 -6.9585 -6.275001 -6.5405 -7.278 -7.803 -12.1705 -10.5091 -11.6362 -9.4405 -7.654 -8.301001 -7.3675 -9.7895 -10.383 -6.1025 -13.2001 -10.0475 
-19.12822 -7.1485 -9.328501 -10.7595 -8.269501 -12.6556 -13.6436 -13.4413 -11.6412 -9.861 -11.5351 -8.369 -11.1516 -10.8503 -10.9 -14.1999 -13.2001 
-1.4985 -3.383 -3.9555 -4.09 -3.2875 -2.7415 -12.16972 0 
-4.554501 -5.706 -8.814501 -8.141001 -5.934 -16.27702 -12.16972 
-7.633 -10.316 -13.0137 -11.1325 -19.82452 -16.27702 
-12.4436 -14.7948 -16.0052 -25.02302 -19.82452 
-16.9224 -17.7863 -29.89572 -25.02302 
-8.973001 -2.186 -2.871 -1.7565 -1.4985 -4.167 -2.9705 -3.251 -4.09 -3.383 -3.9555 -3.851 -1.7695 -1.4985 -5.288 -1.7565 -3.1385 -3.433 -1.7565 -3.8275 -1.934 -4.628 -4.743 0 
-11.4386 -4.247 -3.5385 -2.4195 -5.5465 -6.877 -5.153 -6.222 -7.395 -5.706 -7.856 -4.0015 -2.7955 -6.3 -6.152 -4.388 -6.2115 -4.1845 -4.8265 -5.2615 -5.9605 -4.7515 -4.743 
-13.4996 -4.411 -3.7675 -6.373001 -7.769501 -8.436501 -7.877501 -8.805 -8.9305 -8.709001 -7.877 -4.5775 -7.491001 -6.693501 -7.8375 -7.378001 -6.9135 -7.835 -6.421 -7.899 -5.9845 -4.7515 
-13.6636 -4.5655 -7.3845 -8.441001 -9.1955 -11.1998 -10.6749 -10.7335 -12.1835 -8.7235 -8.3455 -8.499001 -7.756501 -8.429001 -10.3885 -7.965501 -10.0095 -9.392 -8.915501 -7.9015 -5.9845 
-13.8181 -8.2965 -9.351 -9.85 -12.036 -13.9972 -12.6034 -13.9865 -12.198 -9.127501 -12.352 -8.601501 -9.441501 -11.1212 -10.4625 -10.532 -11.7751 -12.0005 -8.92 -7.9015 
