-4.759 
n/a 
n/a 
n/a 
n/a 
-4.759 
n/a 
n/a 
n/a 
n/a 
-4.759 
n/a 
n/a 
n/a 
n/a 
-4.759 
n/a 
n/a 
n/a 
n/a 
-10.7545 0 -4.8955 0 -1.756 -5.209 -9.3395 -2.4945 -1.4985 -3.17 -4.4695 -4.5375 -3.881 -2.3345 -3.595 -2.9705 -2.186 -3.9595 -2.5045 -1.8085 -3.7955 0 
-10.7545 -4.8955 -4.8955 -1.756 -7.0165 -15.1433 -12.2572 -3.9315 -3.7115 -5.473001 -7.5995 -7.055 -4.5275 -5.597 -6.3865 -3.89 -5.2155 -5.597 -3.3625 -5.1665 -3.7955 
-16.1244 -4.8955 -6.6595 -7.0165 -17.5734 -18.061 -13.6942 -5.324 -5.7745 -8.211 -9.603001 -7.222001 -7.4505 -7.919 -7.113501 -7.0645 -6.548501 -6.095 -6.917 -5.1665 
-16.1244 -6.6595 -12.6166 -17.5734 -20.4911 -19.498 -15.0867 -7.725 -9.387001 -10.322 -9.832 -10.2695 -9.478001 -8.557 -10.8476 -8.1595 -7.147 -10.228 -6.917 
-17.8884 -12.6166 -23.1735 -20.4911 -21.9281 -20.8905 -17.4877 -11.6801 -12.0424 -10.713 -12.8795 -12.297 -10.5335 -12.5923 -11.9426 -8.754001 -11.2918 -10.228 
-1.4985 -3.2825 -4.5375 -10.4215 0 -5.3495 0 0 -4.8955 0 -1.756 -6.388 -9.3395 0 -2.871 -3.7465 0 -2.7415 -3.1125 -3.9595 -2.5045 -4.3225 0 
-3.712 -7.099501 -15.8272 -10.4215 -5.3495 -5.3495 0 -4.8955 -4.8955 -1.756 -8.689501 -16.0947 -9.3395 -2.871 -5.422 -3.7465 -2.7415 -7.131001 -5.4645 -5.597 -7.462001 -4.3225 
-7.8395 -19.1012 -15.8272 -16.0214 -5.3495 -5.3495 -4.8955 -4.8955 -6.6595 -8.689501 -18.5182 -16.0947 -12.6337 -5.422 -5.422 -5.974501 -7.131001 -9.335 -7.2295 -11.2963 -7.462001 
-20.5932 -19.1012 -21.4271 -16.0214 -5.3495 -10.4945 -4.8955 -6.6595 -14.2896 -18.5182 -18.5182 -19.3889 -15.1847 -5.422 -8.1425 -10.7362 -9.335 -11.2118 -13.1862 -11.2963 
-20.5932 -24.7011 -21.4271 -16.0214 -10.4945 -10.4945 -6.6595 -14.2896 -24.1183 -18.5182 -21.8124 -21.9399 -15.1847 -8.1425 -13.0496 -12.9402 -11.2118 -17.1685 -13.1862 
-3.091 -3.6975 -5.1105 -10.4215 0 -4.8955 0 -1.756 -6.3665 -9.023001 -3.152 -3.43 -2.5045 -4.3225 0 
-6.8785 -7.7565 -16.603 -10.4215 -4.8955 -4.8955 -1.756 -8.738001 -15.6947 -12.36 -5.144 -5.7385 -7.462001 -4.3225 
-9.559 -19.6306 -16.603 -15.5674 -4.8955 -6.6595 -8.738001 -18.2932 -19.0317 -14.352 -7.134 -10.304 -7.462001 
-21.4283 -19.6306 -21.7489 -15.5674 -6.6595 -14.3381 -18.2932 -21.6302 -21.0237 -16.342 -11.7399 -10.304 
-21.4283 -24.7765 -21.7489 -17.3314 -14.3381 -23.8933 -21.6302 -23.6222 -23.0137 -20.9479 -11.7399 
-3.091 -5.1105 -3.115 -12.16972 -1.756 -5.976501 -9.023001 -2.7415 -4.296 -2.5045 -1.8085 -3.8195 
-6.85 -7.627001 -16.06032 -13.92572 -7.4685 -11.142 -11.9495 -5.78 -6.352 -3.3625 -5.3355 
-9.304001 -20.61532 -17.81632 -19.63822 -13.1612 -14.0685 -14.988 -7.409 -6.8335 -6.8725 
-22.37752 -22.37132 -23.52882 -25.33092 -16.0877 -17.107 -16.617 -7.8235 -9.347 
-24.13352 -28.08382 -29.22152 -28.25742 -19.1262 -18.736 -17.0315 -9.974501 
