-4.759 
n/a 
n/a 
n/a 
n/a 
-4.759 
n/a 
n/a 
n/a 
n/a 
-4.759 
n/a 
n/a 
n/a 
n/a 
-4.759 
n/a 
n/a 
n/a 
n/a 
-4.628 -5.939 -3.915 -4.698 -3.4605 
-5.9615 -9.144 -9.1295 -7.592501 
-9.1575 -14.6501 -9.890501 
-14.672 -15.4111 
-15.433 
-6.899 -3.972 -10.526 -2.9825 0 
-10.7665 -15.965 -13.5085 -2.9825 
-22.7595 -18.9475 -13.5085 
-25.742 -18.9475 
-25.742 
-6.899 -3.915 -4.698 -4.1375 
-11.8244 -9.1295 -9.3055 
-17.0389 -13.9768 
-21.8862 
n/a 
-6.6585 -2.229 -4.698 -4.285 -3.4425 
-9.037001 -6.5705 -9.2355 -7.096001 
-13.6199 -11.5896 -12.2399 
-18.639 -14.594 
-21.6434 
