-4.759 
n/a 
n/a 
n/a 
n/a 
-4.759 
n/a 
n/a 
n/a 
n/a 
-4.759 
n/a 
n/a 
n/a 
n/a 
-4.759 
n/a 
n/a 
n/a 
n/a 
-2.3085 -3.0805 -1.4985 -5.699 -3.8905 
-3.7245 -4.9235 -6.181001 -6.5195 
-5.3305 -8.539001 -7.358001 
-8.583 -8.8055 
-8.8085 
-2.5685 -1.7565 -3.4155 -3.8905 -3.1405 
-3.887 -5.0175 -6.766 -7.866 
-8.0935 -9.3935 -10.4185 
-12.9461 -13.0752 
-16.6278 
-2.3085 -3.0805 -1.4985 -5.699 -3.8905 
-3.7245 -4.9235 -6.181001 -6.5195 
-5.3305 -8.539001 -7.358001 
-8.583 -8.8055 
-8.8085 
-4.374 -3.4155 -3.8905 
-7.918 -6.766 
-11.6135 
n/a 
n/a 
