-4.759 
n/a 
n/a 
n/a 
n/a 
-4.759 
n/a 
n/a 
n/a 
n/a 
-4.759 
n/a 
n/a 
n/a 
n/a 
-4.759 
n/a 
n/a 
n/a 
n/a 
-5.6045 -3.519 -3.0465 -4.617 0 
-10.287 -6.679 -6.979 -4.617 
-13.447 -11.4665 -6.979 
-18.2345 -11.4665 
-18.2345 
-4.357 -3.432 -3.991 -3.3255 -5.6045 0 
-8.6495 -6.9975 -6.8475 -8.238501 -5.6045 
-12.7194 -9.751501 -12.2253 -8.238501 
-15.4734 -15.1211 -12.2253 
-20.843 -15.1211 
-3.8255 -7.734501 -3.3255 -5.6045 -3.2 0 
-9.612 -7.963 -8.238501 -9.408501 -3.2 
-10.847 -10.837 -12.7099 -9.408501 
-13.5333 -15.5212 -12.7099 
-18.0047 -15.5212 
-3.3255 -5.6045 -3.2 -4.357 -3.4155 
-8.238501 -9.408501 -7.2545 -6.962501 
-12.7099 -13.4896 -10.1345 
-16.791 -16.3696 
-19.671 
