-4.759 
n/a 
n/a 
n/a 
n/a 
-4.759 
n/a 
n/a 
n/a 
n/a 
-4.759 
n/a 
n/a 
n/a 
n/a 
-4.759 
n/a 
n/a 
n/a 
n/a 
-2.5045 -3.543 -1.4985 -3.5125 -1.7565 -4.348 0 -1.934 -4.795 -4.153 0 -6.876 -1.7565 -4.318 -5.4175 -10.5165 -7.1525 -4.5055 -7.1515 -6.636 -8.8575 -4.0555 -1.7695 -2.3615 -3.8375 
-5.323 -5.62 -4.7015 -4.312 -5.8355 -4.348 -1.934 -7.2925 -6.281 -4.153 -6.876 -7.646 -5.717 -8.217501 -16.9764 -18.1054 -12.2444 -12.7244 -14.4287 -15.9287 -13.559 -4.7475 -3.736 -6.362 
-5.8685 -9.5115 -4.846 -8.075001 -5.8355 -6.7025 -7.2925 -7.979001 -6.281 -11.9116 -7.646 -12.2269 -9.6555 -20.0998 -24.5653 -23.1973 -20.4633 -20.0016 -23.7214 -20.6302 -14.251 -6.3035 -7.66 
-9.856501 -9.858001 -8.7295 -8.075001 -7.667 -12.7712 -7.979001 -7.979001 -14.5488 -12.6816 -12.2269 -16.1654 -21.6064 -27.6887 -29.6572 -31.4162 -27.7405 -29.2943 -28.4229 -21.3222 -15.807 -8.8795 
-10.15 -13.7585 -8.7295 -9.3325 -13.9029 -13.4577 -7.979001 -16.6764 -15.3188 -17.2625 -16.1654 -28.1163 -29.1953 -32.7806 -37.8761 -38.6934 -37.0332 -33.9958 -29.1149 -22.8782 -18.383 
-2.5045 -3.543 -5.693 -3.5125 0 -4.795 -4.153 -6.04 -5.693 -4.5055 -4.0905 -6.636 -8.8575 -4.0875 -4.8715 -1.934 -2.3615 -3.8375 -3.5455 -8.888 -4.433 
-5.323 -11.046 -9.189 -3.5125 -4.795 -6.281 -10.3165 -9.6815 -9.406501 -8.125 -9.585501 -15.9287 -13.591 -7.6035 -6.247 -3.539 -6.362 -7.1515 -11.046 -10.9075 
-13.0992 -14.542 -9.189 -8.547501 -6.281 -12.9537 -13.958 -13.6816 -13.4036 -13.8456 -18.9782 -20.6622 -17.107 -7.9315 -8.353001 -7.635 -9.285 -15.1522 -13.0655 
-16.5952 -14.542 -14.3618 -8.955 -12.9537 -16.5952 -17.9581 -17.6787 -19.1242 -23.2383 -23.7117 -24.1782 -17.435 -9.842 -12.6798 -10.341 -17.3315 -17.1717 
-16.5952 -19.7148 -14.7693 -15.9819 -16.5952 -20.5953 -21.9552 -23.3993 -28.5169 -27.9718 -27.2277 -24.5062 -19.3455 -14.3904 -15.3858 -18.6557 -19.351 
-3.9345 -1.7695 -5.693 -3.5125 -1.934 -4.795 -4.153 -6.04 -2.229 -4.5055 -4.0905 -6.636 -8.8575 0 -2.7415 -5.34 -1.934 -5.5035 -1.756 -3.321 -2.9805 -8.160501 -2.3615 -3.8375 0 
-3.94 -7.936 -9.189 -5.445 -7.2925 -6.281 -10.3165 -7.873001 -6.826 -8.125 -9.585501 -15.9287 -8.8575 -2.7415 -6.837 -5.7895 -7.6285 -7.325001 -4.0055 -5.175 -9.526501 -10.2285 -6.362 -3.8375 
-9.8435 -11.851 -11.2593 -10.442 -7.979001 -12.9537 -12.1495 -13.0756 -10.2435 -13.8456 -18.9782 -15.9287 -12.245 -6.837 -7.2635 -12.3156 -9.492001 -9.434501 -5.921 -12.2342 -11.7331 -14.229 -6.362 
-13.7585 -13.9213 -16.2563 -11.1285 -15.0813 -14.7867 -17.3521 -16.4931 -16.8203 -23.2383 -18.9782 -19.3162 -16.3405 -7.2635 -14.1416 -14.1791 -11.7559 -11.4036 -13.027 -14.4408 -15.7336 -14.229 
-15.8288 -18.9183 -16.9428 -18.2308 -16.9143 -19.9893 -20.7696 -23.0699 -26.213 -23.2383 -22.3657 -23.4117 -16.767 -14.1416 -16.0051 -16.443 -13.725 -18.5096 -15.2336 -18.4413 -15.7336 
-1.934 -1.4985 -4.795 -4.153 -1.7565 -5.693 -3.5125 0 -10.5165 -5.693 0 -4.5055 -6.2865 -6.636 -9.283501 -2.186 -4.6295 -1.934 -1.4985 -4.318 -5.5035 -1.756 -5.015 -1.934 -1.4985 -3.8375 0 
-2.6125 -5.8135 -6.281 -5.909501 -7.3745 -9.189 -3.5125 -10.5165 -16.6459 -5.693 -4.5055 -11.8594 -13.3437 -16.3547 -12.1637 -6.302501 -5.492001 -2.6125 -5.587501 -10.0745 -7.325001 -6.224 -5.7995 -2.6125 -5.0225 -3.8375 
-6.819 -6.643 -9.153 -12.1961 -10.1265 -9.189 -15.0756 -16.6459 -16.6459 -9.406501 -11.8594 -18.9166 -23.0624 -19.2349 -16.2802 -6.928 -5.851501 -6.967 -11.553 -11.896 -12.2266 -7.0975 -6.368001 -6.5465 -5.0225 
-7.101 -9.311501 -15.7362 -14.9481 -10.1265 -20.8899 -21.205 -16.6459 -20.3594 -17.138 -18.9166 -28.6353 -25.9426 -23.3514 -16.9057 -7.370501 -9.641001 -13.3001 -13.3745 -16.7976 -13.1001 -7.6155 -9.76 -6.5465 
-9.7635 -15.9561 -18.4882 -14.9481 -21.8274 -27.0193 -21.205 -20.3594 -28.0909 -24.1952 -28.6353 -31.5155 -30.0591 -23.9769 -17.3482 -11.2456 -16.0317 -15.1216 -18.2761 -17.6711 -13.6181 -11.1501 -9.76 
