-4.759 
n/a 
n/a 
n/a 
n/a 
-4.759 
n/a 
n/a 
n/a 
n/a 
-4.759 
n/a 
n/a 
n/a 
n/a 
-4.759 
n/a 
n/a 
n/a 
n/a 
-2.925 -3.2955 -4.973 -3.433 -1.7695 -3.859 -7.641 0 
-5.588 -9.232 -10.2925 -5.0945 -4.462 -11.08 -7.641 
-10.468 -14.7143 -11.954 -7.383 -12.4334 -11.08 
-15.9503 -16.3758 -14.2425 -15.5634 -12.4334 
-17.6118 -18.6643 -22.4229 -15.5634 
-3.1435 -3.9005 -3.729 -3.6835 -3.074 -4.641 -2.264 -1.4985 -4.973 -4.205 -3.115 -3.17 -1.7565 -1.4985 -6.483 -5.894 0 
-6.471 -6.732 -7.465 -7.223001 -6.4855 -4.7885 -2.9195 -5.974501 -8.459 -7.666501 -5.534 -4.179 -2.4195 -7.096001 -9.497001 -5.894 
-8.8745 -11.8666 -10.434 -10.1345 -6.555501 -5.1915 -7.6155 -10.019 -12.2141 -9.536501 -6.2895 -4.497 -7.6 -10.813 -9.497001 
-14.4291 -14.8356 -13.6201 -10.2155 -6.908 -10.5745 -12.0456 -13.7741 -14.0841 -10.109 -6.6635 -10.4185 -11.5992 -10.813 
-17.3981 -18.0217 -13.7011 -10.6245 -12.376 -15.0046 -15.8007 -15.6441 -14.6566 -10.4505 -12.7766 -14.4177 -11.5992 
-2.3615 -4.4625 -3.115 -3.3715 -1.7565 -1.4985 -6.483 -12.16972 0 
-7.245501 -5.4225 -5.5935 -4.3215 -2.4195 -7.096001 -19.63452 -12.16972 
-7.667 -8.776 -6.382501 -4.7025 -7.6 -20.95052 -19.63452 
-11.4667 -9.413 -6.844501 -10.6735 -21.73672 -20.95052 
-12.1037 -9.5465 -13.0315 -24.81022 -21.73672 
-3.115 -3.17 -1.7565 -1.4985 -6.3385 -5.3315 -2.3615 -3.9005 -3.7075 -3.074 -4.9395 -1.7695 -4.973 -4.205 
-5.534 -4.179 -2.4195 -7.532001 -12.5992 -8.071 -6.328 -7.3135 -6.724501 -7.2445 -5.127501 -7.388501 -8.459 
-6.2895 -4.497 -8.374001 -14.0491 -15.3387 -12.2567 -8.8195 -10.6735 -11.6338 -7.324 -10.6735 -11.4933 
-6.6635 -9.93 -15.1205 -16.7886 -19.5244 -14.7482 -12.2849 -15.5828 -11.7133 -12.989 -14.7783 
-12.2881 -17.1801 -17.86 -20.9743 -22.0159 -18.2136 -17.1942 -15.6623 -17.3783 -17.0938 
