-4.759 
n/a 
n/a 
n/a 
n/a 
-4.759 
n/a 
n/a 
n/a 
n/a 
-4.759 
n/a 
n/a 
n/a 
n/a 
-4.759 
n/a 
n/a 
n/a 
n/a 
-2.5045 -1.8085 -4.114 -1.7565 -2.3335 -3.098 0 -2.4265 -2.186 -3.849 -2.5045 0 -3.5455 -4.4935 -3.8745 0 0 -3.929 -2.3335 -3.098 -2.186 -2.6165 -4.4715 -3.2955 -1.934 -2.3335 -3.4425 0 
-3.3625 -7.065001 -6.675 -4.314 -5.889 -3.098 -2.4265 -3.292 -4.8565 -6.305 -2.5045 -3.5455 -5.777 -7.429 -3.8745 0 -3.929 -5.62 -5.889 -4.7005 -3.5105 -7.26 -6.646 -4.2285 -4.359 -5.650001 -3.4425 
-8.3015 -9.318001 -9.5895 -6.7365 -5.889 -5.6325 -3.292 -5.872 -7.104 -6.305 -6.634501 -5.777 -8.389501 -7.429 -3.8745 -3.929 -5.62 -9.0015 -7.1295 -6.1605 -8.586 -10.082 -7.370501 -6.881 -5.9315 -5.650001 
-10.598 -12.2843 -12.0902 -6.7365 -7.764501 -6.6015 -5.872 -8.048 -7.104 -10.622 -9.01 -8.389501 -8.389501 -7.429 -8.211 -5.62 -9.0015 -9.495501 -8.339001 -11.749 -10.7335 -11.0319 -10.6735 -8.672 -5.9315 
-13.5643 -14.785 -12.0902 -8.620501 -8.489 -8.3345 -8.048 -8.048 -11.5508 -12.9975 -11.7951 -8.389501 -8.389501 -12.3179 -10.0394 -9.0015 -9.495501 -10.6615 -14.2175 -13.8965 -11.6834 -14.3349 -12.4645 -8.672 
-2.5045 -2.664 -2.8965 -3.098 -2.4265 -2.186 -3.849 -2.5045 -3.5455 -4.4935 -3.8375 
-4.074 -6.1405 -6.056 -5.6325 -3.292 -4.8565 -6.305 -6.634501 -5.777 -7.960501 
-7.628 -8.489 -8.036 -6.6015 -5.872 -7.104 -10.622 -9.01 -8.540501 
-10.335 -11.0114 -8.183001 -8.3345 -8.048 -11.5508 -12.9975 -11.9461 
-12.8574 -11.1584 -10.7595 -10.733 -12.523 -13.9263 -15.9336 
-2.3345 -1.4985 -3.4625 -1.4985 -3.098 0 -5.408 -3.845 -1.7565 -4.078 -2.6165 -3.0365 -3.757 -3.074 0 -3.5455 -4.4935 -2.186 -3.098 -2.5045 -4.0745 
-3.233 -4.940001 -4.474 -4.3095 -3.098 -5.408 -10.111 -4.13 -6.255001 -7.092 -5.528501 -7.728001 -7.02 -3.074 -3.5455 -5.777 -7.132501 -6.719 -5.4315 -6.4945 
-6.732 -6.658501 -6.237 -4.3095 -10.9075 -10.111 -10.68 -8.159 -8.827001 -10.822 -8.6435 -10.733 -7.02 -7.5315 -5.777 -8.123001 -11.9781 -9.1665 -9.924101 
-8.3465 -9.1415 -6.237 -12.6792 -15.6105 -10.68 -14.709 -10.575 -12.8762 -13.937 -12.8825 -10.733 -11.9965 -9.666 -8.123001 -13.0002 -14.4256 -13.8629 
-10.9781 -9.1415 -15.3631 -17.3822 -16.1795 -14.709 -17.125 -14.6242 -15.9912 -18.176 -12.8825 -15.7095 -14.131 -12.292 -13.0002 -15.4477 -19.122 
-3.1495 -3.4625 -1.7565 -3.098 -4.4695 -1.7565 -4.4715 -2.9645 -1.7695 -3.5455 -4.4935 -1.7565 -3.098 -1.7695 -3.8745 0 
-7.363 -4.9855 -5.764501 -7.971 -5.5145 -6.430501 -7.14 -4.905 -5.643 -5.777 -8.146 -5.764501 -5.051 -7.438001 -3.8745 
-9.009 -6.5745 -11.4013 -9.0765 -9.6985 -9.2538 -9.355 -10.061 -8.200001 -9.158501 -12.4032 -7.630501 -11.0755 -7.438001 
-10.9072 -12.8815 -12.5068 -13.4675 -12.5762 -11.4688 -14.5536 -12.618 -11.8685 -13.4407 -14.2692 -13.8662 -11.0755 
-17.2142 -13.987 -16.8978 -16.3452 -14.7912 -16.6674 -17.1106 -16.2865 -16.1507 -15.3067 -20.5049 -13.8662 
