-4.759 
n/a 
n/a 
n/a 
n/a 
-4.759 
n/a 
n/a 
n/a 
n/a 
-4.759 
n/a 
n/a 
n/a 
n/a 
-4.759 
n/a 
n/a 
n/a 
n/a 
-7.7895 -6.144 -3.8675 0 -4.3285 0 -4.1855 
-10.6215 -10.368 -3.8675 -4.3285 -4.3285 -4.1855 
-14.8455 -10.368 -8.885 -4.3285 -5.564 
-14.8455 -15.3855 -8.885 -5.564 
-19.863 -15.3855 -10.4855 
-12.16972 -5.3745 -4.891 -4.746 0 -8.514 
-17.54422 -7.061501 -10.9018 -4.746 -5.564 
-19.23122 -14.4645 -10.9018 -10.8005 
-26.63422 -14.4645 -16.9563 
-26.63422 -20.519 
-12.0375 -4.891 -12.3815 
-18.9201 -17.3945 
-31.7886 
n/a 
n/a 
-12.16972 -1.756 -6.144 -12.3815 
-13.92572 -8.08 -16.621 
-20.24972 -19.0306 
-31.20032 
n/a 
