-4.759 
n/a 
n/a 
n/a 
n/a 
-4.759 
n/a 
n/a 
n/a 
n/a 
-4.759 
n/a 
n/a 
n/a 
n/a 
-4.759 
n/a 
n/a 
n/a 
n/a 
-1.934 -3.5315 -3.133 0 -2.8845 0 -3.647 -3.3035 -4.651 -5.26 -4.7735 0 -4.788 -8.04 -4.1585 -2.3335 -3.034 -2.925 -4.8845 -1.934 -3.647 0 -2.925 -3.7555 -2.1715 -5.3505 -3.6395 -3.4515 -2.0935 -2.3335 -2.911 0 
-5.027 -5.5155 -3.133 -2.8845 -2.8845 -3.647 -7.416 -7.754 -10.8856 -10.513 -4.7735 -4.788 -9.814501 -12.9875 -5.438 -4.8415 -4.4 -7.091001 -6.7565 -5.268 -3.647 -2.925 -5.431 -6.7765 -6.259 -9.699 -7.973001 -4.607 -4.488501 -6.295 -2.911 
-7.941 -5.5155 -4.864 -2.8845 -6.625 -7.416 -10.523 -14.4172 -16.1386 -10.513 -10.674 -9.814501 -15.1462 -14.267 -7.6495 -6.257 -8.1005 -8.913001 -8.525001 -5.268 -7.2695 -5.431 -8.683001 -9.913 -9.972501 -14.3445 -9.822001 -7.264 -7.439001 -6.295 
-7.941 -6.3305 -4.864 -6.625 -10.9392 -10.523 -17.8954 -19.6702 -16.1386 -16.7901 -15.7005 -15.1462 -16.4257 -16.4785 -8.823 -9.8295 -10.674 -10.7575 -8.525001 -8.6335 -9.828 -8.683001 -11.9715 -14.0219 -14.8658 -16.1935 -12.7812 -8.0235 -7.439001 
-9.644501 -6.3305 -8.6735 -10.9392 -14.0462 -17.8954 -23.1484 -19.6702 -22.4157 -21.8166 -21.0322 -16.4257 -18.6372 -17.652 -12.4631 -12.5252 -12.5185 -10.7575 -10.733 -11.339 -13.1744 -11.9715 -16.0804 -18.9152 -16.7148 -19.1527 -13.5407 -8.0235 
-1.934 -2.8845 -3.506 -4.807 -3.647 -3.331 -4.651 -5.26 -4.7735 -1.756 -7.6155 -8.04 -3.264 -2.925 -3.557 -2.1715 -5.3505 -3.766 -5 -1.934 -3.647 -2.911 0 
-4.7805 -4.912 -6.374001 -9.602 -6.966001 -6.2695 -10.8856 -10.513 -6.675001 -9.809 -16.6139 -10.1115 -5.0665 -5.51 -5.8195 -6.259 -10.368 -8.7605 -6.266 -5.268 -5.2475 -2.911 
-8.445001 -9.052 -11.7922 -13.031 -9.095501 -13.2421 -16.1386 -12.7911 -15.3344 -19.181 -18.6854 -11.914 -7.1515 -8.649 -10.259 -11.5925 -15.3625 -10.3659 -8.9065 -7.0275 -5.2475 
-10.7595 -15.0934 -15.2212 -15.1605 -16.4965 -18.4951 -18.4167 -21.4505 -24.7064 -21.2525 -20.4879 -13.999 -10.099 -13.3447 -15.7671 -16.587 -16.9679 -13.0064 -10.31 -7.0275 
-16.8009 -18.5224 -17.3507 -22.5615 -21.7495 -20.7732 -27.0761 -30.8225 -26.7779 -23.055 -22.5729 -16.9465 -14.7947 -18.8528 -20.7616 -18.1924 -19.6084 -14.4099 -10.31 
-1.934 -1.4985 -3.158 -2.8845 -3.5315 -4.807 0 -3.647 -3.331 -4.651 -1.7565 -3.741 -5.26 -4.7735 0 -4.788 -10.3245 0 -2.925 -3.557 -1.934 -3.647 -2.911 0 -2.871 -5.3505 -4.179 -5 -2.4945 -3.0365 0 
-2.6125 -4.178 -5.403501 -4.909 -6.423 -4.807 -3.647 -6.966001 -6.2695 -6.6995 -5.3505 -10.019 -10.513 -4.7735 -4.788 -16.6429 -10.3245 -2.925 -5.51 -4.4175 -5.268 -5.2475 -2.911 -2.871 -7.134501 -9.956 -10.7025 -6.582 -4.952001 -3.0365 
-5.265 -6.3145 -8.562 -9.1085 -6.423 -9.602 -6.966001 -9.095501 -8.728001 -10.9789 -11.8515 -15.272 -10.513 -10.674 -16.6429 -16.6429 -13.3221 -5.51 -7.2735 -7.5585 -7.0275 -5.2475 -6.331501 -7.134501 -12.292 -16.5445 -12.2845 -9.681 -4.952001 
-7.255001 -10.1895 -12.6193 -9.1085 -11.8014 -13.031 -9.095501 -11.9824 -13.2592 -17.4799 -17.1045 -15.272 -16.7901 -22.5289 -16.6429 -19.6405 -15.9071 -7.2735 -9.998 -9.141001 -7.0275 -8.904 -11.6414 -12.292 -18.8805 -18.1265 -15.3835 -9.681 
-11.5126 -14.2468 -12.6193 -15.0823 -15.2304 -15.1605 -11.9824 -16.5136 -19.7602 -22.7329 -17.1045 -21.5491 -28.645 -22.5289 -19.6405 -22.2255 -17.6706 -9.998 -12.0093 -9.141001 -10.757 -14.5451 -16.7989 -18.8805 -20.4625 -21.2255 -15.3835 
-1.934 -2.8845 -3.5315 -3.1475 0 -3.647 -3.331 -4.651 -5.26 -4.7735 0 -4.788 -8.04 -4.3215 -2.3335 -2.925 -3.557 -2.1715 -5.3505 -4.179 -3.6395 -1.934 -3.647 -2.911 
-4.7805 -4.909 -5.495 -3.1475 -3.647 -6.966001 -6.2695 -10.8856 -10.513 -4.7735 -4.788 -9.814501 -10.6345 -5.1075 -4.0295 -5.51 -5.8195 -6.259 -9.956 -7.887501 -5.910501 -5.268 -5.2475 
-8.443501 -7.911 -5.495 -7.083 -6.966001 -9.095501 -13.2421 -16.1386 -10.513 -10.674 -9.814501 -10.637 -10.6555 -6.3015 -6.91 -8.649 -10.259 -11.1805 -13.7295 -11.7925 -8.7565 -7.0275 
-10.347 -7.911 -10.66 -11.2862 -9.095501 -16.4965 -18.4951 -16.1386 -16.7901 -15.7005 -10.637 -10.658 -12.9691 -9.3345 -10.0815 -13.3447 -15.3551 -14.954 -17.6345 -14.6385 -9.805 
-10.347 -13.4734 -14.8632 -13.4157 -16.4965 -21.7495 -18.4951 -22.4157 -21.8166 -16.523 -10.658 -12.9708 -16.0021 -12.7556 -14.9316 -18.4408 -19.1286 -18.859 -20.4805 -15.687 
