-4.759 
n/a 
n/a 
n/a 
n/a 
-4.759 
n/a 
n/a 
n/a 
n/a 
-4.759 
n/a 
n/a 
n/a 
n/a 
-4.759 
n/a 
n/a 
n/a 
n/a 
-1.4985 -3.9355 -3.2955 -1.7695 -5.4475 -2.3615 -5.1995 -3.7075 
-4.8035 -6.479 -3.9425 -6.1575 -7.1785 -8.4975 -9.6735 
-6.917 -7.303 -6.783 -8.1035 -13.8059 -13.3837 
-7.822001 -9.552 -8.928 -14.8253 -18.6921 
-10.303 -11.7054 -15.7618 -19.7115 
-2.5685 -1.4985 -5.2615 
-3.7015 -6.0705 
-9.096001 
n/a 
n/a 
-2.3615 -5.307 -3.319 -3.602 -2.9645 -3.9355 
-8.3275 -9.1625 -7.0255 -7.2925 -6.5865 
-12.4242 -13.1352 -11.5074 -10.5225 
-16.3969 -17.6171 -14.7374 
-20.8788 -20.8471 
-1.4985 -3.9355 -3.2955 -1.7695 -4.42 -2.3615 -5.1995 
-4.8035 -6.479 -3.9425 -5.1225 -6.725 -8.4975 
-6.917 -7.303 -6.2195 -7.034 -13.1884 
-7.822001 -9.566 -8.2745 -13.6268 
-10.258 -11.6712 -15.1637 
