-4.759 
n/a 
n/a 
n/a 
n/a 
-4.759 
n/a 
n/a 
n/a 
n/a 
-4.759 
n/a 
n/a 
n/a 
n/a 
-4.759 
n/a 
n/a 
n/a 
n/a 
-2.925 -2.4945 -4.2675 -5.4685 -2.872 -3.9655 -4.029 -1.4985 -4.1 -4.6805 -7.4885 
-3.7675 -8.016001 -9.604501 -7.8495 -7.173501 -8.4975 -5.7325 -5.0695 -9.481501 -10.5135 
-9.135 -13.7334 -12.0787 -12.2954 -12.0085 -9.969501 -9.3535 -11.2178 -15.4841 
-15.1738 -16.2076 -16.5246 -17.1304 -13.4805 -13.5905 -15.5606 -17.2204 
-17.648 -20.6535 -21.3596 -18.6024 -17.1015 -19.7976 -21.5632 
-2.925 -4.2675 -3.8905 -1.7565 -5.3765 0 -2.872 -4.302 -2.5195 -6.864 -4.6805 0 
-6.467501 -7.502001 -5.3285 -6.6945 -5.3765 -2.872 -6.896 -5.5985 -9.382501 -8.916 -4.6805 
-9.398001 -10.76 -10.1505 -6.6945 -7.877501 -6.896 -10.19 -13.0555 -11.6245 -8.916 
-12.656 -15.582 -10.1505 -9.02 -12.1623 -10.19 -17.647 -15.2975 -11.6245 
-17.478 -15.582 -12.476 -13.413 -15.4563 -17.647 -19.889 -15.2975 
-3.1495 -3.594 -1.7565 -9.362 -4.598 -1.7695 -12.16972 -4.365 -3.9725 0 
-5.984 -5.572 -10.5975 -14.0676 -6.51 -14.92142 -16.53472 -8.828001 -3.9725 
-8.3405 -15.3138 -15.3031 -15.9796 -20.27872 -19.28642 -20.99772 -8.828001 
-18.1567 -20.0194 -17.2151 -29.74832 -24.64372 -23.74942 -20.99772 
-22.8623 -21.9314 -30.98382 -34.11332 -29.10672 -23.74942 
-1.4985 -2.4945 -5.09 -2.0935 -5.371 -2.872 0 -2.925 -2.4945 -4.972 -2.356 -6.864 -4.6805 
-6.1475 -6.546 -7.254 -7.4785 -7.76 -2.872 -2.925 -3.7675 -8.151501 -6.9125 -9.6225 -8.916 
-10.3068 -8.490001 -13.5166 -10.354 -7.76 -4.5305 -3.7675 -9.495501 -10.504 -14.7948 -11.7103 
-12.2508 -15.0238 -16.3921 -10.354 -9.0865 -5.2685 -9.495501 -11.9824 -18.3863 -16.8826 
-18.7846 -17.8993 -16.3921 -11.6805 -9.908501 -11.4283 -11.9824 -19.8647 -20.4741 
