-4.759 
n/a 
n/a 
n/a 
n/a 
-4.759 
n/a 
n/a 
n/a 
n/a 
-4.759 
n/a 
n/a 
n/a 
n/a 
-4.759 
n/a 
n/a 
n/a 
n/a 
-8.553 -2.4265 -2.8645 -6.443 -4.8915 0 
-11.5365 -4.1435 -9.383 -12.1667 -4.8915 
-13.2535 -10.9988 -15.4883 -12.1667 
-20.1088 -17.1041 -15.4883 
-26.2141 -17.1041 
-4.347 -2.4265 -2.186 -1.934 -4.356 -4.4385 0 
-8.337501 -3.292 -4.0835 -6.496 -7.793501 -4.4385 
-8.922 -5.206 -8.6075 -9.920001 -7.793501 
-10.5325 -9.869 -12.4105 -9.920001 
-15.1955 -13.6792 -12.4105 
-2.4265 -2.186 -1.8085 -8.0775 -5.057 0 
-3.292 -3.164 -8.313001 -10.22 -5.057 
-4.4005 -8.238501 -10.265 -9.742001 
-8.8865 -10.654 -9.808001 
-11.1635 -10.2035 
-12.16972 -4.07 -3.4905 0 
-16.23972 -7.375501 -3.4905 
-19.54522 -7.375501 
-19.54522 
n/a 
