-4.759 
n/a 
n/a 
n/a 
n/a 
-4.759 
n/a 
n/a 
n/a 
n/a 
-4.759 
n/a 
n/a 
n/a 
n/a 
-4.759 
n/a 
n/a 
n/a 
n/a 
-1.4985 -5.922 -2.186 -4.1555 -1.7695 -3.7805 -4.0375 0 
-7.156 -7.578501 -7.7275 -4.988501 -5.4845 -8.125501 -4.0375 
-8.5305 -13.3204 -8.5785 -9.209001 -10.4505 -8.125501 
-14.339 -14.1714 -13.0066 -14.306 -10.4505 
-15.19 -18.5995 -18.1036 -14.306 
-2.4265 -4.72 -1.7695 -4.1625 -4.445 0 
-7.269501 -5.9825 -6.5295 -9.17 -4.445 
-8.285001 -11.3381 -12.2376 -9.17 
-13.992 -17.0462 -12.2376 
-19.7001 -17.0462 
-3.7805 -3.7345 -5.7915 
-7.5835 -9.657001 
-13.9736 
n/a 
n/a 
-3.7805 -4.983 -6.1115 
-6.826 -9.294001 
-11.835 
n/a 
n/a 
