-4.759 
n/a 
n/a 
n/a 
n/a 
-4.759 
n/a 
n/a 
n/a 
n/a 
-4.759 
n/a 
n/a 
n/a 
n/a 
-4.759 
n/a 
n/a 
n/a 
n/a 
-8.267 -2.186 -3.849 -2.5045 0 -12.16972 0 -1.756 0 -7.377 0 -2.3345 -3.091 -4.1445 0 
-10.7665 -4.8565 -6.305 -2.5045 -12.16972 -12.16972 -1.756 -1.756 -7.377 -7.377 -2.3345 -4.9475 -6.3455 -4.1445 
-13.437 -7.104 -6.305 -15.59162 -12.16972 -13.92572 -1.756 -9.427 -7.377 -10.2135 -4.9475 -7.9305 -6.3455 
-15.6845 -7.104 -19.49572 -15.59162 -13.92572 -13.92572 -9.427 -9.427 -10.2135 -12.8265 -7.9305 -7.9305 
-15.6845 -20.42452 -19.49572 -17.34762 -13.92572 -21.59672 -9.427 -12.2815 -12.8265 -15.8095 -7.9305 
-6.705 -5.171 -3.849 -4.3765 -4.281 -2.5045 0 -4.342 -3.757 0 -1.756 0 -7.377 0 -2.5195 -3.091 -4.8875 0 
-7.959001 -9.5345 -8.235001 -7.7075 -5.893 -2.5045 -4.342 -7.8335 -3.757 -1.756 -1.756 -7.377 -7.377 -2.5195 -4.8225 -6.152 -4.8875 
-12.6589 -14.1219 -11.8024 -9.478001 -5.893 -7.452001 -7.8335 -7.8335 -5.793 -1.756 -9.427 -7.377 -10.4595 -4.8225 -8.226 -6.152 
-17.2463 -17.6893 -13.5729 -9.478001 -10.4945 -10.5645 -7.8335 -10.223 -5.793 -9.427 -9.427 -10.4595 -12.7625 -8.226 -8.226 
-20.8137 -19.4598 -13.5729 -14.1653 -13.607 -10.5645 -10.223 -10.223 -14.1468 -9.427 -12.5275 -12.7625 -16.166 -8.226 
-4.426 -1.7565 -1.4985 -3.0835 -4.7285 -4.1555 -7.2915 -1.7565 -6.705 -5.171 -3.849 -3.595 -2.356 -1.4985 -3.4865 -3.9915 -2.5045 0 -4.342 -3.757 0 -1.756 0 -7.377 0 
-5.47 -2.4195 -3.535 -6.042 -8.4455 -10.1515 -8.781 -8.873 -7.959001 -9.5345 -6.047501 -5.3435 -3.1615 -4.9305 -7.5385 -6.164001 -2.5045 -4.342 -7.8335 -3.757 -1.756 -1.756 -7.377 -7.377 
-5.9535 -4.6785 -6.335501 -9.523001 -14.082 -10.4925 -12.8995 -9.9785 -12.6589 -11.9344 -8.457001 -6.2045 -6.51 -8.397 -9.792001 -6.164001 -7.452001 -7.8335 -7.8335 -5.793 -1.756 -9.427 -7.377 
-8.021 -7.476501 -10.0095 -15.244 -14.264 -16.7665 -15.09 -14.7628 -15.0588 -14.3439 -9.0375 -9.515501 -9.599001 -11.0735 -9.792001 -11.4015 -10.5645 -7.8335 -10.223 -5.793 -9.427 -9.427 
-9.983001 -11.3061 -15.8405 -15.426 -20.538 -17.872 -19.8743 -17.1627 -17.4683 -14.9244 -12.7753 -12.6045 -12.2755 -11.0735 -15.0295 -14.514 -10.5645 -10.223 -10.223 -14.1468 -9.427 
-6.705 -5.171 -4.1445 -3.849 0 -7.8425 -3.757 0 -1.756 -3.321 0 -7.377 0 
-7.959001 -8.997001 -8.1735 -3.849 -7.8425 -10.7495 -3.757 -1.756 -4.0055 -3.321 -7.377 -7.377 
-12.1214 -13.5216 -8.1735 -11.8521 -10.7495 -10.7495 -5.793 -4.0055 -4.0055 -11.6064 -7.377 
-16.646 -13.5216 -16.4374 -14.7591 -10.7495 -12.7855 -7.9775 -4.0055 -12.7305 -11.6064 
-16.646 -21.7855 -19.3444 -14.7591 -12.7855 -14.97 -7.9775 -12.7305 -12.7305 
