-4.759 
n/a 
n/a 
n/a 
n/a 
-4.759 
n/a 
n/a 
n/a 
n/a 
-4.759 
n/a 
n/a 
n/a 
n/a 
-4.759 
n/a 
n/a 
n/a 
n/a 
-4.7075 -5.815 0 
-8.627001 -5.815 
-8.627001 
n/a 
n/a 
-4.426 -1.7565 -1.4985 -3.6115 -4.7285 -4.1555 -3.147 -5.069 -4.1685 
-5.47 -2.4195 -4.081 -6.5495 -8.4455 -5.77 -8.389 -8.939501 
-5.9535 -5.180501 -6.670501 -9.978001 -9.541501 -11.153 -12.8059 
-8.462501 -7.797 -10.054 -11.0524 -14.9245 -15.5699 
-10.2375 -11.2985 -11.1648 -16.4354 -19.3414 
-4.7075 -5.815 0 -3.301 -3.89 0 
-8.627001 -5.815 -3.301 -5.219 -3.89 
-8.627001 -9.649 -5.219 -5.219 
-13.0138 -11.6124 -5.219 
-14.9772 -11.6124 
-4.7075 -10.4975 
-16.4248 
n/a 
n/a 
n/a 
