-4.759 
n/a 
n/a 
n/a 
n/a 
-4.759 
n/a 
n/a 
n/a 
n/a 
-4.759 
n/a 
n/a 
n/a 
n/a 
-4.759 
n/a 
n/a 
n/a 
n/a 
-3.882 -2.9805 -2.7415 -6.464 -1.934 -3.97 -4.625 -3.3255 -5.1645 -4.8565 -3.6825 0 
-5.755 -4.004 -8.308001 -6.747 -5.607 -8.424 -8.5595 -9.26 -10.9575 -6.5375 -3.6825 
-6.5725 -9.504001 -8.6035 -10.248 -9.896501 -12.6071 -14.5994 -15.241 -12.6385 -6.5375 
-12.4369 -10.049 -12.3627 -14.5375 -14.1278 -18.647 -20.5804 -16.922 -12.6385 
-12.9819 -13.8922 -16.6522 -18.7688 -20.1677 -24.628 -22.2614 -16.922 
-2.9805 -3.837 -3.091 -3.9655 -4.8935 -2.3345 -4.6435 -5.1645 -5.3255 -4.7035 
-6.2085 -6.457 -6.0905 -9.22 -7.199 -5.9945 -11.1876 -11.5864 -10.01 
-7.600501 -9.4525 -12.1584 -11.6267 -11.319 -13.327 -17.6095 -16.2709 
-10.7846 -15.72 -14.5651 -15.7467 -18.6515 -19.7489 -22.294 
-17.0521 -18.1267 -18.6851 -23.0792 -25.0734 -24.4334 
-3.2615 -2.3335 -2.9805 -4.5445 -3.091 -3.9655 -4.153 -2.356 -5.1645 -5.9545 
-5.0495 -4.1515 -6.026 -6.593 -6.0905 -6.534 -6.634001 -8.0415 -9.371 
-6.606 -7.519501 -7.346 -9.4855 -10.634 -9.181 -12.7283 -12.6212 
-9.38 -8.89 -10.146 -14.0868 -13.281 -15.3795 -17.308 
-10.598 -11.7712 -14.7473 -16.7338 -19.4795 -19.9592 
-3.2615 -2.3335 0 -2.9805 -4.5445 -3.091 -3.9655 -5.505 -3.3255 -1.4985 -9.252501 0 -4.931 0 
-5.0495 -2.3335 -2.9805 -6.026 -6.593 -6.0905 -8.7925 -8.384001 -3.8945 -9.877001 -8.739 -4.931 -4.931 
-5.0495 -4.1515 -6.026 -7.346 -9.4855 -11.7309 -11.8031 -9.2045 -12.316 -9.4265 -15.0508 -4.931 
-6.606 -7.519501 -7.346 -10.146 -15.1837 -14.7415 -12.6236 -17.9122 -12.4992 -15.7851 -15.0508 
-9.38 -8.89 -10.146 -15.8442 -18.1943 -15.562 -21.3313 -17.9122 -18.8578 -15.7851 
