-4.759 
n/a 
n/a 
n/a 
n/a 
-4.759 
n/a 
n/a 
n/a 
n/a 
-4.759 
n/a 
n/a 
n/a 
n/a 
-4.759 
n/a 
n/a 
n/a 
n/a 
-1.934 -3.7075 -1.934 -3.7575 -3.5185 -4.153 -4.126 -1.756 -3.486 -3.319 -1.7565 -3.5965 -3.519 -3.737 -1.4985 -3.9875 -1.7565 -4.85 0 
-6.1845 -6.0775 -6.457 -8.138 -7.6695 -8.230501 -5.5705 -6.2845 -5.7975 -4.165 -5.041 -8.0295 -7.4735 -4.7615 -5.1005 -5.377501 -8.3795 -4.85 
-8.863501 -11.2515 -11.3001 -12.6552 -12.5616 -9.476001 -10.4185 -8.5955 -6.1045 -6.883 -9.923 -12.2278 -8.5905 -8.6815 -5.76 -12.9467 -8.3795 
-14.1155 -16.0946 -15.8173 -17.5473 -13.8071 -14.5716 -12.7295 -8.827001 -9.0225 -12.1928 -14.3787 -13.3448 -12.6363 -8.981 -14.0108 -12.9467 
-18.9586 -20.6118 -20.7094 -18.7928 -18.9027 -16.8826 -12.961 -12.0484 -14.5617 -16.6485 -15.4957 -17.3906 -12.9358 -17.389 -14.0108 
-4.622 -3.7575 -3.7075 -4.3245 -4.153 -4.4845 -3.5965 -4.224 -3.319 -2.186 -2.9645 -1.7695 -3.7075 -4.622 -4.4385 
-6.88 -7.9745 -8.7405 -8.540001 -7.263 -8.518501 -7.889501 -7.996 -5.404 -6.4285 -4.905 -6.146501 -8.421 -8.039001 
-10.2085 -13.4921 -13.1244 -11.9168 -11.8528 -13.2711 -12.4905 -10.4494 -9.476 -7.6785 -10.1225 -10.5975 -12.8078 
-16.8889 -17.876 -16.5012 -16.5066 -16.6054 -17.8721 -14.9439 -14.5214 -10.837 -13.077 -14.5735 -15.0101 
-21.2728 -21.2528 -21.091 -21.2592 -21.2064 -20.3255 -19.0159 -15.8824 -16.2355 -17.528 -18.9861 
-1.4985 -4.153 -4.029 -2.3335 -2.4945 -3.8755 -2.5195 -1.4985 -4.622 -3.7075 -2.4945 -4.8465 -1.934 -1.4985 -3.5965 
-5.274 -9.144501 -5.3945 -3.947 -5.463 -5.837501 -3.1695 -5.221 -8.356001 -7.0085 -6.5185 -5.823 -2.6125 -4.746 
-11.1631 -10.9712 -6.471001 -6.653 -7.0235 -6.483 -6.721 -8.939501 -12.0716 -10.4185 -7.2035 -6.5125 -6.000501 
-12.9898 -12.0477 -9.906601 -8.088 -7.621 -9.969001 -10.3475 -12.7787 -15.4816 -11.1035 -7.968501 -9.52 
-14.0663 -15.4833 -11.3416 -8.7005 -11.35 -13.8217 -14.1867 -16.1887 -16.1666 -11.8685 -11.2276 
-1.4985 -4.153 -4.828 -2.3335 -4.066 -2.5195 -1.4985 -4.622 -4.1455 -1.7565 -1.4985 -4.4515 -2.186 -4.8085 -1.7695 -3.5965 -4.828 -1.756 -2.674 -1.8085 -6.283 -3.998 -1.7565 -5.8505 -4.622 -4.1455 
-5.274 -7.4265 -6.711 -5.3035 -4.976 -3.1695 -5.221 -6.457 -5.11 -2.4195 -5.0235 -6.113501 -5.9115 -5.180501 -5.6105 -9.904 -6.056 -4.3315 -3.63 -7.174001 -10.543 -5.128 -7.600501 -9.863001 -6.457 
-8.461 -8.861001 -10.254 -6.057 -5.5295 -6.721 -6.749001 -6.7215 -5.3235 -5.680501 -6.284 -10.4836 -6.2625 -8.689 -12.5522 -11.132 -8.9045 -5.1805 -9.198 -11.6974 -11.673 -11.7454 -11.9946 -12.1016 
-9.7735 -12.6114 -10.6185 -6.6915 -8.8025 -8.072001 -6.893 -6.8805 -7.2615 -6.772501 -10.9315 -10.8346 -9.956 -15.9097 -13.7802 -13.9805 -9.634501 -11.1731 -13.804 -12.8274 -18.2904 -16.1395 -14.2332 
-13.5557 -12.9759 -11.253 -9.689501 -10.3349 -8.238501 -7.0015 -9.3027 -8.820001 -12.0722 -11.2825 -14.5281 -17.2189 -17.1377 -16.6287 -14.7105 -15.6409 -15.7791 -14.934 -19.4448 -22.6845 -18.3781 
