-4.759 
n/a 
n/a 
n/a 
n/a 
-4.759 
n/a 
n/a 
n/a 
n/a 
-4.759 
n/a 
n/a 
n/a 
n/a 
-4.759 
n/a 
n/a 
n/a 
n/a 
-2.872 -5.4525 -2.186 -4.685 -2.5195 -2.5685 -1.7565 -3.1495 
-8.922501 -7.3745 -7.081 -5.093 -4.7035 -3.887 -3.914 
-9.610001 -12.7737 -7.499501 -6.976001 -5.9315 -5.079 
-15.147 -13.1922 -9.0535 -8.207001 -7.34 
-15.5655 -14.7462 -10.4765 -9.594001 
-2.872 -5.4525 -2.186 -3.6065 -2.871 0 
-8.922501 -7.3745 -5.206 -6.3665 -2.871 
-9.610001 -10.164 -8.160501 -6.3665 
-12.5373 -13.2051 -8.160501 
-15.5784 -13.2051 
-2.872 -5.4525 -2.186 -3.1495 -2.5685 -1.4985 -3.2615 -2.871 0 
-8.922501 -7.3745 -6.1735 -6.428 -3.7015 -5.9075 -5.7415 -2.871 
-9.610001 -11.8662 -9.515501 -7.7145 -8.241 -8.993501 -5.7415 
-14.2395 -15.2082 -10.8334 -12.7714 -11.5402 -8.993501 
-17.5815 -16.5261 -15.8903 -16.0706 -11.5402 
-2.872 -5.4525 -2.186 -2.6165 -4.079 0 
-8.922501 -7.3745 -3.5105 -5.745501 -4.079 
-9.610001 -8.415001 -6.3335 -5.745501 
-10.555 -11.7856 -6.3335 
-13.9256 -11.7856 
