-4.759 
n/a 
n/a 
n/a 
n/a 
-4.759 
n/a 
n/a 
n/a 
n/a 
-4.759 
n/a 
n/a 
n/a 
n/a 
-4.759 
n/a 
n/a 
n/a 
n/a 
-4.566 0 -3.695 -1.7565 -2.3335 -5.7835 0 -5.7865 0 
-4.566 -3.695 -5.01 -4.314 -8.615001 -5.7835 -5.7865 -5.7865 
-8.8895 -5.01 -7.5725 -11.0287 -8.615001 -12.1448 -5.7865 
-10.4515 -7.5725 -14.5662 -11.0287 -15.2669 -12.1448 
-13.014 -14.5662 -14.5662 -17.6806 -15.2669 
-4.566 0 -12.16972 -10.546 0 -5.7865 0 0 
-4.566 -12.16972 -22.71572 -10.546 -5.7865 -5.7865 0 
-17.14952 -22.71572 -22.71572 -16.3325 -5.7865 -5.7865 
-27.69552 -22.71572 -28.50222 -16.3325 -5.7865 
-27.69552 -28.50222 -28.50222 -16.3325 
-4.566 0 -7.962501 -6.6755 -8.7755 0 -5.7865 0 
-4.566 -7.962501 -15.0546 -16.3502 -8.7755 -5.7865 -5.7865 
-12.9423 -15.0546 -24.7293 -16.3502 -15.245 -5.7865 
-20.0344 -24.7293 -24.7293 -22.8197 -15.245 
-29.7091 -24.7293 -31.1988 -22.8197 
-4.426 -1.7565 -1.4985 -3.0835 -4.7285 -4.1555 -3.147 -12.16972 -12.6445 
-5.47 -2.4195 -3.535 -6.042 -8.4455 -5.77 -16.16492 -22.45672 
-5.9535 -4.6785 -6.335501 -9.523001 -9.541501 -18.92892 -26.45192 
-8.021 -7.476501 -10.0095 -10.7035 -22.70042 -29.21592 
-9.983001 -11.3061 -11.3 -23.86242 -32.98742 
