-4.759 
n/a 
n/a 
n/a 
n/a 
-4.759 
n/a 
n/a 
n/a 
n/a 
-4.759 
n/a 
n/a 
n/a 
n/a 
-4.759 
n/a 
n/a 
n/a 
n/a 
-3.4765 -3.929 0 -2.5045 -1.4985 -3.498 -4.489 -4.9385 -5.01 0 
-4.589 -3.929 -2.5045 -3.1915 -4.0295 -9.3465 -9.755501 -10.9793 -5.01 
-4.589 -6.382 -3.1915 -4.454 -10.0475 -14.8016 -15.9553 -10.9793 
-7.2825 -7.0175 -4.454 -10.9316 -15.5026 -21.0014 -15.9553 
-7.785501 -8.1175 -10.9316 -16.3867 -21.7024 -21.0014 
-2.5045 -3.228 -4.489 -4.9385 -12.16972 
-5.1825 -9.883 -9.755501 -18.13902 
-10.328 -15.1495 -23.11502 
-15.5945 -28.50902 
-28.95402 
-3.6705 0 -1.934 -1.4985 -3.498 -4.489 -4.9385 -5.01 0 
-3.6705 -1.934 -2.6125 -4.0295 -9.3465 -9.755501 -10.9793 -5.01 
-5.241 -2.6125 -5.101 -10.0475 -14.8016 -15.9553 -10.9793 
-5.876 -5.101 -10.2225 -15.5026 -21.0014 -15.9553 
-7.6115 -10.2225 -15.6776 -21.7024 -21.0014 
-3.4765 -3.929 -4.1885 0 -4.489 -4.9385 -12.16972 
-4.589 -8.026 -4.1885 -4.489 -9.755501 -18.13902 
-10.025 -8.026 -9.518001 -9.755501 -23.11502 
-10.025 -13.6409 -14.9165 -23.11502 
-15.6399 -19.0394 -28.27602 
