-4.759 
n/a 
n/a 
n/a 
n/a 
-4.759 
n/a 
n/a 
n/a 
n/a 
-4.759 
n/a 
n/a 
n/a 
n/a 
-4.759 
n/a 
n/a 
n/a 
n/a 
-5.094 -4.5055 -5.2765 -4.2695 -4.331 -1.7695 -5.1745 -1.4985 -5.7215 0 -2.872 -4.49 0 -5.6825 -1.934 -4.535 -4.6085 -3.2495 -4.848 -4.828 -1.7565 -4.675 -4.493 -1.7695 -4.38 -2.674 -4.548 -1.934 -1.4985 -3.228 -4.153 
-8.2965 -7.506001 -7.393001 -7.875501 -4.925 -5.6785 -6.676001 -6.758 -5.7215 -2.872 -7.457 -4.49 -5.6825 -7.177001 -5.9575 -4.6455 -8.601 -5.928 -8.5315 -5.925 -6.421501 -8.322001 -6.4885 -6.109001 -7.6385 -5.608 -5.3885 -2.6125 -3.9575 -6.1045 
-9.745501 -9.236001 -9.6435 -8.559501 -8.388 -7.0465 -10.4425 -6.758 -8.476501 -7.457 -7.457 -9.495001 -7.177001 -10.322 -6.141 -8.772501 -11.4995 -9.075001 -8.8905 -10.089 -8.922001 -8.9055 -8.908 -9.105501 -10.5035 -6.3195 -5.887001 -4.7305 -6.1835 
-10.462 -10.451 -9.8985 -10.361 -9.672501 -10.4755 -10.4425 -9.371 -10.564 -7.457 -10.543 -10.405 -10.322 -10.345 -9.331 -11.7318 -14.6465 -9.3745 -10.576 -10.457 -9.122001 -9.7405 -10.7025 -10.674 -10.733 -6.686501 -7.402 -6.811 
-10.581 -10.4905 -10.5 -10.5865 -10.5765 -10.4755 -10.5885 -10.576 -10.564 -10.543 -10.592 -10.589 -10.345 -13.8268 -12.4007 -14.8788 -14.946 -10.576 -10.6055 -10.5735 -10.2285 -10.7055 -10.7275 -10.741 -10.7585 -7.8475 -9.0275 
-1.4985 -4.8685 -4.868 -3.5035 -2.7415 -4.629 -2.3345 -1.8085 -3.774 -1.756 -1.4985 -4.191 -4.8345 -5.7305 -1.934 -5.661 0 
-6.434 -10.2135 -5.93 -5.9375 -6.033 -5.6315 -3.8605 -5.536 -5.291 -3.0405 -5.432 -7.7235 -8.928501 -7.08 -7.003 -5.661 
-12.1952 -11.2755 -8.696 -9.366501 -6.446 -6.664001 -6.585 -7.28 -5.9785 -7.061501 -8.650001 -10.0855 -9.659501 -8.693001 -7.003 
-13.2572 -14.0415 -12.237 -9.719001 -7.633 -9.911 -8.2775 -8.359 -10.597 -10.286 -10.6335 -10.2495 -10.1055 -8.693001 
-16.0232 -17.5825 -12.5895 -11.0346 -10.6465 -11.5847 -9.347501 -13.2747 -13.8215 -12.2695 -10.7785 -10.2685 -10.1055 
-2.925 -4.0925 -3.683 -4.662 -2.5045 -5.661 0 
-6.446 -8.303 -8.283001 -6.74 -8.962501 -5.661 
-11.2811 -13.7444 -11.1994 -13.7866 -8.962501 
-16.7225 -16.6608 -18.246 -13.7866 
-19.6389 -23.7074 -18.246 
-1.934 -5.661 0 -1.8085 -3.5035 0 -5.724 0 -2.0935 -1.4985 -3.9005 -4.969 -4.248 -2.356 -2.6615 -3.6615 -2.7415 -4.349 0 
-7.003 -5.661 -1.8085 -5.268 -3.5035 -5.724 -5.724 -2.0935 -2.9725 -4.797 -8.335501 -8.711 -6.7935 -5.4465 -6.6245 -6.9975 -5.786 -4.349 
-7.003 -8.012501 -5.268 -5.268 -9.2025 -5.724 -6.914001 -2.9725 -6.515501 -8.610001 -12.8903 -11.9153 -10.4035 -9.933001 -11.0373 -9.901001 -5.786 
-8.678 -10.647 -5.268 -12.0266 -9.2025 -6.914001 -7.25 -6.515501 -10.4545 -13.7794 -16.0946 -15.5253 -14.89 -14.318 -13.9408 -9.901001 
-11.4629 -10.647 -12.0266 -12.0266 -10.8139 -7.25 -11.4716 -10.4545 -15.6239 -16.9837 -19.7046 -20.0118 -19.275 -17.2215 -13.9408 
