-4.759 
n/a 
n/a 
n/a 
n/a 
-4.759 
n/a 
n/a 
n/a 
n/a 
-4.759 
n/a 
n/a 
n/a 
n/a 
-4.759 
n/a 
n/a 
n/a 
n/a 
-5.534 -2.4285 -5.0665 -4.7515 -3.074 -3.9285 
-7.388 -7.0325 -9.51 -7.912 -5.4325 
-10.7495 -12.1298 -12.8557 -9.923 
-15.8468 -15.4755 -14.8667 
-19.1925 -17.4865 
-5.0665 -4.304 -3.7205 -3.3425 -4.562 
-9.465 -8.488001 -7.4915 -7.2415 
-13.775 -12.8742 -11.8771 
-18.1612 -17.2598 
-22.5468 
-3.319 -3.951 -3.5025 -1.7695 -7.318501 -1.7695 -4.0095 0 
-6.8865 -7.7515 -5.609 -9.0235 -9.592501 -6.023 -4.0095 
-12.0326 -10.4604 -13.7548 -11.7265 -13.9652 -6.023 
-14.7415 -18.6062 -16.4578 -16.0992 -13.9652 
-22.8873 -21.3092 -20.8305 -16.0992 
-5.0665 0 -5.0665 -2.356 -4.562 -2.0935 -3.4605 -4.3655 
-5.0665 -5.0665 -7.225 -6.856501 -6.413 -6.143 -8.482 
-7.789001 -7.225 -9.889501 -8.5585 -11.2911 -9.273001 
-9.625 -9.889501 -11.5915 -14.2186 -14.4211 
-13.0077 -11.5915 -17.2516 -17.3486 
