-4.759 
n/a 
n/a 
n/a 
n/a 
-4.759 
n/a 
n/a 
n/a 
n/a 
-4.759 
n/a 
n/a 
n/a 
n/a 
-4.759 
n/a 
n/a 
n/a 
n/a 
-15.2645 -6.249 0 -4.732 -3.748 0 
-22.5457 -6.249 -4.732 -8.547001 -3.748 
-22.5457 -11.9286 -8.547001 -8.547001 
-28.2253 -15.7436 -8.547001 
-32.0403 -15.7436 
-2.543 -17.478 -8.530001 0 -9.298 -7.1515 0 
-21.0189 -26.8298 -8.530001 -9.298 -16.8437 -7.1515 
-29.7743 -26.8298 -18.0884 -16.8437 -16.8437 
-29.7743 -36.3882 -25.6341 -16.8437 
-39.3327 -43.9339 -25.6341 
-20.021 -8.530001 0 -10.4795 -7.226 0 
-29.7743 -8.530001 -10.4795 -17.7055 -7.226 
-29.7743 -19.2699 -17.7055 -17.7055 
-40.5142 -26.4959 -17.7055 
-47.7402 -26.4959 
-17.478 -8.34 
-26.6398 
n/a 
n/a 
n/a 
