-4.759 
n/a 
n/a 
n/a 
n/a 
-4.759 
n/a 
n/a 
n/a 
n/a 
-4.759 
n/a 
n/a 
n/a 
n/a 
-4.759 
n/a 
n/a 
n/a 
n/a 
-3.0415 -3.3715 -5.151 -4.129 -3.8195 -4.7095 -1.934 -3.691 
-4.5985 -8.411501 -9.5305 -9.142 -6.892 -6.5655 -4.8225 
-9.8985 -13.2566 -14.9221 -12.4151 -8.331 -9.1295 
-14.7798 -18.6482 -18.1952 -13.8541 -10.2985 
-20.1714 -21.9213 -19.6342 -15.8216 
-1.934 -3.691 0 -3.3715 -4.1745 0 -5.517 -2.8645 -4.522 
-4.8225 -3.691 -3.3715 -7.359 -4.1745 -5.517 -8.418 -6.4815 
-4.8225 -7.469501 -7.359 -7.359 -9.657 -8.418 -12.1212 
-7.947001 -11.7788 -7.359 -13.7069 -12.7568 -12.1212 
-12.2827 -11.7788 -13.7069 -16.8067 -16.46 
-3.845 -1.7565 -3.8195 -1.756 -4.1745 -3.8935 -3.937 -1.934 -3.691 0 
-4.13 -5.659 -5.2095 -5.479 -6.448 -8.6505 -5.788 -4.8225 -3.691 
-7.955 -6.5085 -6.045001 -7.134501 -11.7362 -10.8435 -8.729 -4.8225 
-8.875001 -6.9425 -7.3125 -12.7367 -13.9292 -13.7845 -8.729 
-10.233 -8.4315 -13.0515 -14.9297 -16.8702 -13.7845 
-1.934 -3.691 -3.0365 -2.186 -1.8085 -4.386 -1.7565 -4.1745 -2.229 -1.756 -3.8195 -4.7095 -2.4945 -4.005 0 
-4.8225 -6.831 -3.66 -3.164 -6.922501 -4.539 -5.817501 -6.411 -4.366 -5.5935 -6.892 -6.934501 -5.433001 -4.005 
-7.255001 -7.415 -4.218 -8.6925 -7.067 -8.841001 -7.304 -9.509501 -8.8275 -7.746 -9.147 -9.078501 -5.433001 
-7.7735 -7.9355 -8.8915 -8.839001 -11.5554 -10.4361 -10.5135 -14.0426 -11.2498 -9.873501 -11.3622 -9.078501 
-8.288501 -12.75 -8.971001 -13.4146 -13.1505 -13.6456 -15.0466 -16.4649 -13.3773 -12.2475 -11.3622 
