-4.759 
n/a 
n/a 
n/a 
n/a 
-4.759 
n/a 
n/a 
n/a 
n/a 
-4.759 
n/a 
n/a 
n/a 
n/a 
-4.759 
n/a 
n/a 
n/a 
n/a 
-3.788 -3.1575 -2.8965 -3.6885 -2.9385 0 -2.688 -3.6115 -3.6885 -3.614 0 
-8.114 -5.4505 -6.119 -7.561501 -2.9385 -2.688 -6.912 -5.632 -7.131001 -3.614 
-10.924 -9.200001 -9.649 -7.561501 -6.287001 -6.912 -9.216001 -9.112501 -7.131001 
-14.6735 -12.9452 -9.649 -11.1324 -10.9816 -9.216001 -12.8705 -9.112501 
-18.4187 -12.9452 -13.5003 -15.827 -13.2856 -12.8705 -12.8705 
-1.7695 -3.5795 -2.688 -4.114 -3.6885 -1.934 -1.4985 -3.5905 -4.114 -3.6885 
-4.6205 -6.2325 -6.784501 -7.422 -5.5135 -2.6125 -4.435 -8.504001 -7.422 
-6.8355 -10.1035 -10.688 -9.187 -6.1355 -5.555 -9.328501 -12.0104 
-10.9485 -14.1412 -12.453 -9.842501 -9.153501 -10.7495 -12.9455 
-14.9862 -15.9062 -13.1085 -12.8605 -14.5602 -14.3665 
-3.788 -3.147 -1.4985 -12.16972 0 -2.688 -4.2915 -2.4945 -3.3195 0 
-6.4405 -4.88 -14.76202 -12.16972 -2.688 -6.781001 -6.186 -5.481 -3.3195 
-8.071 -18.32712 -14.76202 -14.85772 -6.781001 -8.474001 -9.859 -5.481 
-21.58392 -18.32712 -17.45002 -18.95072 -8.474001 -12.4566 -9.859 
-21.58392 -21.01512 -21.54302 -20.64372 -12.4566 -12.4566 
-1.7695 -3.1715 -2.925 -1.7695 -1.4985 -4.066 -4.3125 0 -3.7345 -3.1425 -2.489 -3.672 
-4.257 -5.649 -3.71 -2.7955 -4.8505 -6.355 -4.3125 -3.7345 -6.8905 -3.7875 -4.819 
-6.737501 -5.932001 -4.726 -5.899 -7.0375 -6.355 -9.044001 -6.8905 -7.3125 -6.627501 
-7.011001 -7.114 -8.489 -8.0065 -7.0375 -11.3537 -12.325 -7.3125 -9.175 
-8.370501 -10.248 -10.6651 -8.0065 -12.288 -14.6347 -12.747 -9.175 
