-4.759 
n/a 
n/a 
n/a 
n/a 
-4.759 
n/a 
n/a 
n/a 
n/a 
-4.759 
n/a 
n/a 
n/a 
n/a 
-4.759 
n/a 
n/a 
n/a 
n/a 
-5.1845 -3.5025 -4.641 -5.1845 -4.245 -1.756 -3.1725 -3.452 -1.756 -3.3715 -4.4895 -2.674 
-8.614 -8.916 -9.689001 -7.991 -5.425 -5.072001 -7.013 -5.1485 -4.6545 -6.936 -7.0155 
-14.8073 -14.1836 -13.0215 -9.1745 -10.1765 -10.0345 -10.1385 -7.891 -8.505 -8.439501 
-20.0749 -17.5161 -14.205 -13.9812 -15.139 -13.16 -12.881 -11.9877 -9.346001 
-23.4074 -18.6996 -19.0117 -18.9437 -18.2645 -15.9025 -16.9777 -12.8287 
-5.1845 -3.5025 -3.35 -5.1845 -4.245 
-8.614 -7.9025 -8.131001 -7.991 
-13.7938 -13.1117 -12.4257 
-19.003 -17.4064 
-23.2977 
-5.1845 -4.023 -3.35 -5.1845 -4.245 -8.131001 -4.15 -3.3715 -4.418 -2.4945 -3.147 
-9.012501 -6.883 -8.131001 -7.991 -13.3418 -12.828 -7.9905 -6.8805 -6.26 -4.546 
-9.0515 -10.304 -12.4257 -17.4072 -18.0388 -16.6685 -11.8067 -8.4735 -9.702001 
-10.317 -14.7937 -21.8419 -22.1042 -21.8793 -20.4847 -13.3997 -12.1587 
-14.8133 -24.2099 -26.5389 -25.9447 -25.6955 -22.0777 -17.0849 
-5.1845 -3.1065 -3.35 -5.1845 -4.245 -4.3725 -1.756 -3.135 -4.5095 -2.4945 -3.0365 
-8.406 -6.4795 -8.131001 -7.991 -10.181 -5.924001 -4.5755 -7.9965 -7.603 -4.952001 
-12.6234 -12.0483 -12.4257 -14.2464 -11.7325 -8.720001 -9.618 -11.5104 -9.3485 
-18.1922 -16.343 -18.6811 -15.7979 -14.5285 -13.9063 -13.3549 -13.2559 
-22.4869 -22.5984 -20.2326 -18.5939 -19.7148 -17.6432 -15.1004 
