-4.759 
n/a 
n/a 
n/a 
n/a 
-4.759 
n/a 
n/a 
n/a 
n/a 
-4.759 
n/a 
n/a 
n/a 
n/a 
-4.759 
n/a 
n/a 
n/a 
n/a 
-3.3425 -2.645 -3.8935 -5.1375 -1.756 -3.7875 -3.5855 -2.0935 -3.345 -4.4655 -1.756 -2.9195 -2.186 -1.8085 -5.7415 -1.7565 -3.688 -8.5465 0 
-6.176001 -6.4325 -7.1115 -6.2955 -5.223001 -8.272 -5.5655 -4.212 -6.9995 -6.305 -5.16 -5.2945 -3.164 -7.0885 -7.392 -5.642 -8.748001 -8.5465 
-9.567 -9.367001 -8.1045 -9.750501 -10.1 -10.757 -7.634501 -8.068501 -8.144501 -10.7692 -7.9585 -6.548 -7.964 -7.9115 -11.4841 -10.6465 -8.748001 
-12.5533 -10.4275 -11.7325 -14.6643 -12.5162 -12.826 -10.041 -8.851501 -12.8683 -13.5677 -9.185 -12.1392 -8.5815 -12.0838 -16.4886 -10.6465 
-13.6138 -14.0555 -16.6463 -17.0805 -14.5852 -15.2325 -10.9546 -14.0431 -15.6668 -14.7942 -15.0438 -12.7567 -12.8232 -17.0883 -16.4886 
-4.3435 -1.7565 -3.77 -5.1845 -3.9355 0 -4.1685 -4.898 -2.0935 -3.345 -4.4655 -2.4945 -1.4985 -5.156 -1.7565 -1.4985 -3.688 -5.0155 0 -4.378 0 
-5.325 -6.1575 -10.0285 -8.764 -3.9355 -4.1685 -9.883001 -6.8475 -4.212 -6.9995 -6.549001 -3.9315 -7.217 -7.112 -2.4195 -4.6515 -5.84 -5.0155 -4.378 -4.378 
-10.089 -12.6936 -13.7172 -8.764 -8.085501 -9.883001 -11.8325 -9.007501 -8.068501 -9.290501 -8.498001 -8.411 -7.6985 -7.731 -5.8595 -6.003 -5.84 -7.4745 -4.378 
-16.6251 -16.3823 -13.7172 -13.034 -14.0624 -11.8325 -13.9925 -13.1776 -10.348 -10.4045 -13.3117 -8.803 -8.268001 -11.596 -7.6915 -6.003 -8.1385 -7.4745 
-20.3138 -16.3823 -17.9872 -19.0109 -16.0119 -13.9925 -18.1626 -15.4571 -11.462 -15.2182 -13.7037 -9.033001 -12.2208 -13.428 -7.6915 -8.35 -8.1385 
-3.3425 -3.8935 -3.9355 -1.756 -4.1685 -4.7725 -2.0935 -3.6055 -4.4655 -2.186 -1.4985 -4.519 -1.7565 0 -12.16972 0 
-6.389501 -6.5 -5.2215 -5.6285 -10.1385 -6.0185 -4.7925 -7.553 -6.386001 -3.339 -6.1675 -6.6395 -1.7565 -12.16972 -12.16972 
-8.651501 -7.807 -8.9875 -12.0279 -11.3845 -9.546 -8.913 -8.851501 -7.793 -7.5895 -7.03 -6.6395 -14.87542 -12.16972 
-9.137 -11.7628 -15.5029 -13.2739 -14.912 -13.7337 -10.718 -10.6475 -12.3653 -7.8835 -7.03 -20.23862 -14.87542 
-13.3032 -18.2782 -16.7489 -16.8014 -19.0997 -15.5387 -12.514 -15.2198 -12.6593 -7.8835 -20.97212 -20.23862 
-9.4425 -2.186 -3.383 -3.8935 -1.934 -3.6885 0 -1.756 -4.174 -4.7725 -2.0935 -3.345 -7.545 0 
-11.7375 -4.438 -5.4235 -6.3805 -5.8035 -3.6885 -1.756 -5.474 -10.0255 -6.0185 -4.212 -12.9905 -8.6905 
-13.9895 -6.192 -7.492001 -9.4445 -5.8035 -5.041 -5.474 -11.7411 -11.2715 -8.224 -13.7904 -13.1639 
-15.7435 -7.862 -10.789 -9.4445 -6.8735 -8.716001 -11.7411 -12.9871 -13.477 -18.208 -13.9202 
-17.4135 -11.2954 -10.789 -10.0655 -11.0529 -15.0953 -12.9871 -15.1926 -23.461 -18.208 
