-4.759 
n/a 
n/a 
n/a 
n/a 
-4.759 
n/a 
n/a 
n/a 
n/a 
-4.759 
n/a 
n/a 
n/a 
n/a 
-4.759 
n/a 
n/a 
n/a 
n/a 
-4.0885 -3.522 0 -5.1845 -4.922 0 
-6.997 -3.522 -5.1845 -11.4009 -4.922 
-6.997 -9.321 -11.4009 -11.4009 
-13.499 -15.5906 -11.4009 
-19.7686 -15.5906 
-4.344 -4.867 0 -5.1845 -4.0805 
-9.8265 -4.867 -5.1845 -9.3195 
-9.8265 -11.015 -9.3195 
-15.9745 -15.15 
-20.1095 
-3.94 -3.602 0 -8.863001 -4.0805 
-5.6485 -3.602 -8.863001 -13.5275 
-5.6485 -13.4692 -13.5275 
-16.2039 -18.1337 
-20.8684 
-3.535 -3.522 0 -8.1485 -4.0805 
-5.913 -3.522 -8.1485 -12.5896 
-5.913 -12.4339 -12.5896 
-15.0165 -16.875 
-19.4576 
