-4.759 
n/a 
n/a 
n/a 
n/a 
-4.759 
n/a 
n/a 
n/a 
n/a 
-4.759 
n/a 
n/a 
n/a 
n/a 
-4.759 
n/a 
n/a 
n/a 
n/a 
-3.995 -2.674 -5.943501 -3.2495 -4.0995 -4.4695 -3.7345 -4.921 -12.16972 -1.756 -10.014 
-6.9785 -7.604 -7.970501 -6.6535 -9.003 -8.7195 -9.197001 -17.94412 -13.92572 -12.7786 
-12.2411 -9.13 -11.6173 -12.3762 -13.4564 -14.2932 -22.70012 -19.70012 -24.94832 
-13.7671 -12.8472 -17.34 -16.8296 -19.0301 -27.79632 -24.45612 -30.72272 
-17.4843 -18.5699 -21.7934 -22.4033 -32.53322 -29.55232 -35.47872 
-3.299 -3.995 -5.1795 -2.186 -2.9995 -5.1795 -3.93 -3.1575 -1.4985 -5.2515 -2.0935 -7.0315 -5.1795 0 
-7.936501 -6.616 -6.946 -5.3555 -8.4575 -9.547001 -4.9745 -4.1355 -6.508 -7.4165 -8.609501 -7.501 -5.1795 
-8.1675 -8.503 -10.1765 -10.1225 -10.5035 -9.997001 -5.5235 -8.8125 -8.683001 -10.4265 -9.462501 -7.501 
-10.159 -10.304 -10.2505 -10.539 -10.519 -10.5105 -9.56 -10.3965 -10.513 -10.4895 -9.462501 
-10.74 -10.326 -10.5485 -10.556 -10.791 -14.547 -11.3088 -12.5397 -10.5485 -10.4895 
-3.0365 -2.4945 -3.2495 -3.6135 -6.395 -4.6465 -3.995 -3.9915 -6.3135 -1.756 -3.522 -8.228001 0 
-3.688 -4.891 -6.1985 -9.9135 -10.884 -8.04 -9.009501 -11.136 -9.078501 -5.943 -9.093 -8.228001 
-5.0435 -7.5135 -12.9073 -14.5135 -14.2775 -13.4183 -16.3048 -13.901 -13.5217 -10.218 -9.093 
-7.652 -14.5489 -17.5073 -17.907 -19.6558 -20.7136 -19.0698 -18.3442 -17.7967 -10.218 
-14.7634 -19.1489 -20.9008 -23.2853 -26.9511 -23.4786 -23.513 -22.6192 -17.7967 
-3.995 -3.7875 -2.341 -4.2705 -6.3135 0 -3.522 -8.228001 
-7.827001 -6.797 -7.6725 -11.7706 -6.3135 -3.522 -9.093 
-10.9937 -12.5261 -15.4432 -11.7706 -9.885501 -9.093 
-16.7228 -20.2968 -15.4432 -15.3426 -15.6549 
-24.4935 -20.2968 -19.0152 -21.112 
