-4.759 
n/a 
n/a 
n/a 
n/a 
-4.759 
n/a 
n/a 
n/a 
n/a 
-4.759 
n/a 
n/a 
n/a 
n/a 
-4.759 
n/a 
n/a 
n/a 
n/a 
-3.1015 -5.253 -1.7565 -6.2255 -4.3075 -4.612 0 
-8.863001 -6.5895 -6.9575 -10.932 -8.2535 -4.612 
-10.4935 -7.593 -12.059 -14.878 -8.2535 
-11.497 -13.1353 -16.005 -14.878 
-17.0393 -17.0813 -16.005 
-2.356 -3.345 -4.169 -7.916501 -1.4985 -3.9195 -1.7565 -2.871 -1.7565 -1.4985 -5.181 
-4.841001 -6.467 -11.046 -8.529501 -4.9505 -4.9355 -4.521 -3.5385 -2.4195 -6.134501 
-7.854001 -14.1116 -11.659 -12.1689 -5.2775 -7.572001 -5.163 -3.7675 -7.1955 
-15.7734 -14.7246 -15.2984 -12.4959 -7.8605 -8.2285 -5.414001 -7.6045 
-16.3864 -18.364 -15.6254 -15.0789 -8.476501 -8.401 -9.346001 
-1.4985 -5.253 -2.9705 -2.7415 -4.5485 -2.3345 0 -6.939 0 -2.4945 -4.732 -4.475 
-6.146501 -7.7895 -4.512 -5.5565 -5.4845 -2.3345 -6.939 -6.939 -2.4945 -8.1595 -9.686001 
-8.448 -8.9335 -6.9595 -6.542 -5.4845 -8.762501 -6.939 -9.780001 -8.1595 -13.3439 
-9.659 -11.5088 -7.888501 -6.542 -12.6441 -8.762501 -9.780001 -15.5494 -13.3439 
-12.2417 -12.4378 -7.888501 -13.9546 -12.6441 -11.9413 -15.5494 -20.7338 
-7.105 -4.138 -10.245 -3.5725 -1.7695 -3.723 
-11.6766 -15.7036 -13.8175 -5.865 -5.6855 
-23.2422 -19.2761 -16.11 -10.7522 
-26.8147 -21.5686 -20.9972 
-29.1072 -26.4558 
