-4.759 
n/a 
n/a 
n/a 
n/a 
-4.759 
n/a 
n/a 
n/a 
n/a 
-4.759 
n/a 
n/a 
n/a 
n/a 
-4.759 
n/a 
n/a 
n/a 
n/a 
0 -4.2215 -5.3285 0 -2.925 -7.647 -2.5685 -3.4025 0 
-4.2215 -8.859501 -5.3285 -2.925 -9.679001 -9.925501 -4.6195 -3.4025 
-8.859501 -8.859501 -9.417 -9.679001 -12.3647 -12.0491 -4.6195 
-8.859501 -13.204 -16.3154 -12.3647 -14.4883 -12.0491 
-13.204 -20.1024 -19.0011 -14.4883 -14.4883 
0 -4.2215 -9.716001 0 -3.0415 -3.966 -3.135 -4.4195 
-4.2215 -15.0627 -9.716001 -3.0415 -6.9795 -6.433 -6.9975 
-15.0627 -15.0627 -12.8077 -6.9795 -9.118501 -9.4285 
-15.0627 -18.1544 -16.7457 -9.118501 -12.686 
-18.1544 -22.0924 -18.8847 -12.686 
0 -6.603 0 -3.0415 -3.135 -3.4025 -3.152 -5.2645 
-6.603 -6.603 -3.0415 -5.978 -6.8005 -6.7095 -6.8865 
-6.603 -9.566 -5.978 -9.4575 -8.778501 -10.5975 
-9.566 -12.5435 -9.4575 -11.8017 -13.0299 
-12.5435 -16.023 -11.8017 -16.0531 
-4.2215 -2.5045 -5.3285 -2.186 -1.4985 -4.031 -1.7695 -3.966 -3.135 -3.8685 0 
-6.628 -8.104501 -8.573501 -3.339 -4.771 -5.006 -6.518001 -6.433 -7.5955 -3.8685 
-12.5724 -11.6037 -9.822001 -5.8475 -6.76 -10.4505 -9.470501 -10.504 -7.5955 
-16.0716 -12.8522 -12.3729 -7.8165 -12.3759 -13.6906 -13.6177 -10.504 
-17.3201 -15.4031 -14.3419 -13.615 -15.616 -17.8378 -13.6177 
