-4.759 
n/a 
n/a 
n/a 
n/a 
-4.759 
n/a 
n/a 
n/a 
n/a 
-4.759 
n/a 
n/a 
n/a 
n/a 
-4.759 
n/a 
n/a 
n/a 
n/a 
-3.5155 -1.4985 -3.959 -4.9785 -4.547 -6.3325 -3.2615 -1.4985 -5.708 -6.5995 -3.8275 -4.335 -4.064 -1.934 -5.1465 
-4.496 -5.5 -9.331501 -8.563001 -10.1 -8.734001 -4.032 -7.033501 -7.7145 -10.7335 -7.645 -9.225 -5.8075 -6.401 
-7.747 -11.6531 -13.1224 -14.345 -12.8803 -9.693001 -9.575001 -9.637001 -12.9039 -14.551 -12.8646 -11.1159 -10.208 
-13.9753 -15.444 -18.9044 -17.1253 -13.8393 -15.3474 -12.2363 -14.9214 -16.7214 -19.7706 -14.7555 -15.5164 
-17.7662 -21.226 -21.6847 -18.0843 -19.4937 -18.0087 -17.5207 -18.7389 -21.941 -21.6615 -19.156 
-2.925 -2.4945 -4.221 -1.934 -3.8275 -4.335 -2.5045 -5.1465 -5.708 -6.5995 0 
-3.7675 -7.9835 -5.516 -5.911 -7.645 -6.6435 -8.684 -8.0845 -7.7145 -6.5995 
-9.0435 -9.626 -10.2695 -10.688 -9.867001 -13.349 -11.7128 -10.155 -7.7145 
-10.8908 -14.5129 -15.0465 -12.91 -16.7011 -16.3778 -13.7833 -10.155 
-15.7777 -19.2899 -17.2685 -19.7441 -19.7299 -18.4483 -13.7833 
-1.934 -5.1465 -1.4985 -3.8275 -2.8645 -2.645 -4.927 -3.034 -1.8085 -4.335 -4.281 -5.708 -6.5995 -5.1275 
-6.401 -6.886 -4.726 -6.32 -5.2085 -7.699 -7.55 -4.4665 -5.79 -7.677 -8.673 -7.7145 -10.4945 
-7.39 -10.1 -6.965 -9.2355 -10.426 -10.523 -8.895 -7.619 -8.2775 -10.341 -10.7481 -12.6649 
-10.6335 -12.4316 -10.0885 -14.4796 -13.25 -11.868 -12.2521 -10.7175 -11.1147 -12.4161 -15.6985 
-12.9651 -15.5551 -15.5178 -17.3036 -14.595 -15.2251 -15.3506 -13.5547 -13.1898 -17.3665 
-1.934 -5.1465 -1.4985 -4.221 -1.7565 -3.1495 -3.2495 -3.959 -4.6185 -2.5045 -1.4985 -2.95 -1.7565 -7.807 -3.8275 -4.4605 -4.4395 0 
-6.401 -6.886 -5.1565 -6.4415 -3.914 -4.8975 -5.837 -8.6665 -7.439 -3.1915 -3.9285 -4.3785 -9.447001 -12.0333 -7.544001 -10.2925 -4.4395 
-7.39 -10.849 -7.103001 -8.757 -5.7375 -7.081 -10.513 -11.604 -8.408 -4.5155 -4.676 -12.997 -13.7439 -15.7498 -13.504 -10.2925 
-11.4882 -12.7955 -9.126501 -9.6745 -7.947001 -11.9378 -13.4505 -12.573 -9.9665 -4.837 -13.5537 -17.2939 -17.4604 -21.7098 -13.504 
-13.4347 -14.819 -9.830001 -11.9328 -12.8764 -14.8753 -14.4195 -14.1315 -10.602 -14.1041 -17.8506 -21.0104 -23.4204 -21.7098 
