-4.759 
n/a 
n/a 
n/a 
n/a 
-4.759 
n/a 
n/a 
n/a 
n/a 
-4.759 
n/a 
n/a 
n/a 
n/a 
-4.759 
n/a 
n/a 
n/a 
n/a 
-4.5255 -7.643 -9.594501 0 -5.943501 0 
-12.5563 -17.5747 -9.594501 -5.943501 -5.943501 
-22.488 -17.5747 -15.8034 -5.943501 
-22.488 -23.7836 -15.8034 
-28.6969 -23.7836 
-4.5255 0 -6.262 -9.594501 0 -5.943501 0 
-4.5255 -6.262 -16.5789 -9.594501 -5.943501 -5.943501 
-10.718 -16.5789 -16.5789 -15.8034 -5.943501 
-21.0349 -16.5789 -22.7878 -15.8034 
-21.0349 -22.7878 -22.7878 
-9.515501 -3.7465 0 -10.939 0 
-12.36 -3.7465 -10.939 -10.939 
-12.438 -15.7141 -10.939 
-24.9966 -15.7141 
-24.9966 
-9.515501 -3.7465 0 -5.943501 0 
-12.36 -3.7465 -5.943501 -5.943501 
-12.438 -10.7835 -5.943501 
-20.066 -10.7835 
-20.066 
