-4.759 
n/a 
n/a 
n/a 
n/a 
-4.759 
n/a 
n/a 
n/a 
n/a 
-4.759 
n/a 
n/a 
n/a 
n/a 
-4.759 
n/a 
n/a 
n/a 
n/a 
-3.674 -4.1485 -1.756 -8.529 -3.674 -1.7565 -3.676 -2.229 -3.1495 -4.816 -1.7565 -3.4775 -2.186 -9.6525 
-7.505 -7.29 -10.3415 -12.614 -6.417 -4.4345 -4.593 -6.3435 -7.3065 -5.872001 -5.4235 -4.962 -13.0489 
-11.3449 -16.6987 -14.4265 -15.357 -8.5305 -5.472 -9.896501 -10.757 -9.0745 -10.419 -7.176 -16.5387 
-20.7536 -20.7837 -17.1695 -17.4705 -9.888801 -10.7595 -14.31 -12.525 -13.8449 -12.4895 -19.0269 
-24.8386 -23.5267 -19.283 -18.8288 -15.1763 -15.173 -16.078 -17.2954 -15.9154 -24.3404 
-4.3665 -3.4945 -3.674 -2.4285 -3.4945 -4.4265 -9.269 -2.3335 -2.4265 -2.186 -1.8085 -3.6135 -3.6885 -1.934 -3.97 -1.756 -1.4985 -3.264 -5.069 -5.07 
-7.139 -6.6355 -5.929 -5.257501 -6.237 -14.7135 -11.9255 -3.913 -3.292 -3.164 -4.4545 -5.943 -5.1845 -5.607 -5.137 -3.0405 -4.0935 -7.591001 -9.373501 
-8.526501 -8.1 -9.189501 -8.197001 -17.3428 -17.37 -13.505 -4.5215 -4.4005 -5.4355 -6.1895 -7.18 -8.751 -6.5835 -6.1975 -5.4505 -8.089001 -12.2581 
-10.096 -9.6785 -12.438 -19.6608 -19.9993 -18.9495 -14.1135 -5.671 -6.6215 -6.9025 -7.313001 -10.286 -10.0375 -7.6695 -10.177 -9.710501 -13.0877 
-11.8025 -13.1134 -23.9018 -22.3173 -21.5788 -19.558 -15.263 -7.8395 -7.975501 -7.866 -10.717 -11.5725 -11.1235 -11.8976 -14.1896 -14.7984 
-3.4945 -3.2275 -1.756 -5.358 -3.2275 -2.186 -2.6165 -2.0935 -6.4825 -8.406501 -2.4945 -3.689 -2.5195 -1.4985 -7.769501 -2.186 -1.8085 -3.9655 -3.8035 0 
-8.0515 -4.6365 -6.471 -9.2745 -5.362 -3.5105 -4.7695 -10.4365 -16.3865 -10.1 -5.3195 -6.4945 -3.1695 -8.392 -8.549001 -3.164 -5.2555 -6.882 -3.8035 
-9.302 -10.7025 -10.228 -11.848 -6.671 -5.7895 -14.2931 -19.225 -18.1624 -12.925 -9.615001 -7.0445 -9.8655 -9.162001 -8.776501 -6.4375 -10.341 -6.882 
-15.619 -14.4595 -13.0049 -13.157 -9.249001 -15.5932 -22.5586 -20.9185 -20.9874 -17.2205 -10.3245 -13.8594 -10.2695 -9.7365 -12.0445 -11.8128 -10.341 
-19.376 -17.2364 -14.3139 -15.735 -19.2821 -23.7711 -24.2521 -23.7435 -25.2829 -17.93 -17.1394 -14.5974 -11.1835 -13.3633 -17.988 -11.8128 
-3.4945 -6.909 -2.4285 -4.116 -3.893 -1.7565 -4.989 -3.4975 -2.186 -2.985 -4.5435 -1.756 -2.4265 -2.186 -1.8085 -3.383 -3.6135 -3.9655 -3.614 
-10.316 -9.810501 -6.176001 -9.3325 -4.1785 -6.726501 -8.626 -6.6295 -5.3955 -7.3675 -6.2345 -3.949 -3.292 -3.164 -4.1695 -5.8785 -7.4055 -6.228 
-13.2175 -13.6776 -11.8731 -9.6525 -8.4795 -10.328 -10.757 -9.691501 -9.043501 -8.922501 -8.3865 -4.7355 -4.4005 -4.954 -6.1985 -9.296 -8.941501 
-17.0846 -19.3747 -12.1931 -14.0153 -12.7756 -12.459 -13.819 -13.3787 -11.0793 -11.2831 -8.9245 -5.92 -5.899 -6.917 -9.421 -10.703 
-22.7817 -19.6947 -16.5559 -18.3114 -14.9066 -15.521 -17.5062 -15.4145 -13.4399 -11.8211 -10.6345 -7.2155 -7.765 -10.172 -10.8718 
