-4.759 
n/a 
n/a 
n/a 
n/a 
-4.759 
n/a 
n/a 
n/a 
n/a 
-4.759 
n/a 
n/a 
n/a 
n/a 
-4.759 
n/a 
n/a 
n/a 
n/a 
-3.8655 -2.6165 -2.674 -2.9995 -4.1355 -4.8075 -2.356 -2.8965 -3.959 
-7.2845 -4.2165 -4.4625 -7.633 -9.951 -7.187 -4.4085 -4.940001 
-9.964001 -5.3575 -9.205 -14.0493 -12.4835 -9.896501 -6.539001 
-11.1176 -9.734501 -15.8381 -16.5818 -15.193 -12.2176 
-15.4946 -16.4454 -18.3706 -19.2913 -17.5141 
-2.3615 -3.4405 -2.6165 -2.674 -3.873 -4.1355 -2.356 -2.9995 -2.8965 -3.59 
-5.2865 -3.7415 -4.2165 -7.286 -7.223001 -6.123001 -4.6235 -4.1905 -5.941 
-5.384 -4.926001 -8.407001 -10.2485 -8.25 -9.259501 -5.541501 -6.351 
-7.197001 -9.140501 -11.5861 -11.9809 -10.1545 -9.764501 -8.225 
-12.2193 -12.4982 -13.3185 -13.8854 -10.354 -10.3785 
-2.3615 -4.2265 -2.847 -4.8015 -2.356 -2.9995 -2.8965 -3.59 0 
-8.238501 -7.1675 -7.3035 -6.937 -4.6235 -4.1905 -5.941 -3.59 
-10.3285 -10.688 -9.882501 -9.352501 -5.541501 -6.351 -5.941 
-14.4912 -10.712 -12.4344 -10.5045 -8.225 -6.351 
-14.5152 -13.9091 -13.5864 -13.188 -8.225 
-2.9995 -3.59 -2.6165 -4.1485 -2.3615 -2.6165 -4.207 0 
-5.866 -6.364 -6.9755 -6.68 -5.456 -8.1355 -4.207 
-8.113501 -11.537 -9.052 -10.2755 -11.9556 -8.1355 
-13.9311 -13.6135 -13.0633 -16.7751 -11.9556 
-16.0076 -17.6248 -19.5629 -16.7751 
