-4.759 
n/a 
n/a 
n/a 
n/a 
-4.759 
n/a 
n/a 
n/a 
n/a 
-4.759 
n/a 
n/a 
n/a 
n/a 
-4.759 
n/a 
n/a 
n/a 
n/a 
-2.3615 -2.186 -6.3235 0 -3.93 -3.1575 -1.4985 -3.4075 -3.784 -3.914 0 
-3.5005 -9.089001 -5.85 -3.93 -4.9745 -4.1355 -4.118 -5.801001 -7.829 -3.914 
-11.132 -8.899501 -10.259 -4.9745 -5.5235 -6.436 -5.9575 -10.5504 -7.829 
-11.1698 -13.5205 -10.697 -5.5235 -6.947001 -6.6305 -10.8967 -10.5504 
-15.7908 -13.9585 -11.13 -6.947001 -7.0755 -11.7039 -10.8967 
-2.3615 -2.186 -3.93 -3.1575 -3.2295 -2.5685 -3.8735 -4.1135 -3.6395 -1.7565 -6.3235 0 
-3.5005 -5.657001 -4.9745 -6.926001 -5.511 -6.3505 -8.224 -8.950001 -4.6145 -8.2115 -5.85 
-7.599 -5.9455 -8.872001 -9.3015 -9.2325 -8.995501 -13.6201 -9.904 -9.8865 -7.918001 
-7.693 -9.779 -11.5113 -13.1204 -12.2763 -15.2894 -14.5741 -15.3011 -9.740001 
-11.8051 -12.4227 -15.3302 -16.1642 -18.5702 -16.2434 -19.9712 -15.3011 
-2.3615 -2.186 -3.7555 -2.645 -3.4005 -4.2815 -1.7695 -3.5085 -4.1865 -2.229 -3.1385 -3.4005 -6.3235 0 
-3.5005 -7.23 -5.968 -6.0275 -7.6285 -4.4915 -5.8325 -8.101 -7.0995 -5.7405 -6.784 -9.820001 -5.85 
-8.4775 -9.742001 -9.5245 -9.781 -7.8135 -7.4875 -10.6335 -11.425 -10.688 -10.1345 -13.8595 -9.386001 
-11.6509 -13.3497 -13.5144 -10.2065 -10.411 -12.6071 -13.9575 -15.0135 -15.082 -17.2512 -13.8595 
-15.2586 -17.3396 -13.9399 -12.804 -15.5306 -15.9311 -17.546 -19.4075 -22.1987 -17.2512 
-2.4265 -2.186 -4.099 -3.1575 -4.1865 -3.4075 -11.128 -4.4345 -1.7565 -6.3235 
-3.292 -5.407001 -4.7895 -7.925001 -6.714 -16.1905 -15.5625 -4.719 -8.2115 
-7.2745 -5.54 -10.1635 -10.6427 -20.5206 -20.625 -15.847 -11.141 
-7.3705 -11.2388 -12.8812 -24.4493 -24.9551 -20.9095 -22.4384 
-13.2955 -13.9565 -26.6878 -28.8838 -25.2396 -27.5009 
