-4.759 
n/a 
n/a 
n/a 
n/a 
-4.759 
n/a 
n/a 
n/a 
n/a 
-4.759 
n/a 
n/a 
n/a 
n/a 
-4.759 
n/a 
n/a 
n/a 
n/a 
-3.5495 -3.16 -3.802 -4.49 -3.4865 -3.5965 
-6.325 -6.9115 -7.5135 -8.8055 -7.2545 
-10.6345 -9.959001 -12.9718 -13.1361 
-13.682 -16.1351 -17.3024 
-19.8581 -20.4657 
-3.6845 -3.473 -4.1085 -3.682 -4.0745 -1.756 -3.4625 -3.277 -4.293 -3.135 -3.4865 -3.5965 0 
-8.1695 -8.22 -8.4285 -7.3215 -5.7605 -5.1775 -6.211 -9.06 -7.6885 -6.0255 -7.2545 -3.5965 
-13.5951 -12.9474 -12.4296 -9.852501 -9.51 -7.2105 -12.4996 -12.6797 -10.8558 -9.758501 -7.2545 
-18.3225 -16.9485 -14.9606 -13.602 -11.6444 -13.8895 -16.1193 -15.847 -14.5888 -9.758501 
-22.3236 -19.4795 -18.7101 -15.7364 -18.3234 -17.5092 -19.2866 -19.58 -14.5888 
-3.5495 0 -2.4265 -4.118 -1.4985 -3.682 -1.756 -4.3025 -1.7695 -1.4985 -3.5025 -3.213 -4.0465 -1.7565 -1.4985 -3.5965 0 
-3.5495 -2.4265 -6.484 -5.784 -5.0885 -5.0325 -5.6075 -5.715 -2.7955 -4.16 -6.4255 -6.4915 -6.3015 -2.4195 -4.746 -3.5965 
-6.035 -6.484 -7.283501 -8.46 -6.327001 -9.211 -7.1815 -7.781 -5.185 -6.4735 -9.242001 -8.563 -6.7635 -5.778501 -4.746 
-9.155001 -7.283501 -9.383501 -9.702001 -10.66 -11.2842 -9.049001 -10.3815 -9.1215 -10.0054 -11.5761 -9.2845 -10.3815 -5.778501 
-9.740001 -9.383501 -10.5135 -14.274 -12.7332 -13.1517 -11.7139 -14.318 -13.045 -12.3395 -12.2976 -13.0469 -10.3815 
-5.358 -3.4865 -3.5965 -2.9705 -4.992 -6.523 -3.682 -2.0935 -6.8995 -1.756 -4.2265 -2.356 -3.5025 
-8.7945 -7.2545 -6.3525 -6.8075 -12.6988 -10.7335 -5.206 -9.146 -7.9665 -6.115 -6.1945 -5.519 
-12.2775 -9.92 -9.7095 -15.2039 -16.9093 -12.2575 -12.8955 -10.7185 -13.2965 -7.799 -10.523 
-12.186 -13.4016 -18.2895 -19.4144 -18.4333 -19.947 -14.468 -16.0485 -14.9805 -12.4489 
-15.6836 -21.9816 -22.5 -20.9384 -26.1228 -21.5195 -19.798 -17.7325 -19.6304 
