-4.759 
n/a 
n/a 
n/a 
n/a 
-4.759 
n/a 
n/a 
n/a 
n/a 
-4.759 
n/a 
n/a 
n/a 
n/a 
-4.759 
n/a 
n/a 
n/a 
n/a 
-1.4985 -5.6125 -3.5015 -1.934 -1.4985 -3.4715 -2.186 -5.476 -2.9705 -2.186 -4.06 -1.934 -1.4985 -4.1385 -4.3355 -5.0605 0 
-5.981 -8.1615 -4.704 -2.6125 -4.574 -5.35 -8.804001 -8.438001 -3.89 -4.672 -4.483 -2.6125 -5.0575 -5.686 -9.386001 -5.0605 
-8.2025 -9.061 -5.1615 -5.4655 -6.057 -12.6862 -12.157 -9.3125 -6.0725 -5.13 -4.937 -5.7615 -6.073501 -9.507 -9.386001 
-9.121 -9.374001 -8.485001 -7.427501 -13.592 -16.0392 -13.0315 -11.5274 -6.527 -5.522 -7.8725 -6.860001 -10.3689 -9.507 
-9.443001 -13.0641 -10.7575 -15.2961 -16.945 -16.9137 -15.2464 -11.9819 -6.846001 -8.624001 -8.406501 -11.3222 -10.3689 
-2.645 -4.3425 -3.325 -1.4985 -4.1115 -3.518 -2.186 -10.091 -4.653 -6.3405 -2.186 -1.4985 -4.1925 -4.3425 -1.7565 -4.1115 -1.934 -4.1385 -4.3355 0 
-6.4515 -7.964001 -3.898 -4.843 -5.3935 -5.4795 -12.3465 -14.2485 -11.9503 -8.3065 -3.339 -4.4615 -8.844 -5.2755 -5.857501 -6.1155 -6.352 -5.686 -4.3355 
-9.531501 -8.457001 -6.178 -6.882 -7.265 -15.551 -17.5417 -21.8858 -13.9163 -9.618501 -5.8545 -9.0935 -9.661 -8.9565 -8.3765 -9.925001 -8.025001 -5.686 
-9.873501 -10.4035 -9.043 -8.2565 -17.7602 -20.6119 -25.2438 -23.9058 -15.2283 -12.2136 -10.5855 -9.84 -13.3268 -11.7523 -12.3428 -10.5675 -8.025001 
-11.93 -13.2685 -10.6067 -18.9419 -22.5719 -28.26 -27.2098 -25.2178 -17.8234 -16.9446 -11.332 -13.525 -16.1226 -15.7186 -12.9853 -10.5675 
-4.1925 -4.3425 -1.934 -3.4715 -2.186 -5.476 -4.3425 -1.934 -10.091 -4.653 -2.9705 -2.186 -1.934 -8.059501 -1.934 -4.1385 -4.3355 0 
-8.844 -6.118 -5.3095 -5.35 -8.804001 -10.8215 -6.118 -12.15 -14.2485 -7.295501 -3.89 -4.0835 -11.08 -10.1265 -6.352 -5.686 -4.3355 
-10.368 -8.779 -7.2995 -12.6862 -14.5405 -12.597 -16.5999 -17.5201 -17.1227 -7.952001 -5.7145 -13.8561 -13.147 -14.8027 -8.025001 -5.686 
-13.029 -10.513 -14.9195 -18.4227 -16.316 -23.3387 -21.6714 -20.4591 -17.7307 -9.997001 -15.8027 -15.9231 -17.8232 -16.4757 -8.025001 
-14.763 -18.133 -20.656 -20.1982 -27.0577 -28.1504 -24.5564 -21.0131 -19.7757 -20.0984 -17.8697 -20.5993 -19.4962 -16.4757 
-1.4985 -6.492 -3.5015 -2.0935 -3.325 -3.4715 -2.186 -5.476 -2.4265 -2.186 -4.06 -1.934 -4.1385 -2.4265 -2.186 -4.06 -10.091 -4.653 -3.325 -3.4715 0 
-6.689501 -9.3985 -4.7905 -5.7405 -6.141 -5.35 -8.804001 -8.308001 -3.292 -4.672 -4.483 -6.352 -7.232 -3.292 -4.672 -14.0635 -14.2485 -8.187 -6.141 -3.4715 
-9.651501 -11.0503 -8.963501 -8.552 -8.2755 -12.6862 -12.027 -8.932 -5.963 -5.13 -8.4285 -10.0925 -7.89 -5.963 -15.3563 -19.65 -17.6262 -9.706501 -6.141 
-11.4605 -15.2233 -11.9362 -10.9767 -15.8989 -15.9092 -12.651 -11.8812 -6.4835 -8.9445 -12.7382 -10.7505 -10.088 -16.7416 -20.3048 -23.0925 -19.8505 -9.706501 
-15.6335 -18.196 -14.3609 -18.6001 -19.1219 -16.5332 -15.6002 -12.4017 -10.31 -13.4444 -13.3962 -12.9485 -20.95 -21.5425 -23.6933 -25.2628 -19.8505 
