-4.759 
n/a 
n/a 
n/a 
n/a 
-4.759 
n/a 
n/a 
n/a 
n/a 
-4.759 
n/a 
n/a 
n/a 
n/a 
-4.759 
n/a 
n/a 
n/a 
n/a 
-3.047 -2.3615 -3.074 -4.1865 -7.496 -2.95 -3.42 
-4.672 -5.384501 -7.927501 -10.1265 -11.0092 -6.07 
-8.189 -11.2914 -14.0357 -13.9335 -14.1292 
-14.4159 -17.3996 -17.8427 -17.0535 
-20.5241 -21.2066 -20.9627 
-3.61 -2.5045 -2.3615 -3.074 0 -3.8735 -3.5125 
-4.1825 -4.3105 -5.384501 -3.074 -3.8735 -7.3345 
-5.587 -7.935 -5.384501 -7.785001 -7.3345 
-9.009001 -7.935 -11.1489 -11.6996 
-9.009001 -14.5232 -15.0635 
-3.047 -2.3615 -3.074 0 -4.1865 -3.5125 -5.751 
-4.672 -5.384501 -3.074 -4.1865 -6.885 -10.147 
-8.189 -5.384501 -7.927501 -6.885 -14.0133 
-8.189 -11.2914 -10.7942 -14.0133 
-14.4159 -14.1581 -17.9225 
-3.074 -3.047 -2.3615 0 -5.555 -1.7565 -4.1865 -3.5125 
-5.3415 -4.672 -2.3615 -5.555 -6.25 -5.463 -6.885 
-7.0535 -4.672 -7.7095 -6.25 -9.559501 -7.841501 
-7.0535 -10.5635 -8.8525 -9.559501 -10.2105 
-13.3098 -11.7065 -12.3122 -10.2105 
