-4.759 
n/a 
n/a 
n/a 
n/a 
-4.759 
n/a 
n/a 
n/a 
n/a 
-4.759 
n/a 
n/a 
n/a 
n/a 
-4.759 
n/a 
n/a 
n/a 
n/a 
-5.2545 -4.6835 -3.383 -3.4915 -1.4985 -3.594 -2.264 -4.922 -6.4575 -3.7535 0 
-8.9125 -7.553 -4.8075 -5.291 -5.2345 -5.3155 -7.221001 -10.3965 -11.2066 -3.7535 
-11.919 -7.6515 -6.39 -8.989 -6.6405 -9.859 -13.0469 -15.1456 -11.2066 
-12.0175 -8.450001 -9.81 -10.8308 -11.9292 -15.9763 -17.796 -15.1456 
-12.816 -12.0576 -12.1694 -16.1195 -18.0465 -20.7254 -17.796 
-5.2545 -4.745 -3.594 -2.3335 -5.52 -2.264 -4.922 -8.723001 
-9.163501 -7.718501 -5.6515 -8.420501 -7.636001 -7.221001 -14.8772 
-12.4944 -9.6675 -12.5547 -10.634 -13.0148 -17.5276 
-14.4434 -16.7079 -14.7682 -16.0128 -23.3214 
-21.4838 -18.9214 -20.147 -26.3194 
-5.2545 -4.6335 -7.357 -3.326 -3.594 -3.4915 
-9.758501 -13.1775 -11.1634 -7.032001 -7.877501 
-18.4943 -16.9839 -14.8694 -12.1199 
-22.3007 -20.6899 -19.9573 
-26.0067 -25.7778 
-5.2545 -4.6835 -3.3715 -3.594 -2.264 -3.326 -1.7565 -4.8005 -2.264 -4.922 0 
-8.9125 -8.242001 -6.183001 -5.3155 -5.7135 -5.826 -6.5295 -7.1295 -7.221001 -4.922 
-12.608 -11.5715 -7.1225 -8.4705 -7.8215 -11.0356 -9.550501 -12.7261 -7.221001 
-15.9375 -12.511 -10.5745 -11.3097 -13.1361 -14.0566 -15.1039 -12.7261 
-16.877 -15.963 -13.4137 -16.6243 -16.1571 -19.61 -15.1039 
