-4.759 
n/a 
n/a 
n/a 
n/a 
-4.759 
n/a 
n/a 
n/a 
n/a 
-4.759 
n/a 
n/a 
n/a 
n/a 
-4.759 
n/a 
n/a 
n/a 
n/a 
-3.6885 -12.16972 -5.207 -3.4635 -1.7695 -3.2345 -6.95 -2.4265 -4.1205 -3.931 
-16.90522 -17.37672 -8.5375 -4.2045 -3.713 -11.5547 -9.6805 -6.712501 -8.8235 
-22.11222 -20.70722 -8.9895 -8.609501 -12.3512 -14.2852 -14.4259 -11.6985 
-25.44272 -21.15922 -13.7239 -17.3225 -15.0817 -19.0306 -19.4119 
-25.89472 -25.89362 -22.4369 -20.053 -19.8271 -24.0166 
-1.4985 -5.173 -2.0935 -4.719 -4.916 -4.8635 -1.934 -4.654 -1.756 -3.3825 -3.6445 -1.7565 -6.2775 -1.4985 -4.1455 -4.916 
-6.078 -7.0905 -6.5295 -9.885 -10.1345 -4.9455 -6.42 -5.758 -4.482 -7.0715 -4.775001 -7.522501 -6.8095 -5.503 -7.763 
-7.535501 -10.375 -12.1671 -15.1035 -10.3745 -8.592 -7.6765 -7.540501 -7.934 -8.5395 -11.3844 -7.9005 -10.3345 -8.132001 
-10.5975 -16.2466 -17.3856 -15.3435 -14.021 -11.4561 -9.538 -11.6675 -8.7205 -15.8431 -11.7624 -11.5223 -13.3481 
-16.4691 -21.4651 -17.6256 -18.99 -16.8851 -13.3176 -14.6054 -12.454 -16.7153 -16.2211 -15.3842 -14.5359 
-1.8085 -3.6385 -3.6135 -5.0295 -2.186 -4.331 -1.7695 -4.3245 -1.8085 -4.4715 
-4.581 -7.227 -7.047501 -6.8165 -8.172501 -4.593 -4.714 -5.1525 -5.947001 
-8.5085 -9.6075 -9.065001 -13.2848 -8.452001 -7.855 -5.426001 -9.650001 
-11.487 -11.8572 -15.7337 -13.5643 -11.794 -8.543 -9.9715 
-13.7367 -18.5259 -16.0132 -16.9063 -12.482 -13.2073 
-3.6135 -6.041 -3.8015 -2.7455 -3.7895 -1.7695 -3.6135 -3.4905 -4.138 -3.5185 -4.353 0 
-10.287 -9.887501 -7.299 -7.224 -5.132 -5.829 -6.9235 -7.053 -9.3105 -7.636001 -4.353 
-14.1335 -13.5128 -12.3115 -10.181 -9.3915 -9.001 -10.883 -12.7715 -13.8306 -7.636001 
-17.7588 -18.5253 -15.2685 -14.4405 -12.6765 -13.1247 -16.6015 -17.2916 -13.8306 
-22.7713 -21.4823 -19.528 -17.7255 -16.8002 -18.8432 -21.1216 -17.2916 
