-4.759 
n/a 
n/a 
n/a 
n/a 
-4.759 
n/a 
n/a 
n/a 
n/a 
-4.759 
n/a 
n/a 
n/a 
n/a 
-4.759 
n/a 
n/a 
n/a 
n/a 
-3.999 0 -4.208 -2.9775 -4.928 0 
-3.999 -4.208 -6.9915 -7.925501 -4.928 
-7.2615 -6.9915 -12.4221 -7.925501 
-10.7136 -12.4221 -12.4221 
-16.1442 -12.4221 
-3.2795 0 -3.0835 -2.9775 -4.928 
-3.2795 -3.0835 -5.4115 -7.925501 
-6.7305 -5.4115 -11.3127 
-9.287001 -11.3127 
-15.9036 
-4.4675 0 -3.9175 -2.9775 -3.522 
-4.4675 -3.9175 -4.8395 -6.318501 
-9.7475 -4.8395 -7.112 
-10.7217 -7.112 
-12.9942 
-3.355 0 -3.0835 -2.9775 -5.3935 
-3.355 -3.0835 -5.4115 -9.5395 
-7.285501 -5.4115 -12.9267 
-10.001 -12.9267 
-17.5162 
