-4.759 
n/a 
n/a 
n/a 
n/a 
-4.759 
n/a 
n/a 
n/a 
n/a 
-4.759 
n/a 
n/a 
n/a 
n/a 
-4.759 
n/a 
n/a 
n/a 
n/a 
-3.6705 0 -3.1495 -2.4945 -5.0605 -4.958 -1.756 -3.152 -2.6165 -4.9335 0 
-3.6705 -3.1495 -4.459 -6.829 -9.0115 -5.9805 -5.002501 -4.6295 -6.956 -4.9335 
-5.73 -4.459 -8.135 -9.935501 -9.941501 -9.367001 -6.273 -8.795 -6.956 
-6.906 -8.135 -11.4427 -10.7615 -13.3994 -10.3615 -10.27 -8.795 
-9.986 -11.4427 -12.2687 -14.2194 -14.3939 -14.3585 -10.27 
-2.872 -2.3615 -4.339 -2.186 -2.6165 -4.452 -2.871 0 
-4.6665 -5.805 -5.8175 -3.5105 -6.637 -7.841001 -2.871 
-8.132 -6.562 -7.271 -9.545501 -9.551001 -7.841001 
-8.658001 -7.977 -13.7054 -12.4913 -9.551001 
-9.3055 -14.5188 -16.6512 -12.4913 
-3.5725 -3.0365 -2.186 -2.847 -4.5945 -4.0745 -2.0935 -2.3615 
-5.6995 -3.66 -4.1045 -6.960001 -6.989 -5.3495 -3.854 
-6.851 -4.256001 -7.835001 -7.849501 -8.402 -6.734 
-7.5505 -7.843 -8.346001 -9.281501 -9.535 
-10.6595 -8.35 -9.588 -10.0415 
-3.013 -2.6165 -4.676 -2.3335 -3.6705 -4.196 -8.120501 -1.756 -4.3625 0 
-3.724 -6.423 -5.4235 -6.211 -7.924 -13.8679 -9.6005 -6.486 -4.3625 
-7.453501 -7.0455 -9.264501 -9.7685 -17.7321 -15.3479 -14.4377 -6.486 
-7.980501 -10.9379 -12.923 -20.15 -19.2121 -20.1851 -14.4377 
-11.8159 -14.5964 -23.3045 -21.63 -24.0493 -20.1851 
