-4.759 
n/a 
n/a 
n/a 
n/a 
-4.759 
n/a 
n/a 
n/a 
n/a 
-4.759 
n/a 
n/a 
n/a 
n/a 
-4.759 
n/a 
n/a 
n/a 
n/a 
-3.6955 -4.863 -1.8085 -4.0905 
-7.658 -6.107 -5.2585 
-8.943001 -6.718501 
-9.144501 
n/a 
-3.637 -2.3085 -4.863 
-5.910501 -6.4235 
-8.515 
n/a 
n/a 
-8.5515 -9.048 0 -3.465 -3.1405 -1.7695 -4.863 -1.8085 -4.0905 0 0 
-10.6605 -9.048 -3.465 -5.7365 -4.378 -5.583 -6.107 -5.2585 -4.0905 0 
-10.6605 -13.3124 -5.7365 -5.9015 -7.443 -6.9125 -6.718501 -5.2585 -4.0905 
-14.9249 -15.5839 -5.9015 -8.5885 -8.7225 -7.514501 -6.718501 -5.2585 
-17.1964 -15.7489 -8.5885 -9.927501 -9.06 -7.514501 -6.718501 
-8.5515 -9.320001 
-10.4345 
n/a 
n/a 
n/a 
