-4.759 
n/a 
n/a 
n/a 
n/a 
-4.759 
n/a 
n/a 
n/a 
n/a 
-4.759 
n/a 
n/a 
n/a 
n/a 
-4.759 
n/a 
n/a 
n/a 
n/a 
-1.4985 -5.1845 -3.1385 -2.4945 -4.7265 -1.934 -2.3615 -3.594 -1.756 -3.074 -2.925 -3.429 -3.355 -1.934 -2.4265 
-6.5205 -7.4095 -4.588 -5.924 -5.6355 -3.539 -6.396 -4.857 -4.566 -6.184 -5.533 -5.2945 -4.8475 -4.6645 
-7.6315 -8.7805 -7.7615 -6.6165 -7.527 -7.4545 -7.938 -7.9725 -7.348001 -8.724001 -7.491 -5.3915 -6.8555 
-9.145 -12.1714 -8.5725 -8.528001 -9.59 -8.7985 -10.494 -10.9025 -10.022 -10.647 -7.5485 -7.457 
-12.5785 -12.9824 -10.146 -10.1765 -11.0774 -11.4975 -13.424 -13.5765 -11.945 -10.7395 -9.587501 
-1.934 -2.3615 -5.1845 -3.1385 -1.7565 -2.3335 -2.186 -3.898 -1.934 -3.6885 0 
-3.539 -8.5165 -7.4095 -4.861 -4.314 -3.7085 -7.0655 -4.962501 -5.8035 -3.6885 
-9.6745 -10.9297 -8.8085 -7.0795 -6.111 -8.5295 -7.9965 -8.7805 -5.8035 
-12.2159 -12.3287 -11.668 -9.961 -10.5225 -9.5065 -12.0217 -8.7805 
-13.6149 -15.1882 -14.5495 -14.4955 -11.4995 -13.5153 -12.0217 
-8.27 -3.074 -4.493 -9.0275 -1.756 -8.106501 -2.356 -2.3615 0 
-10.6095 -6.397 -14.8101 -11.1259 -8.8575 -8.975 -4.2185 -2.3615 
-13.9325 -17.4091 -16.9085 -17.7604 -8.783 -9.9445 -4.2185 
-24.9446 -19.5075 -23.543 -18.1464 -10.924 -9.688001 
-27.043 -26.142 -23.929 -20.3337 -10.9638 
-1.4985 -6.4735 -2.674 -3.1125 -3.781 -1.756 -3.937 -3.1335 -2.3615 -3.594 -2.0935 -3.9485 -2.95 
-7.190001 -8.0445 -3.6315 -6.7725 -4.972 -5.602 -7.739501 -5.7355 -6.396 -5.748 -7.092 -6.7845 
-8.6495 -8.669001 -7.128 -8.247001 -7.729001 -9.069 -10.523 -10.7175 -8.3755 -11.4521 -7.459001 
-9.4245 -12.4175 -8.592 -9.7795 -11.3454 -11.9895 -15.505 -12.697 -14.357 -11.8191 
-13.173 -13.8815 -10.0605 -13.4385 -14.2659 -16.9715 -17.4845 -18.6785 -14.724 
