-4.759 
n/a 
n/a 
n/a 
n/a 
-4.759 
n/a 
n/a 
n/a 
n/a 
-4.759 
n/a 
n/a 
n/a 
n/a 
-4.759 
n/a 
n/a 
n/a 
n/a 
-4.7475 -2.925 -4.532 -1.7695 -4.544 -4.45 -2.356 -1.8085 -4.0205 -4.299 -1.756 -4.587 -4.33 -3.9685 -4.257 -3.436 -2.925 -4.098 -4.0655 0 
-6.6055 -6.6785 -5.484 -5.208 -10.66 -7.3735 -3.4075 -4.688 -7.7065 -5.769 -5.986 -7.711 -8.594001 -6.804501 -7.5545 -5.0005 -8.192501 -6.5125 -4.0655 
-10.586 -6.871 -8.7325 -11.841 -13.5835 -8.282001 -5.787001 -8.0465 -8.938001 -9.992001 -8.8145 -12.241 -11.6306 -9.468 -9.0375 -9.446501 -10.8076 -6.5125 
-10.776 -9.9455 -15.4189 -14.7645 -14.492 -10.286 -8.896501 -9.229 -13.2374 -12.8711 -13.4497 -15.2776 -14.2941 -11.0294 -13.6047 -12.513 -10.8076 
-13.8505 -16.5605 -18.3424 -15.673 -16.496 -13.3955 -9.923 -13.5698 -16.1165 -17.5063 -16.4863 -17.9411 -15.8555 -15.5966 -16.6712 -12.513 
-3.433 -1.7565 -2.3615 0 -2.4265 -4.9385 -4.45 -3.0835 -1.756 -2.4265 -4.1085 -1.7695 -7.871 -3.8515 -3.436 -2.4265 -3.0465 -4.3895 -2.0935 -1.4985 -4.319 
-4.1845 -3.523 -2.3615 -2.4265 -7.352 -10.1995 -7.599501 -4.7735 -3.949 -6.5 -4.428 -10.523 -12.4935 -6.634501 -4.978 -5.695 -6.351 -5.1965 -2.9725 -5.231501 
-5.5485 -3.523 -5.3335 -7.352 -12.9718 -13.5068 -10.322 -7.172 -8.179501 -6.758 -14.6881 -15.1455 -15.2765 -7.9055 -8.144 -9.7435 -6.8755 -5.734 -6.7205 
-5.5485 -6.434501 -10.634 -12.9718 -16.2791 -16.2293 -12.7205 -11.6735 -8.441 -17.0039 -19.3106 -17.9285 -16.5475 -11.2713 -12.8263 -10.6765 -7.844 -8.7805 
-6.968 -12.082 -16.2538 -16.2791 -19.0016 -18.6278 -17.222 -11.935 -18.8127 -21.6264 -22.0936 -19.1995 -19.9133 -15.9536 -13.7593 -11.645 -11.3197 
-3.0415 0 -4.318 -4.299 -3.7015 -1.4985 -4.45 -3.251 -1.7695 -5.185 -1.7695 -4.506 -3.9465 -3.436 -2.4265 -3.7555 -4.3895 
-3.0415 -4.318 -7.733001 -6.337 -4.3435 -7.1665 -8.047001 -4.3285 -5.512 -6.226 -5.162 -9.834 -7.4685 -4.978 -5.6305 -8.614 
-6.77 -7.733001 -9.790001 -6.8875 -9.777501 -11.1429 -9.328501 -7.950001 -7.462 -10.1305 -10.426 -13.494 -9.278001 -7.0825 -10.953 
-10.9106 -9.790001 -10.3705 -12.7645 -14.0445 -12.4244 -13.0472 -9.196501 -10.3955 -15.6965 -14.086 -15.3035 -11.5381 -12.7848 
-12.9676 -10.3705 -16.2475 -17.0315 -15.326 -16.1431 -14.2937 -12.2308 -16.7643 -19.3565 -15.8955 -17.5636 -17.2404 
-2.5045 -1.8085 -3.777 -1.7565 -2.3615 -1.8085 -4.0205 -4.299 -2.7415 -1.7695 -2.489 -3.43 -1.7695 -4.544 -4.45 -1.756 -4.299 -3.9465 -3.436 -2.4265 -3.882 -4.0655 -1.7695 -4.299 0 
-3.3625 -4.3955 -4.411 -3.523 -5.0165 -4.688 -7.7065 -6.4115 -4.604 -3.1405 -4.4215 -4.647 -5.208 -10.66 -6.2155 -6.2875 -8.553 -7.4685 -4.978 -4.9575 -8.2685 -4.4155 -5.4975 -4.299 
-4.4445 -4.6235 -5.6815 -6.6785 -8.0895 -8.0465 -10.078 -7.9995 -5.526 -5.1615 -5.3055 -8.12 -11.841 -12.4255 -11.5922 -10.328 -12.3632 -9.278001 -7.508 -9.1155 -8.699 -7.4545 -5.4975 
-4.6725 -5.863 -8.0725 -9.618 -11.6198 -10.1805 -11.846 -8.557 -7.352 -6.24 -8.880501 -14.975 -13.6065 -17.8022 -15.6327 -14.1382 -14.1727 -11.9636 -12.0834 -9.1515 -12.0324 -7.4545 
-5.8735 -8.0955 -11.3656 -13.1483 -13.7538 -11.9583 -12.4035 -9.000501 -8.463 -9.821501 -15.7961 -16.7405 -18.9832 -21.8427 -19.4429 -15.9477 -16.8583 -16.539 -12.1194 -13.8769 -12.0324 
