-4.759 
n/a 
n/a 
n/a 
n/a 
-4.759 
n/a 
n/a 
n/a 
n/a 
-4.759 
n/a 
n/a 
n/a 
n/a 
-4.759 
n/a 
n/a 
n/a 
n/a 
-3.034 -4.8345 -4.638 -1.934 -4.1115 0 -5.3085 -4.191 -4.5625 -3.098 -4.4895 -3.741 -5.3085 -4.828 -4.5485 -2.4285 -2.6165 
-8.719001 -7.830501 -5.472 -6.27 -4.1115 -5.3085 -6.580501 -8.936501 -7.815 -6.558001 -9.2475 -8.5415 -7.2115 -8.645 -6.979 -4.3195 
-10.323 -8.7875 -9.5245 -6.27 -8.7295 -6.580501 -12.514 -12.5046 -11.515 -11.393 -14.2308 -11.3147 -11.7097 -11.4035 -8.527 
-11.28 -13.1494 -9.5245 -10.4265 -9.8205 -12.514 -16.0821 -16.2046 -16.35 -16.3763 -17.004 -15.8129 -14.4682 -12.9515 
-15.6419 -13.1494 -14.0432 -12.8283 -16.2894 -16.0821 -19.7821 -21.0396 -21.3333 -19.1495 -21.5022 -18.5714 -16.0162 
-2.7835 -5.043 -1.934 -4.1115 0 -1.4985 -3.098 -5.3085 -4.395 -4.2635 -2.3615 -3.319 -1.7565 -4.8345 0 
-9.057501 -7.2225 -6.27 -4.1115 -1.4985 -4.123 -9.278501 -11.1415 -8.676001 -6.593 -4.9575 -4.165 -6.570001 -4.8345 
-11.4438 -12.0321 -6.27 -5.8805 -4.123 -9.6645 -15.2487 -15.4225 -11.1679 -8.642 -5.092 -8.7255 -6.570001 
-16.2534 -12.0321 -8.870001 -8.3415 -9.6645 -15.7753 -19.5297 -17.9144 -13.2169 -8.679501 -9.598001 -8.7255 
-16.2534 -14.6321 -11.4018 -14.0228 -15.7753 -20.0563 -22.0216 -19.9634 -13.2544 -13.2605 -9.598001 
-3.034 -3.995 -5.2425 -4.4825 0 -2.4265 -4.634 -5.3085 -4.828 -2.4945 -4.4825 -1.934 -4.3355 -2.4285 -2.6165 -2.8645 -3.1125 -4.78 
-7.533 -7.2275 -8.546 -4.4825 -2.4265 -6.575 -10.821 -7.2115 -6.453 -8.7665 -5.5625 -6.208 -6.837501 -4.3195 -6.9245 -3.5345 -6.123 
-10.7495 -10.096 -8.546 -6.5115 -6.575 -13.7336 -12.724 -7.8745 -13.3164 -9.731001 -9.176001 -8.780001 -9.4925 -7.3255 -7.976501 -6.4645 
-13.618 -10.096 -10.757 -11.7034 -13.7336 -15.6366 -13.387 -16.0401 -14.2809 -13.3397 -12.8448 -12.006 -12.5717 -8.252 -11.0547 
-13.618 -12.373 -15.9489 -18.862 -15.6366 -16.2996 -21.5526 -17.0046 -17.8896 -17.0085 -16.0708 -15.0852 -13.4982 -11.4642 
-3.819 -3.0365 -2.186 -4.8345 -3.9875 -1.4985 -4.1115 0 -1.4985 -3.098 -3.8875 -2.3335 -2.7765 -3.8905 -3.8105 -5.3085 -2.742 -4.474 -2.4285 -2.6165 -2.186 -3.098 -3.768 -2.356 -1.4985 -3.0785 -1.7565 -5.3085 -4.191 -3.8875 
-6.238 -3.66 -7.913501 -9.2185 -4.653 -4.843 -4.1115 -1.4985 -4.123 -7.209 -5.5705 -4.267 -5.1555 -6.3935 -10.0045 -7.868501 -5.6185 -6.644 -4.3195 -6.006001 -4.5535 -6.0175 -5.7045 -3.1615 -4.779 -5.1815 -6.896501 -6.580501 -7.1 
-7.058001 -9.7935 -13.0993 -9.808001 -8.5655 -4.843 -5.8805 -4.123 -7.594501 -8.125 -6.7955 -7.231 -7.333 -12.9185 -12.5645 -9.621 -7.664001 -8.32 -6.341001 -8.5825 -6.45 -7.2525 -6.364 -5.297501 -5.2205 -10.4675 -8.6175 -10.4265 
-13.2389 -15.0551 -13.6888 -13.7683 -8.5655 -6.279 -8.3415 -7.594501 -8.1925 -9.032001 -9.384001 -8.804501 -14.289 -15.4785 -14.317 -11.9025 -9.0105 -9.992001 -8.741 -10.5535 -7.5065 -7.838 -7.789001 -5.3145 -10.6595 -12.1885 -12.7217 
-18.5005 -15.6446 -17.6491 -13.7683 -10.181 -8.7735 -11.9528 -8.1925 -9.0695 -11.7195 -11.0673 -16.1817 -16.849 -17.231 -16.5985 -13.249 -10.5325 -12.4408 -10.8836 -11.61 -8.0485 -8.91 -7.8065 -10.7633 -12.3805 -16.2927 
