-4.759 
n/a 
n/a 
n/a 
n/a 
-4.759 
n/a 
n/a 
n/a 
n/a 
-4.759 
n/a 
n/a 
n/a 
n/a 
-4.759 
n/a 
n/a 
n/a 
n/a 
-3.115 -2.3335 -2.9805 -4.0645 -3.091 -6.2665 -4.425 -3.091 -3.6825 -4.9705 0 -3.091 -4.8875 -3.074 -4.1205 0 -1.7695 -3.2345 -3.091 -4.4455 -3.6825 -1.7695 -4.99 
-4.7415 -4.1515 -8.042 -7.116 -9.957001 -9.288 -7.219501 -6.0125 -9.498 -4.9705 -3.091 -6.152 -8.1155 -6.0935 -4.1205 -1.7695 -3.713 -5.758 -5.4825 -8.93 -5.2355 -5.2645 
-6.6835 -9.771 -9.502501 -14.0498 -12.3115 -12.198 -9.948501 -12.6958 -9.498 -8.487 -6.152 -8.879001 -11.3842 -6.0935 -5.1155 -3.713 -5.996 -8.973001 -10.4788 -10.7088 -9.198 
-12.5582 -11.3997 -16.4993 -17.0783 -15.6942 -15.3482 -17.8824 -12.6958 -13.1185 -11.6302 -8.879001 -12.1983 -11.3842 -7.099501 -7.9675 -5.996 -9.179501 -14.1021 -12.2576 -14.6713 
-14.1869 -18.3965 -19.5278 -20.211 -18.7162 -23.2821 -17.8824 -16.3163 -16.2617 -14.3572 -12.1983 -12.1983 -12.3902 -9.972501 -10.532 -9.179501 -14.3412 -15.8809 -16.2201 
-2.6165 -3.613 -1.7695 -2.8965 -8.721001 -2.872 -2.8705 -6.7085 -3.098 -3.535 0 
-6.3055 -5.9595 -4.497 -12.7627 -11.9794 -5.694 -10.459 -10.0545 -6.928 -3.535 
-8.649 -9.0555 -14.8052 -16.0211 -14.8014 -13.4331 -13.805 -13.8845 -6.928 
-12.1114 -19.7051 -18.0636 -18.8431 -22.5405 -16.7791 -17.635 -13.8845 
-22.761 -22.9635 -20.8856 -26.5822 -25.8865 -20.6091 -17.635 
-3.091 -2.5685 -6.1835 -1.756 -7.296 -1.756 -5.229 -2.4945 0 -3.4635 -2.264 -3.2825 -4.8875 -3.1015 
-6.4895 -7.904 -7.4135 -8.836 -8.402 -6.578 -6.956 -2.4945 -3.4635 -6.011001 -5.9825 -9.1035 -8.028501 
-12.7394 -9.5635 -15.0777 -10.2235 -10.3105 -8.3535 -6.956 -6.1285 -6.011001 -10.6585 -12.5827 -12.3969 
-14.3989 -17.4367 -16.4652 -12.445 -12.2854 -8.3535 -10.9974 -8.561001 -10.6585 -17.2587 -15.8761 
-22.2721 -18.8242 -18.6867 -14.4199 -12.2854 -12.4945 -13.4299 -13.6271 -17.2587 -20.5521 
-2.9805 -4.091 -3.091 -4.385 -3.882 -2.3335 -4.3195 -5.459 -1.7565 -3.091 -3.355 -1.756 -5.6415 -2.0935 -3.091 -3.6825 -4.1645 
-7.2025 -7.5475 -6.9755 -8.869 -5.7375 -6.12 -10.1555 -6.427 -4.0655 -6.0825 -5.5415 -7.408 -6.9505 -4.5345 -6.0125 -7.4855 
-8.779 -11.8484 -11.8431 -10.718 -9.458501 -12.1734 -11.3075 -8.93 -7.965 -7.5435 -12.0471 -8.668501 -9.0725 -7.427501 -9.1335 
-13.1837 -16.716 -13.6921 -14.439 -15.6153 -13.3254 -13.8105 -12.9883 -9.498 -14.3237 -13.3076 -11.1747 -12.0693 -10.8357 
-18.0513 -18.565 -17.4131 -20.5958 -16.7673 -15.8284 -17.8688 -14.5213 -16.3302 -15.5842 -15.8138 -14.1715 -15.4775 
