-4.759 
n/a 
n/a 
n/a 
n/a 
-4.759 
n/a 
n/a 
n/a 
n/a 
-4.759 
n/a 
n/a 
n/a 
n/a 
-4.759 
n/a 
n/a 
n/a 
n/a 
-1.934 -8.973001 0 -6.6585 -3.4865 -3.9665 -9 -2.7415 -5.198 
-9.691501 -8.973001 -6.6585 -10.647 -7.282001 -13.9731 -12.0215 -6.292 
-9.691501 -15.9111 -10.647 -14.4425 -17.7286 -16.9946 -15.572 
-16.674 -19.8996 -14.4425 -24.8891 -20.7501 -20.5451 
-20.6625 -23.6951 -24.8891 -27.9106 -24.3006 
-4.299 -2.264 -4.628 -9.3745 -3.4865 -4.257 -4.7535 -1.934 -7.167 
-5.322001 -7.132 -9.3985 -13.2064 -8.141001 -7.2535 -5.664001 -7.708 
-8.394 -12.0653 -13.2564 -17.8609 -11.5977 -8.1695 -10.4105 
-14.6431 -15.9232 -17.9109 -21.3176 -12.5137 -13.2126 
-18.501 -20.5777 -21.3676 -22.2336 -17.5568 
-5.368 -3.7015 -4.628 -5.939 -3.4865 -3.8385 -5.0655 -1.934 -9.835 0 
-9.0495 -7.4895 -5.9615 -9.252501 -8.134001 -6.821 -6.539001 -10.451 -9.835 
-12.9211 -8.748 -9.259001 -14.8276 -11.2869 -7.725 -15.4598 -10.451 
-14.1796 -12.3473 -14.8547 -17.9805 -12.1909 -16.8768 -15.4598 
-17.7789 -17.943 -18.0076 -18.8845 -21.3427 -16.8768 
-4.299 -2.264 -6.6585 -2.229 -8.973001 -4.7535 
-5.322001 -9.234501 -9.037001 -11.797 -14.0061 
-10.3745 -11.8274 -18.8464 -16.8301 
-12.9674 -21.6368 -23.8795 
-22.7768 -26.6699 
