-4.759 
n/a 
n/a 
n/a 
n/a 
-4.759 
n/a 
n/a 
n/a 
n/a 
-4.759 
n/a 
n/a 
n/a 
n/a 
-4.759 
n/a 
n/a 
n/a 
n/a 
-2.3615 -2.186 -1.4985 -4.245 -1.756 -4.953 -3.452 0 
-3.5005 -3.339 -5.305 -5.425 -6.1605 -7.494 -3.452 
-4.3105 -8.039001 -6.555501 -8.803501 -8.884 -7.494 
-9.219 -9.7535 -10.702 -11.7138 -8.884 
-10.8421 -14.0208 -13.6123 -11.7138 
-2.3615 -4.245 -3.319 -1.7565 -6.1945 -3.452 
-6.610001 -7.98 -4.165 -8.312 -9.160001 
-11.145 -8.975 -10.4265 -11.6503 
-12.14 -15.7863 -13.7648 
-18.9513 -19.1246 
-2.3615 -2.186 -1.8085 -5.821 -3.452 -1.934 -3.519 -4.245 
-3.5005 -3.164 -7.142 -10.61 -5.2935 -5.3685 -8.2295 
-4.179 -8.259001 -12.558 -12.4515 -9.380501 -10.9572 
-9.554501 -13.8168 -14.3995 -16.5385 -15.1954 
-15.1669 -15.6583 -18.4865 -22.3534 

n/a 
n/a 
n/a 
n/a 
