-4.759 
n/a 
n/a 
n/a 
n/a 
-4.759 
n/a 
n/a 
n/a 
n/a 
-4.759 
n/a 
n/a 
n/a 
n/a 
-4.759 
n/a 
n/a 
n/a 
n/a 
-7.3105 -3.319 -1.7565 -8.51 -1.4985 -4.213 -4.4665 -1.7695 -3.213 -2.264 -3.1435 -3.5205 -1.756 -3.3435 -3.9535 
-10.2485 -4.165 -10.7335 -10.2925 -5.5505 -8.969 -5.5575 -4.1345 -4.6045 -4.6705 -4.573 -5.2805 -5.1365 -7.4815 
-10.2785 -14.006 -12.516 -14.3445 -10.228 -9.5375 -7.460001 -5.204 -7.124 -5.502 -6.497 -9.528001 -9.389501 
-20.1195 -15.7885 -16.568 -19.022 -10.4845 -11.44 -8.5135 -7.752 -7.8105 -6.8795 -10.702 -13.9064 
-21.902 -19.8405 -21.2455 -19.2785 -12.387 -12.4935 -11.3495 -8.545501 -9.1095 -11.2593 -15.0804 
-1.934 -2.3615 -4.0135 -1.7565 -5.171 0 -4.213 -2.4945 -1.934 -4.8275 -3.519 -1.756 -2.5195 -2.3615 -3.3715 -5.126 -1.7565 -4.213 -3.152 -3.8755 
-3.539 -5.1525 -4.201 -7.2335 -5.171 -4.213 -5.726 -4.2645 -6.5465 -7.647501 -4.981 -4.774 -4.4095 -6.2255 -7.6265 -6.330501 -5.680501 -5.547 -5.6875 
-6.5435 -5.2165 -9.443001 -7.2335 -9.341001 -5.726 -7.682001 -8.658501 -10.1385 -9.618501 -8.2145 -6.6835 -8.478001 -10.5325 -8.998501 -11.2581 -7.661 -8.785501 
-6.555501 -10.8963 -9.443001 -10.5745 -10.87 -7.682001 -12.4868 -13.0775 -12.1095 -13.2184 -9.869 -9.956 -12.8512 -11.9045 -14.0409 -13.2386 -10.8655 
-12.5725 -10.8963 -12.8802 -12.1035 -12.826 -12.4868 -16.9058 -15.0485 -15.7094 -14.8729 -13.1415 -14.3292 -14.2232 -16.9469 -16.0214 -16.4431 
-3.1495 -1.7695 -3.766 -1.7565 -3.937 -1.7695 -3.584 -3.135 -3.3715 -3.9355 -1.7695 -3.737 0 
-5.8665 -5.523 -7.0845 -5.2615 -5.779 -4.382 -6.866 -6.941501 -6.386001 -5.513 -5.321 -3.737 
-9.933001 -9.207001 -10.66 -7.896 -8.7235 -7.315001 -11.0157 -9.814501 -7.575 -9.883 -5.321 
-13.617 -12.8307 -13.2945 -10.9895 -12.0329 -11.5863 -13.8887 -11.0845 -12.4878 -9.883 
-17.2407 -15.4652 -16.388 -14.2989 -16.3042 -14.4593 -15.1587 -15.9973 -12.4878 
-2.5045 -2.3335 -2.95 -4.213 -4.5485 -3.8405 -2.645 -5.088 -1.7565 -4.213 0 -7.0695 -2.4945 -4.5485 
-4.744 -4.8245 -8.1155 -7.7255 -10.041 -6.979 -8.436001 -7.1075 -5.680501 -4.213 -7.0695 -9.215501 -5.861 
-5.158 -9.820001 -11.937 -13.341 -13.1795 -13.2208 -10.6095 -11.4429 -5.680501 -12.2307 -9.215501 -12.6428 
-10.0955 -13.8905 -17.5525 -16.4795 -19.4213 -15.3943 -14.9449 -11.4429 -14.1802 -14.3767 -12.6428 
-14.1858 -19.506 -20.691 -22.7213 -21.5948 -19.7297 -14.9449 -19.9426 -16.3262 -17.804 
