-4.759 
n/a 
n/a 
n/a 
n/a 
-4.759 
n/a 
n/a 
n/a 
n/a 
-4.759 
n/a 
n/a 
n/a 
n/a 
-4.759 
n/a 
n/a 
n/a 
n/a 
-3.809 -5.238 0 -4.5055 -5.238 0 -4.5945 0 -2.4945 -1.4985 -4.4695 -3.5505 -2.0935 -4.3665 0 
-9.4505 -5.238 -4.5055 -8.098001 -5.238 -4.5945 -4.5945 -2.4945 -3.9315 -5.252501 -7.783 -5.35 -6.1645 -4.3665 
-9.4505 -7.621 -8.098001 -8.098001 -8.952001 -4.5945 -7.7555 -3.9315 -7.623 -8.706 -9.748501 -9.301001 -6.1645 
-12.2677 -9.830001 -8.098001 -12.1246 -8.952001 -7.7555 -9.197001 -7.623 -10.7575 -11.0233 -14.1567 -9.301001 
-14.4767 -9.830001 -12.1246 -12.1246 -12.4024 -9.197001 -13.0483 -10.7575 -13.0748 -15.4315 -14.1567 
-3.809 -2.3345 0 -5.147 -4.5055 0 -4.5945 -5.8875 -6.016 -3.7685 -3.9075 -3.074 -3.383 -4.4695 -3.686 0 
-6.860001 -2.3345 -5.147 -5.9715 -4.5055 -4.5945 -11.5942 -12.8973 -10.007 -7.6555 -7.618001 -5.617001 -6.6995 -8.908501 -3.686 
-6.860001 -7.992001 -5.9715 -5.9715 -7.174001 -11.5942 -18.604 -16.8883 -14.0916 -11.793 -10.6215 -8.6355 -11.4949 -8.908501 
-13.0181 -9.134001 -5.9715 -8.42 -14.6315 -18.604 -22.595 -20.9729 -18.2291 -14.7965 -13.64 -13.8479 -11.4949 
-14.1601 -9.134001 -8.42 -16.2111 -21.6413 -22.595 -26.6796 -25.1104 -21.2326 -17.815 -18.8524 -13.8479 
-3.809 -4.851 0 -5.147 -4.5055 0 -4.5945 0 -6.063 -1.756 -3.7685 -4.395 -2.4945 -3.135 -1.7565 -1.4985 -3.4865 -4.471 -4.6365 -2.5195 -3.3715 -5.512 0 
-6.144 -4.851 -5.147 -5.9715 -4.5055 -4.5945 -4.5945 -6.063 -7.03 -5.515 -5.902 -5.959 -4.575 -3.9195 -2.4195 -4.9305 -7.479501 -7.6415 -4.8875 -5.5385 -7.652 -5.512 
-6.144 -8.457001 -5.9715 -5.9715 -7.174001 -4.5945 -8.073 -7.03 -7.8895 -7.1815 -7.653501 -8.903 -5.097 -4.168 -5.799 -8.791 -11.0982 -7.671 -7.989 -10.37 -7.652 
-9.2165 -9.3955 -5.9715 -8.42 -7.174001 -8.073 -8.955 -7.8895 -7.9005 -8.631001 -10.6465 -8.955 -5.465 -7.27 -9.711 -12.6239 -11.1277 -11.7015 -13.1391 -10.37 
-9.883 -9.3955 -8.42 -8.42 -9.964001 -8.955 -9.7235 -7.9005 -9.463 -11.7476 -10.781 -9.06 -8.406501 -10.411 -13.5759 -12.6534 -15.1582 -16.8516 -13.1391 
-3.809 -6.221 0 -5.238 -4.5055 0 -4.5945 0 -12.16972 0 -1.756 -3.7685 -5.5715 -3.1495 -2.4945 -2.8965 -3.5015 -3.4625 -3.499 -3.0465 -1.4985 -3.4865 -3.5505 -3.686 0 
-11.117 -6.221 -5.238 -7.621 -4.5055 -4.5945 -4.5945 -12.16972 -12.16972 -1.756 -5.515 -8.449 -9.004001 -4.459 -5.387 -6.120501 -7.572001 -7.84 -6.1115 -4.046 -4.9305 -6.979501 -6.054 -3.686 
-11.117 -11.8224 -7.621 -7.621 -7.174001 -4.5945 -17.87642 -12.16972 -13.92572 -5.515 -9.641001 -12.3541 -10.224 -7.902 -9.752001 -10.31 -12.4969 -10.8397 -7.682 -7.39 -8.4545 -9.02 -6.054 
-16.7184 -14.2054 -7.621 -10.7659 -7.174001 -17.87642 -17.87642 -13.92572 -17.68472 -9.641001 -13.7069 -13.5741 -13.667 -12.4638 -14.1857 -15.5629 -15.4966 -12.4102 -10.66 -10.6335 -10.328 -9.02 
-19.1014 -14.2054 -10.7659 -10.7659 -20.91372 -17.87642 -19.63242 -17.68472 -21.81072 -13.7069 -14.9269 -17.0171 -18.2288 -16.8975 -19.4386 -18.5626 -17.0671 -15.3882 -13.9035 -12.507 -10.328 
