-4.759 
n/a 
n/a 
n/a 
n/a 
-4.759 
n/a 
n/a 
n/a 
n/a 
-4.759 
n/a 
n/a 
n/a 
n/a 
-4.759 
n/a 
n/a 
n/a 
n/a 

n/a 
n/a 
n/a 
n/a 
-2.871 -3.6765 -2.7415 -4.493 -1.756 -3.849 -4.874 0 
-5.168 -5.9515 -5.5985 -5.8585 -5.248 -7.6705 -4.874 
-6.95 -7.373 -6.7325 -7.764 -8.3765 -7.6705 
-7.4525 -7.6295 -8.405001 -8.771 -8.3765 
-7.6445 -9.1095 -9.540001 -8.771 
-2.871 -2.7415 -4.493 -1.756 -3.3715 -3.152 -4.874 0 
-5.3315 -5.5985 -5.8585 -4.6545 -6.142 -6.21 -4.874 
-7.4995 -6.7325 -7.7545 -7.068 -8.530001 -6.21 
-8.497001 -9.137 -9.137 -9.029 -8.530001 
-11.2739 -10.419 -9.572001 -9.029 
-2.871 -4.19 -1.756 -3.3715 -5.228 0 
-6.6545 -5.6195 -4.6545 -7.746 -5.228 
-7.9215 -7.915 -8.5445 -7.746 
-9.981 -9.261001 -8.5445 
-11.4894 -9.261001 
