-4.759 
n/a 
n/a 
n/a 
n/a 
-4.759 
n/a 
n/a 
n/a 
n/a 
-4.759 
n/a 
n/a 
n/a 
n/a 
-4.759 
n/a 
n/a 
n/a 
n/a 
-3.1495 -3.1475 -3.6885 -3.586 -3.7515 -8.200001 -4.96 -1.756 -4.098 -1.934 -4.221 -4.96 -2.674 0 
-7.360001 -7.7485 -7.9405 -7.6105 -11.146 -13.2085 -6.12 -6.646 -6.517 -6.6775 -9.208 -7.461 -2.674 
-12.2352 -12.5121 -12.4028 -14.9075 -17.3492 -15.1032 -12.0914 -8.321501 -11.7021 -12.2165 -12.2182 -7.461 
-16.9988 -16.9744 -19.0798 -21.3622 -18.3102 -21.7734 -13.7669 -13.7114 -17.2411 -15.2267 -12.2182 
-21.4611 -23.6514 -26.1545 -22.5662 -24.6034 -23.4489 -19.1568 -19.2504 -20.2513 -15.2267 
-3.9225 -3.277 -3.1475 -3.6885 -7.762001 0 -2.8645 -8.200001 -3.602 -1.756 -1.934 -4.098 0 -4.221 -3.602 -2.4945 -3.0365 
-5.4525 -7.164001 -7.7485 -12.6529 -7.762001 -2.8645 -10.8105 -10.353 -5.0135 -4.0205 -6.94 -4.098 -4.221 -7.8395 -5.7205 -4.952001 
-9.2135 -12.2806 -17.2245 -12.6529 -9.9835 -11.5325 -16.6395 -12.73 -6.9245 -9.105 -6.94 -8.171 -7.8395 -10.2135 -8.352501 
-14.3693 -21.7566 -17.2245 -14.8744 -18.3162 -16.172 -16.5935 -13.235 -13.1358 -9.105 -11.4328 -12.1477 -10.2135 -12.8455 
-23.8453 -21.7566 -19.446 -23.2071 -23.8002 -16.5935 -16.7215 -22.1361 -13.1358 -13.7402 -15.4095 -14.5217 -12.8455 
-3.9225 -3.277 -3.1475 -3.6885 -4.7505 -2.674 -2.645 -3.1575 -8.200001 -3.602 -1.756 -1.934 -4.098 -3.0365 -2.4945 -4.221 -3.602 0 
-5.4525 -7.164001 -7.7485 -6.312 -7.465 -4.9565 -3.72 -9.848001 -10.353 -5.0135 -4.0205 -6.94 -7.8095 -3.688 -7.326 -7.8395 -3.602 
-9.2135 -12.2806 -10.8836 -9.816501 -10.01 -5.604 -10.2935 -15.107 -12.73 -6.9245 -9.105 -9.923 -8.453 -7.633501 -10.0445 -7.8395 
-14.3693 -15.4157 -14.3881 -12.4481 -10.7075 -11.5115 -15.037 -14.6725 -13.235 -13.1358 -12.2304 -10.8053 -12.4725 -10.0675 -10.0445 
-17.5044 -18.9202 -17.0197 -13.1456 -16.397 -17.0227 -15.0817 -15.0457 -22.1361 -16.2612 -13.1127 -14.8248 -14.9065 -10.0675 
-1.934 -2.871 -4.1645 0 -1.8085 -3.401 -2.186 -1.8085 -4.28 -1.7695 -3.013 -3.754 -2.4285 -2.664 -5.4115 -1.7695 -1.8085 -3.776 -3.1335 -2.4285 -3.8785 0 -1.756 -3.1495 -3.2895 -2.674 -3.1125 -3.849 -4.1785 -3.2895 -3.6705 0 -1.934 -3.571 -4.1645 0 -3.2895 -2.882 -3.9915 -2.4285 -4.116 -5.943501 0 -1.756 -3.1495 -2.4945 -3.849 -4.3685 -3.2895 
-4.2805 -6.617001 -4.1645 -1.8085 -5.120501 -5.75 -3.164 -6.491 -5.027 -3.7215 -5.048 -5.9925 -4.6775 -6.6455 -6.058001 -3.41 -4.59 -6.318 -5.1725 -5.598001 -3.8785 -1.756 -5.1725 -6.135 -6.205 -3.6315 -5.7235 -7.651 -7.8355 -7.089001 -3.6705 -1.934 -4.9705 -7.2015 -4.1645 -3.2895 -6.559 -5.8925 -6.5895 -6.176001 -10.4675 -5.943501 -1.756 -5.1725 -4.459 -5.410501 -7.6665 -7.6685 
-6.7045 -6.617001 -6.2815 -5.120501 -7.452001 -6.713 -7.809 -7.436 -6.4475 -5.3675 -7.2115 -8.5985 -8.3055 -7.1465 -7.1225 -5.4535 -6.919 -6.626 -6.9935 -5.598001 -5.199 -5.1725 -8.2865 -8.0235 -6.397 -6.3665 -10.0005 -9.7405 -10.3965 -7.089001 -5.241 -4.9705 -7.324 -7.2015 -8.809501 -6.559 -9.6905 -8.208 -8.070001 -13.0081 -10.4675 -7.288001 -5.1725 -6.0225 -6.775001 -8.8255 -9.577001 
-6.7045 -8.175501 -9.481001 -7.452001 -8.4575 -11.55 -9.107 -9.138 -8.099 -7.4255 -9.9175 -12.3983 -8.545501 -8.028501 -9.52 -8.007001 -8.143001 -10.2635 -6.9935 -7.112 -8.557 -8.2865 -9.738501 -8.401501 -10.022 -10.374 -12.09 -12.3015 -10.3965 -8.527 -7.882 -7.324 -7.324 -12.0563 -12.8146 -9.6905 -12.1752 -8.6385 -15.1977 -13.0081 -11.812 -10.4675 -6.0225 -8.3605 -9.697001 -10.382 
-8.2205 -11.4742 -10.4955 -8.4575 -13.6869 -12.848 -10.1225 -9.880501 -9.755 -9.969001 -13.8007 -12.6383 -9.617001 -10.18 -12.2931 -8.8435 -10.322 -10.2635 -9.797001 -10.6095 -11.7544 -9.738501 -10.0735 -12.2159 -14.0923 -12.4635 -14.651 -12.3015 -11.8345 -11.2588 -9.236501 -7.324 -12.187 -16.0614 -15.9461 -12.1752 -12.6057 -16.2026 -15.1977 -14.3526 -14.9915 -11.3175 -8.3605 -11.3777 -11.4951 
