-4.759 
n/a 
n/a 
n/a 
n/a 
-4.759 
n/a 
n/a 
n/a 
n/a 
-4.759 
n/a 
n/a 
n/a 
n/a 
-4.759 
n/a 
n/a 
n/a 
n/a 
-3.4765 -3.929 -2.4265 -2.186 -4.6365 -3.594 0 -3.834 -3.4775 0 -2.4265 -2.186 -3.557 -4.6395 -2.0935 -1.4985 -5.1845 -4.953 -3.84 0 
-4.589 -5.029 -3.292 -7.927501 -8.432001 -3.594 -3.834 -6.342 -3.4775 -2.4265 -3.292 -5.0815 -9.0185 -7.057 -2.9725 -6.5205 -8.975 -6.6525 -3.84 
-5.5295 -5.7665 -9.561001 -11.9688 -8.432001 -7.5595 -6.342 -6.342 -5.466001 -3.292 -6.138 -11.133 -11.6894 -7.6425 -7.960001 -10.168 -10.7949 -6.6525 
-6.2005 -12.2323 -13.6057 -11.9688 -12.9673 -10.0575 -6.342 -7.875 -6.0725 -6.138 -12.6453 -13.8039 -12.2749 -12.9618 -11.8053 -11.9879 -10.7949 
-12.7509 -16.277 -13.6057 -16.5041 -15.4653 -10.0575 -7.875 -8.5465 -8.9965 -12.6453 -15.3162 -14.3894 -17.5942 -16.8071 -13.6252 -11.9879 
-3.5905 -8.387501 -2.872 -3.1015 -1.8085 -3.4795 -6.1945 -3.84 -3.9005 -6.214 -7.8925 
-12.7632 -11.117 -5.068501 -5.0505 -6.392 -10.7025 -9.124001 -7.2995 -11.3353 -14.8393 
-15.4927 -13.3135 -6.979 -6.6635 -13.8908 -13.632 -12.6359 -15.7671 -19.9606 
-17.6892 -15.224 -8.045 -14.4893 -16.8203 -17.1439 -21.1035 -24.3924 
-19.5997 -16.29 -16.4422 -17.4188 -20.3322 -25.6115 -29.7288 
-3.4765 -3.929 -2.3615 -2.186 -1.8085 -3.5905 -3.452 0 -2.4265 -3.5725 -4.4275 -2.5045 -1.8085 -3.918 -2.0935 -5.821 -3.84 -4.732 -3.1015 
-4.589 -5.6945 -3.5005 -3.164 -6.4465 -6.905 -3.452 -2.4265 -5.2445 -7.7435 -5.386 -3.3625 -5.439 -5.5555 -7.6505 -7.4975 -8.9315 -6.285501 
-6.306001 -6.301 -4.179 -7.6625 -9.339001 -6.905 -5.648 -5.2445 -8.6665 -8.2255 -5.6615 -6.245 -6.4925 -11.5169 -9.658501 -12.9932 -10.2335 
-6.901501 -7.0265 -8.247001 -10.553 -9.339001 -8.971001 -8.7985 -8.6665 -9.167001 -8.531 -8.3625 -6.7335 -12.7491 -13.5249 -15.258 -14.2952 
-7.48 -10.757 -11.4391 -10.553 -11.4878 -12.3725 -12.3695 -9.167001 -9.458 -11.4844 -8.811501 -13.0787 -14.7571 -19.1244 -16.56 

n/a 
n/a 
n/a 
n/a 
