-4.759 
n/a 
n/a 
n/a 
n/a 
-4.759 
n/a 
n/a 
n/a 
n/a 
-4.759 
n/a 
n/a 
n/a 
n/a 
-4.759 
n/a 
n/a 
n/a 
n/a 
-1.4985 -3.4605 -2.186 -4.2635 -2.5195 -4.823 0 -4.7255 -3.8445 -4.5925 0 -2.3615 -2.186 -3.074 -3.849 -2.5045 -3.6395 0 
-4.652 -4.916 -7.619 -7.523001 -7.4495 -4.823 -4.7255 -5.942 -6.3435 -4.5925 -2.3615 -3.5005 -4.156 -5.417 -6.305 -7.134001 -3.6395 
-6.023 -11.4178 -11.1977 -12.976 -7.4495 -7.812 -5.942 -6.9295 -6.3435 -6.954 -3.5005 -5.675 -6.3275 -7.559 -10.0545 -7.134001 
-12.6188 -14.9965 -16.6507 -12.976 -10.8463 -7.8415 -6.9295 -6.9295 -9.3155 -7.7865 -5.675 -7.4695 -7.9575 -11.2685 -10.0545 
-16.1975 -20.4495 -16.6507 -16.3728 -10.8758 -7.988501 -6.9295 -9.995001 -9.9755 -10.078 -7.4695 -9.1265 -11.7612 -11.2685 
-4.7255 -3.8445 -4.774 -2.8645 -3.2955 -1.7695 -4.2635 -1.4985 -3.188 -4.0005 -3.16 
-5.942 -6.069 -8.088 -5.798 -3.9425 -4.6145 -4.9175 -3.619 -4.969501 -5.2365 
-6.138 -9.5515 -11.5763 -7.314 -5.759 -5.314 -8.5975 -5.421 -5.246 
-9.697001 -13.739 -13.0923 -9.574 -6.385 -8.784 -10.586 -5.466 
-14.0381 -15.255 -15.3523 -10.215 -10.426 -10.9939 -10.7785 
-3.5025 -2.8645 -1.4985 -12.16972 -3.997 -6.016 -2.4265 -3.188 -4.0005 -3.6395 -1.7695 -4.073 -6.4305 -2.95 -2.186 -3.849 -4.823 
-6.037 -4.3545 -14.76202 -16.16672 -10.01 -8.238501 -6.197001 -4.969501 -8.387001 -5.6625 -6.8605 -11.2785 -8.0965 -4.817 -4.8565 -8.739 
-7.8835 -18.34642 -18.75902 -22.17972 -12.4439 -12.4944 -8.286 -9.2375 -11.17 -11.7139 -13.8232 -13.8957 -11.441 -7.6435 -9.8485 
-22.42902 -22.34342 -24.77202 -24.61362 -16.6998 -14.5834 -12.5568 -12.4963 -17.2214 -18.6766 -16.2492 -17.0232 -14.9615 -12.8625 
-26.42602 -28.35642 -27.20592 -28.86952 -18.7888 -18.8542 -15.8156 -18.5477 -24.1841 -21.1026 -19.3767 -20.0677 -20.1805 
-1.934 -3.5025 -3.47 -2.4945 -5.195 -3.397 -1.756 -3.9515 -3.8015 -1.4985 -3.188 -4.0005 -4.7255 -3.8445 -4.5925 0 -4.823 0 -3.135 -3.5215 -4.823 -3.849 -2.5045 -3.6395 
-5.476501 -5.7065 -5.479 -7.697001 -7.0465 -5.144 -5.525001 -7.96 -5.433 -3.619 -4.969501 -8.389 -5.942 -6.3435 -4.5925 -4.823 -4.823 -3.135 -6.2085 -9.5635 -8.585501 -6.305 -7.134001 
-8.957001 -8.096001 -11.5739 -9.943001 -9.0435 -7.236 -9.772501 -9.856501 -8.076 -5.421 -9.989501 -10.4425 -6.9295 -6.3435 -6.818501 -4.823 -8.488501 -6.2085 -12.7869 -13.4436 -11.7859 -10.0545 
-11.5457 -14.4825 -13.8199 -12.1592 -11.6135 -11.7955 -11.7604 -12.6119 -10.7335 -11.5234 -12.043 -11.5344 -6.9295 -7.1115 -6.818501 -8.488501 -12.039 -12.7869 -16.667 -16.644 -15.5354 
-17.9322 -16.7285 -16.0361 -14.7292 -16.173 -13.7834 -14.5158 -15.2694 -16.8359 -13.5769 -13.1349 -11.5344 -7.1575 -7.1115 -11.5846 -12.039 -18.6174 -16.667 -19.8674 -20.3935 
