-4.759 
n/a 
n/a 
n/a 
n/a 
-4.759 
n/a 
n/a 
n/a 
n/a 
-4.759 
n/a 
n/a 
n/a 
n/a 
-4.759 
n/a 
n/a 
n/a 
n/a 
-2.9805 -4.47 -4.954 -1.8085 -3.3365 -3.193 -3.819 -1.934 -1.8085 -3.515 0 
-6.775001 -8.580501 -6.909501 -4.4295 -5.604 -6.729 -5.237 -3.2685 -4.5725 -3.515 
-9.8715 -10.9792 -10.013 -6.15 -9.377501 -7.877501 -5.552001 -5.836 -4.5725 
-12.3314 -14.0827 -11.7335 -9.584001 -10.7454 -8.2235 -8.1175 -5.836 
-15.4349 -15.8032 -15.1675 -11.0467 -11.0914 -10.418 -8.1175 
-4.057 -3.819 -2.847 -4.4615 -2.356 -3.769 
-8.028 -7.0935 -7.9375 -6.0465 -5.021501 
-11.7303 -12.6362 -9.755001 -8.448 
-17.273 -14.4537 -12.3847 
-19.0905 -17.0834 
-2.9805 -6.2055 -4.735 -1.7565 -4.3285 -2.0935 -4.057 -3.819 -2.0935 -2.871 -3.193 0 
-7.5715 -11.9495 -4.92 -5.384 -6.497001 -6.3235 -8.028 -6.005 -4.604 -4.715 -3.193 
-13.6699 -12.1345 -8.6805 -7.4565 -11.2684 -11.0497 -10.361 -8.277 -6.3145 -4.715 
-13.8549 -15.895 -10.9106 -12.5119 -15.9946 -13.3827 -12.633 -9.9835 -6.3145 
-17.6154 -18.1251 -15.966 -17.2381 -18.3276 -15.6547 -14.3395 -9.9835 
-5.709 -2.186 -4.5295 -2.0935 -2.664 -3.515 0 
-7.2205 -5.983 -6.0965 -4.189 -8.59 -3.515 
-9.473001 -7.295 -8.301001 -9.995001 -8.59 
-11.0044 -9.530001 -14.4108 -9.995001 
-13.2394 -15.6398 -14.4108 
