-4.759 
n/a 
n/a 
n/a 
n/a 
-4.759 
n/a 
n/a 
n/a 
n/a 
-4.759 
n/a 
n/a 
n/a 
n/a 
-4.759 
n/a 
n/a 
n/a 
n/a 
-3.043 -3.013 -2.3585 -3.335 -3.383 -6.125 -1.7565 -3.1495 0 0 -2.872 -3.908 -12.16972 -4.1555 -1.7695 -3.8275 0 
-4.278 -3.8955 -5.928 -6.871 -9.599501 -8.665501 -3.914 -3.1495 0 -2.872 -6.004001 -17.41932 -16.32522 -4.988501 -5.686 -3.8275 
-4.832 -7.4585 -9.245001 -13.6867 -12.27 -11.0834 -3.914 -3.1495 -2.872 -6.004001 -19.84012 -21.57482 -17.15822 -6.955 -5.686 
-7.835501 -10.9121 -16.4833 -16.3572 -14.6879 -11.0834 -3.914 -6.481 -6.004001 -19.84012 -23.99562 -22.40782 -19.12472 -6.955 
-11.5677 -18.1504 -19.1538 -18.7751 -14.6879 -11.0834 -6.9295 -9.638 -19.84012 -23.99562 -24.82862 -24.37432 -19.12472 
-2.3585 -3.7875 -3.043 -5.346 -2.3615 0 -2.872 -10.174 -4.1555 -4.5165 -1.934 -4.7265 
-5.818501 -8.174001 -9.449 -8.2865 -2.3615 -2.872 -14.343 -14.3869 -10.451 -6.12 -7.1615 
-9.6495 -14.8622 -12.5989 -8.2865 -5.2565 -14.343 -18.5559 -20.6824 -12.0545 -12.2755 
-16.4535 -18.0121 -12.5989 -11.5325 -17.1091 -18.5559 -24.8514 -22.2859 -18.21 
-19.6034 -18.0121 -15.8449 -23.3851 -21.322 -24.8514 -26.4549 -28.4414 
-2.3585 -2.4945 -3.043 -5.2215 -3.147 0 -2.872 -8.909 -3.3165 -3.908 -3.8275 0 
-3.538 -6.071 -9.359001 -8.929001 -3.147 -2.872 -13.078 -12.7445 -7.753 -8.868501 -3.8275 
-7.193 -12.8132 -13.6075 -8.929001 -5.347 -13.078 -16.9135 -17.181 -13.1623 -8.868501 
-14.0092 -17.0617 -13.6075 -10.586 -15.9504 -16.9135 -21.35 -22.5903 -13.1623 
-18.2577 -17.0617 -15.2645 -21.1894 -19.7859 -21.35 -26.7593 -22.5903 
-2.5235 -5.0145 -2.186 -3.383 -4.0685 0 -2.872 -1.4985 -9.1625 -5.0145 -2.186 -3.2955 -3.3715 -3.5215 -1.934 -3.8275 0 
-6.990001 -6.8795 -4.438 -5.1105 -4.0685 -2.872 -4.035 -11.7548 -14.5244 -6.8795 -4.348001 -6.736 -5.047 -5.029 -5.911 -3.8275 
-8.580501 -8.9495 -6.351 -5.1105 -5.8595 -4.035 -14.6295 -17.1167 -16.3894 -8.998501 -8.127501 -7.512 -6.3405 -8.950001 -5.911 
-10.7845 -11.0081 -6.351 -6.849 -6.881 -14.6295 -19.9914 -18.9817 -18.5084 -12.827 -8.568001 -8.3005 -10.1505 -8.950001 
-12.8431 -11.0081 -7.554 -7.899 -17.8627 -19.9914 -21.8564 -21.1007 -22.3369 -13.2675 -9.072001 -12.0969 -10.1505 
