-4.759 
n/a 
n/a 
n/a 
n/a 
-4.759 
n/a 
n/a 
n/a 
n/a 
-4.759 
n/a 
n/a 
n/a 
n/a 
-4.759 
n/a 
n/a 
n/a 
n/a 
-10.6285 -3.7805 -4.4895 0 
-12.624 -9.450001 -4.4895 
-19.2225 -9.450001 
-19.2225 
n/a 
-4.617 0 -4.905 -9.373 -4.3225 
-4.617 -4.905 -15.0114 -13.8949 
-9.5075 -15.0114 -19.5333 
-19.8683 -19.5333 
-24.3902 
-4.617 0 -6.0115 -7.1505 -4.4895 
-4.617 -6.0115 -10.7665 -12.4618 
-10.958 -10.7665 -16.0778 
-15.713 -16.0778 
-21.0243 
-4.617 0 -5.896 -1.934 -6.0115 -4.3225 
-4.617 -5.896 -7.571001 -7.5935 -8.404501 
-10.9072 -7.571001 -13.5725 -9.4705 
-12.5822 -13.5725 -15.4495 
-18.5837 -15.4495 
