-4.759 
n/a 
n/a 
n/a 
n/a 
-4.759 
n/a 
n/a 
n/a 
n/a 
-4.759 
n/a 
n/a 
n/a 
n/a 
-4.759 
n/a 
n/a 
n/a 
n/a 
-8.493 -5.0595 -1.4985 -7.4885 -1.756 -4.1495 -1.7695 -3.429 -3.0415 -3.3715 -3.8195 0 
-14.1037 -5.924 -8.1875 -8.7505 -6.042 -5.607 -4.032 -6.489 -4.5985 -5.8465 -3.8195 
-14.9682 -13.1662 -9.116 -13.4227 -7.994 -8.028501 -7.2485 -7.643001 -7.3195 -5.8465 
-22.2104 -14.0947 -13.981 -15.3747 -10.361 -11.5958 -8.210501 -10.6206 -7.3195 
-23.1389 -18.9597 -15.933 -17.7417 -13.9283 -12.5578 -11.2871 -10.6206 
-12.16972 -4.9385 -3.135 -3.355 -1.7565 -7.4885 
-17.10822 -7.314001 -6.2565 -3.725 -9.320001 
-19.48372 -10.7175 -6.377 -12.0029 
-22.88722 -10.743 -15.1213 
-22.91272 -19.4873 
-12.16972 -4.2255 -3.135 -3.5015 -1.7565 -6.864 -3.59 0 
-16.39522 -6.8725 -6.451 -4.783 -8.661 -9.337 -3.59 
-19.04222 -9.5295 -8.132001 -12.3849 -11.4122 -9.337 
-21.69922 -11.3171 -16.0415 -15.1361 -11.4122 
-23.48682 -19.2266 -18.7927 -15.1361 
-3.9725 -8 -2.7415 -3.074 -3.849 -9.593 0 -1.8085 -3.6975 -3.5855 -4.82 -2.3345 -1.8085 -3.264 -1.7565 -6.864 -4.6805 0 
-10.0255 -10.2435 -4.727 -5.417 -13.6026 -9.593 -1.8085 -5.297 -6.6415 -8.6485 -6.264 -3.8605 -4.241 -3.6125 -8.661 -8.916 -4.6805 
-12.269 -12.229 -7.299 -15.4006 -13.6026 -11.8223 -5.297 -8.6085 -13.0121 -9.240001 -7.72 -5.905 -4.2885 -11.3366 -9.706501 -8.916 
-14.2545 -14.801 -17.5158 -15.4006 -15.8319 -15.3108 -8.6085 -15.4841 -13.6036 -10.443 -9.932501 -5.952 -12.3178 -12.3821 -9.706501 
-16.8265 -25.0178 -17.5158 -17.6299 -19.3204 -18.6223 -15.4841 -16.0756 -14.8066 -12.6555 -9.944 -14.2275 -13.3633 -12.3821 
