-4.759 
n/a 
n/a 
n/a 
n/a 
-4.759 
n/a 
n/a 
n/a 
n/a 
-4.759 
n/a 
n/a 
n/a 
n/a 
-4.759 
n/a 
n/a 
n/a 
n/a 
-4.8915 -2.4945 -4.7925 -3.222 -3.2495 -3.9035 -2.3345 -2.3335 -2.229 -4.503 -3.7075 
-6.7135 -5.941501 -5.2095 -5.334 -5.7605 -6.128 -5.2215 -3.8485 -6.999001 -7.637501 
-9.714001 -6.151 -5.913 -6.3775 -7.875 -9.757 -7.532001 -10.2035 -9.0485 
-9.7945 -6.869501 -6.7535 -8.2225 -11.781 -12.2747 -14.2188 -12.253 
-10.755 -8.156501 -8.465 -12.5165 -14.2987 -18.9615 -16.2683 
-4.8255 -2.742 -2.489 -4.552 -1.934 -1.7695 -3.2495 -3.319 -3.402 -2.264 -1.4985 -3.7075 -1.7565 -4.3615 
-7.2835 -3.301 -5.8315 -6.2125 -4.0395 -5.112 -7.117 -6.953 -3.793 -2.9195 -4.625 -4.51 -6.199501 
-7.501 -7.04 -6.961 -8.738 -7.5905 -9.3195 -10.4585 -7.2035 -4.34 -6.7425 -4.9135 -8.075001 
-11.8408 -8.139 -9.2685 -9.4875 -12.218 -12.7058 -10.709 -7.6375 -7.47 -7.148 -8.8695 
-12.9398 -10.7311 -9.8765 -14.4718 -15.6043 -12.9563 -11.143 -10.5975 -7.79 -10.5936 
-2.925 -2.4945 -3.0415 -3.3715 -3.9035 0 
-3.7675 -4.8175 -4.5985 -5.995 -3.9035 
-5.84 -5.540501 -7.6385 -5.995 
-8.18 -8.651501 -7.6385 
-11.3984 -8.651501 
-7.6445 -2.8645 -3.1125 -4.4175 -1.934 -1.8085 -3.2495 -3.3755 -3.9345 -1.7695 -2.985 -4.3615 -3.7075 
-10.4035 -3.5345 -6.615 -5.2705 -3.2685 -4.84 -5.388 -7.0915 -3.94 -4.281 -7.603 -7.950001 
-11.0735 -6.8625 -7.525 -6.7435 -6.0855 -6.1865 -9.89 -7.097 -5.694 -8.807 -11.7271 
-14.4015 -7.8445 -8.766001 -10.27 -7.441 -11.3213 -9.8955 -8.785001 -10.597 -13.2727 
-15.3835 -9.077001 -12.5115 -11.6255 -12.9854 -11.3268 -11.5835 -13.7756 -15.0627 
