-4.759 
n/a 
n/a 
n/a 
n/a 
-4.759 
n/a 
n/a 
n/a 
n/a 
-4.759 
n/a 
n/a 
n/a 
n/a 
-4.759 
n/a 
n/a 
n/a 
n/a 
-3.325 -1.4985 -3.1715 -2.229 -3.6205 0 -4.101 -2.4945 -3.6005 -1.7695 -3.5895 -3.674 -1.7695 -4.0745 -3.0695 -3.213 -2.645 -3.1575 -4.597 -3.6505 -3.543 -3.515 -4.318 -4.3275 -1.7565 -3.674 -3.7495 -4.2705 -3.7085 -1.4985 -3.709 -1.7695 -4.5655 -3.539 0 
-3.898 -3.994 -4.86 -5.5065 -3.6205 -4.101 -5.6745 -4.68 -4.2855 -4.0255 -6.877 -5.9205 -5.7075 -5.5525 -5.2005 -5.8635 -3.72 -6.021 -7.169 -5.4585 -5.113 -8.2635 -8.1355 -5.1215 -5.322001 -5.2365 -8.463501 -6.234 -4.704 -4.5055 -5.218 -6.206 -9.101501 -3.539 
-6.3585 -5.0755 -7.474 -5.5065 -8.183001 -5.6745 -7.799 -5.0265 -5.86 -7.281 -7.893001 -7.936501 -6.8765 -6.8965 -8 -6.876 -6.2225 -8.422501 -8.069 -5.776 -9.475 -10.5635 -8.8325 -7.663001 -6.703001 -9.844001 -10.228 -6.931 -7.2315 -5.953001 -7.9325 -10.3285 -9.101501 
-7.084 -7.636001 -7.474 -10.089 -9.7845 -7.799 -7.8465 -6.553 -8.7215 -8.211 -9.266001 -9.2665 -8.263 -8.5485 -8.134501 -9.131001 -8.653 -8.906001 -8.134 -10.1855 -10.5655 -10.5925 -10.2985 -8.476001 -10.4105 -10.4625 -10.4425 -8.7665 -8.703 -8.413501 -10.468 -10.3285 
-8.839001 -7.636001 -10.503 -10.4915 -10.445 -7.8465 -9.2775 -9.6215 -9.654 -9.6415 -10.5135 -9.7725 -9.453001 -8.5705 -9.939501 -9.568 -9.146 -8.920001 -10.564 -10.5715 -10.5945 -10.611 -10.399 -10.476 -10.4885 -10.4855 -10.498 -10.304 -10.476 -10.4675 -10.468 
-2.3615 -3.59 -2.8645 -3.845 -1.7565 -4.846 -1.934 -4.572 -1.756 -4.1385 
-5.0215 -5.794 -7.5775 -4.13 -7.185501 -6.5435 -6.839 -6.028 -5.779 
-6.573 -10.1765 -7.776 -9.633501 -8.3575 -10.5325 -8.195001 -6.658 
-10.7175 -10.475 -13.4201 -10.8811 -12.5591 -11.8885 -9.8295 
-11.016 -16.1191 -14.6677 -15.0827 -13.9151 -13.523 
-2.925 -2.674 -3.3715 -3.9035 -3.5795 -3.277 0 
-4.1785 -5.4105 -5.995 -7.414001 -6.307 -3.277 
-6.863501 -8.3745 -10.3285 -10.4739 -6.307 
-9.8985 -12.4572 -13.3884 -10.4739 
-13.9812 -15.5171 -13.3884 
-2.3615 -3.59 -2.8645 -3.948 -4.418 -1.756 -3.8745 -1.934 -1.4985 -4.572 -1.756 -4.1385 -4.418 0 
-5.0215 -5.794 -6.6625 -6.665 -5.694 -6.2595 -6.057 -2.6125 -5.182 -6.028 -5.779 -7.317 -4.418 
-6.573 -9.731001 -10.485 -7.6945 -8.758 -7.707 -6.350501 -5.9705 -6.364501 -6.658 -7.960501 -7.317 
-10.8562 -13.5955 -11.5145 -10.7595 -10.1265 -7.8975 -7.706 -6.97 -8.168501 -8.8945 -7.960501 
-14.7207 -14.625 -14.5795 -12.128 -10.4918 -9.5455 -8.702001 -8.672501 -9.390501 -8.8945 
