-4.759 
n/a 
n/a 
n/a 
n/a 
-4.759 
n/a 
n/a 
n/a 
n/a 
-4.759 
n/a 
n/a 
n/a 
n/a 
-4.759 
n/a 
n/a 
n/a 
n/a 
-5.1845 -5.74 -2.186 -4.742 -3.849 -2.5045 -9.8155 0 
-5.7465 -7.964001 -5.620501 -8.352 -6.305 -13.2374 -9.8155 
-7.973001 -11.6413 -9.046 -10.2385 -17.1415 -13.2374 
-11.6523 -15.0668 -10.9427 -21.075 -17.1415 
-15.0778 -16.9635 -21.7792 -21.075 
-6.557 0 -4.742 -3.849 -2.5045 -9.8155 
-6.557 -4.742 -8.352 -6.305 -13.2374 
-11.9884 -8.352 -10.2385 -17.1415 
-15.5984 -10.2385 -21.075 
-17.4849 -21.075 
-5.1845 -5.74 -2.186 -4.4715 -3.264 -1.7695 -2.489 -12.16972 
-5.7465 -7.964001 -5.7085 -8.456501 -4.908 -3.1405 -16.03912 
-7.973001 -11.7293 -9.910501 -9.715501 -5.5165 -16.89362 
-11.7403 -15.9313 -11.2631 -9.9455 -19.40722 
-15.9423 -17.2839 -11.4931 -23.95162 
-5.1845 -5.74 -3.849 -3.074 -9.8155 0 
-5.7465 -9.818501 -6.9265 -13.8899 -9.8155 
-9.820001 -13.0652 -17.9264 -13.8899 
-13.0675 -24.0651 -17.9264 
-24.0674 -24.0651 
