-4.759 
n/a 
n/a 
n/a 
n/a 
-4.759 
n/a 
n/a 
n/a 
n/a 
-4.759 
n/a 
n/a 
n/a 
n/a 
-4.759 
n/a 
n/a 
n/a 
n/a 
-3.1495 -4.4765 -3.824 -3.152 -4.554 -2.3345 -4.127 -4.841 -5.7175 0 
-7.419001 -9.0915 -6.377 -5.988 -5.106 -6.369 -6.301001 -7.978 -5.7175 
-12.7616 -11.7953 -8.6885 -6.908501 -10.089 -10.223 -11.6198 -7.978 
-15.4654 -14.1068 -9.6195 -11.5617 -13.943 -15.5418 -11.6198 
-17.7769 -15.0378 -14.3311 -15.4157 -19.2618 -15.5418 
-3.1495 -4.7295 -3.8535 -2.356 -3.485 -3.914 0 -1.756 -2.4265 -2.742 -2.489 -4.554 -2.356 -3.739 -3.914 0 
-6.5295 -8.040001 -5.2305 -5.603001 -6.4925 -3.914 -1.756 -3.949 -4.095 -3.301 -5.607 -6.4775 -6.1805 -7.7185 -3.914 
-10.513 -8.994 -8.6105 -8.021001 -6.4925 -4.8495 -3.949 -5.276 -4.601 -6.252501 -7.375 -10.8824 -9.669001 -7.7185 
-11.467 -12.6018 -11.2169 -8.021001 -7.215 -7.571001 -5.276 -5.7665 -8.2015 -8.434 -12.0055 -14.3709 -9.669001 
-15.0748 -15.2082 -11.2169 -8.4615 -10.2275 -9.094501 -5.7665 -9.4215 -10.6465 -13.3373 -15.494 -14.3709 
-3.1495 -4.139 -2.4945 -3.1015 -1.8085 -3.914 -1.7565 -4.127 -4.481 -3.989 0 
-6.1645 -5.653501 -4.616 -5.0505 -5.803 -4.677 -5.151 -7.429501 -8.887001 -3.989 
-6.8625 -7.794001 -6.4805 -9.419001 -6.3665 -7.665501 -7.8085 -12.3015 -8.887001 
-9.0485 -10.01 -11.4024 -10.3555 -9.336 -10.31 -12.8175 -12.3015 
-11.2679 -15.0091 -12.3389 -13.325 -12.0443 -15.677 -12.8175 
-2.3615 -4.7295 -4.554 -2.3345 -2.688 -4.841 -3.991 0 
-8.76 -8.789001 -5.106 -5.4465 -7.289001 -6.7075 -3.991 
-12.9285 -9.6625 -9.703501 -10.0575 -8.780001 -6.7075 
-13.802 -14.4796 -14.2977 -11.5485 -8.780001 
-18.6191 -19.0738 -15.7887 -11.5485 
