-4.759 
n/a 
n/a 
n/a 
n/a 
-4.759 
n/a 
n/a 
n/a 
n/a 
-4.759 
n/a 
n/a 
n/a 
n/a 
-4.759 
n/a 
n/a 
n/a 
n/a 
-9.287001 -4.3285 -1.7695 -4.5105 
-13.7621 -6.210001 -5.51 
-15.6436 -10.5443 
-19.9779 
n/a 
-2.6165 -3.331 -1.7695 -2.264 -2.4265 0 
-5.0865 -3.669 -5.541 -4.561 -2.4265 
-5.298 -7.989 -7.842 -4.561 
-9.943001 -9.9325 -7.842 
-11.8335 -9.9325 
-4.649 -4.567 -4.3845 -3.6085 0 
-9.7745 -7.4315 -5.8455 -3.6085 
-12.6526 -8.1805 -5.8455 
-13.4016 -8.1805 
-13.4016 
-2.9805 -4.9775 -3.433 -2.4265 -2.186 -5.246 
-6.243501 -7.355 -4.4115 -3.292 -7.288 
-8.619501 -8.512001 -5.0845 -7.690501 
-9.8585 -9.302001 -7.788 
-10.8909 -12.2769 
