-4.759 
n/a 
n/a 
n/a 
n/a 
-4.759 
n/a 
n/a 
n/a 
n/a 
-4.759 
n/a 
n/a 
n/a 
n/a 
-4.759 
n/a 
n/a 
n/a 
n/a 
-2.925 -3.2955 -4.9735 -2.0935 -4.4895 -4.456 -1.934 -5.201 -4.1745 -4.064 -1.7565 -4.987 -5.1405 -1.7565 -2.9805 -3.9195 0 
-5.588 -8.1425 -7.410501 -6.021501 -7.063 -5.749001 -7.1725 -8.545 -7.8535 -4.3045 -6.395 -7.784501 -6.8675 -6.1285 -8.309501 -3.9195 
-9.262001 -9.5555 -11.7583 -8.279501 -8.695001 -11.4663 -10.9323 -12.575 -8.1825 -9.287001 -8.923 -9.969501 -11.9173 -10.361 -8.309501 
-9.660001 -14.6169 -14.0163 -10.016 -14.6267 -15.2261 -14.9623 -12.904 -13.334 -12.0082 -11.1594 -15.1629 -16.1498 -10.361 
-15.9988 -16.8749 -15.7528 -15.9477 -18.3865 -19.2561 -15.2913 -18.0555 -16.0552 -14.2446 -16.3528 -19.3954 -16.1498 
-9.5 -3.9235 
-13.5425 
n/a 
n/a 
n/a 
-4.064 -1.7565 -4.456 -3.43 -1.7565 -4.987 0 -4.4895 -4.456 -3.152 -3.43 -2.9905 -1.7565 -5.509 -2.0935 -2.9645 0 
-4.3045 -6.086 -7.513 -4.9095 -6.395 -4.987 -4.4895 -7.063 -6.660501 -5.144 -5.758 -3.6185 -6.6435 -7.3205 -4.5155 -2.9645 
-8.6675 -8.722501 -7.931001 -7.6295 -6.395 -10.477 -7.063 -9.285 -8.805 -7.5035 -5.9745 -8.437 -8.501 -9.442501 -4.5155 
-12.198 -9.002501 -10.134 -7.6295 -12.5598 -13.0505 -9.285 -11.5451 -10.674 -7.627501 -8.984 -10.5425 -10.8238 -9.442501 
-12.478 -11.4859 -10.134 -13.9383 -15.1333 -15.2725 -11.5451 -13.4141 -10.697 -10.6205 -11.2003 -12.8653 -10.8238 
-5.7105 -5.9185 -2.186 -1.4985 -4.933 -3.668 -1.7565 -6.483 -4.205 0 -1.8085 -3.6835 -2.3335 -5.068 -4.16 -2.5195 -4.973 0 -4.7875 -1.756 -4.1865 -4.791 -4.503 0 
-6.078 -7.664001 -3.339 -5.21 -7.5715 -4.660501 -7.623001 -8.1 -4.205 -1.8085 -5.629 -5.9505 -5.853001 -7.1295 -6.055501 -7.5725 -4.973 -4.7875 -6.862 -5.8775 -8.8165 -6.806001 -4.503 
-7.8035 -8.6645 -6.876 -7.6415 -7.6405 -8.9175 -8.515501 -8.1 -6.486501 -5.629 -6.6885 -8.207001 -7.7025 -7.948 -9.732 -7.5725 -8.789001 -6.862 -8.699 -9.956 -9.987 -6.806001 
-8.830001 -10.6095 -8.1675 -7.711 -9.403501 -8.9755 -8.515501 -9.507501 -8.958 -6.6885 -8.7325 -9.3 -8.294001 -9.824 -9.732 -10.66 -9.881001 -8.699 -13.4309 -10.4805 -9.987 
-10.7585 -10.7535 -8.208 -9.432501 -9.425 -8.9755 -9.627001 -9.627001 -9.4315 -8.7325 -9.4825 -9.759001 -9.837501 -9.824 -13.8049 -11.752 -11.8872 -13.4309 -13.9554 -10.4805 
