-4.759 
n/a 
n/a 
n/a 
n/a 
-4.759 
n/a 
n/a 
n/a 
n/a 
-4.759 
n/a 
n/a 
n/a 
n/a 
-4.759 
n/a 
n/a 
n/a 
n/a 
-4.787 -1.7565 -5.1845 -3.1385 -2.5045 -5.275 -1.934 -3.8655 -2.264 -4.536 -3.508 -2.7405 0 -4.8835 -3.1385 -5.037 
-6.7775 -6.580501 -7.4095 -5.3535 -7.5135 -7.4505 -4.9135 -6.396 -6.546 -6.900001 -4.593 -2.7405 -4.8835 -7.5965 -7.04 
-12.4385 -8.684001 -9.633501 -10.7655 -9.366501 -8.911 -7.081 -9.856501 -7.946 -7.7205 -4.593 -8.393001 -7.5965 -10.1635 
-14.542 -10.9622 -15.2985 -12.6185 -10.514 -11.3033 -10.7107 -11.3071 -8.842 -7.7205 -10.6875 -11.4774 -10.1635 
-16.8202 -16.6272 -17.1515 -13.766 -12.9063 -14.933 -12.1613 -12.2031 -8.842 -14.3262 -13.7719 -14.0444 
-1.934 -3.508 -2.5645 0 -2.7405 -3.8655 -10.678 -1.4985 -9.758 -4.9395 -5.8255 -4.9225 -4.077 
-5.049 -5.4775 -2.5645 -2.7405 -6.906501 -15.4927 -12.3593 -10.674 -15.1787 -10.8215 -11.5142 -8.5345 
-8.184501 -5.4775 -4.9005 -6.906501 -19.0135 -17.174 -21.5348 -16.0947 -21.0607 -16.5102 -15.1262 
-8.184501 -6.348 -9.333 -19.0135 -20.6948 -26.3495 -26.9555 -21.9767 -26.7494 -20.1222 
-8.9995 -11.1267 -21.667 -20.6948 -29.8703 -31.7702 -32.8375 -27.6654 -30.3614 
-1.934 -3.508 -2.5645 0 -2.7405 -1.8085 -3.6135 -8.1485 -4.8115 -2.7415 -3.43 -3.436 -3.8655 -5.275 -1.934 -2.9705 -4.8835 -3.1385 -3.152 -5.037 0 
-5.049 -5.4775 -2.5645 -2.7405 -5.2095 -4.4545 -13.0914 -13.3206 -7.7025 -4.913 -6.0365 -8.1835 -6.824 -7.4505 -4.051 -8.458501 -7.5965 -5.219 -8.4385 -5.037 
-8.184501 -5.4775 -4.9005 -5.2095 -7.812 -14.6054 -18.2635 -16.2116 -10.0195 -7.165 -11.253 -11.5492 -9.5375 -9.9205 -9.865001 -12.0521 -9.193 -10.1595 -8.4385 
-8.184501 -6.348 -7.342501 -7.812 -18.4211 -19.7775 -21.1545 -18.5286 -12.6781 -12.5837 -14.6187 -14.2627 -12.2309 -15.7853 -13.4586 -13.6486 -14.1989 -10.1595 
-8.9995 -8.7685 -10.034 -18.4211 -23.5932 -22.6685 -23.4715 -21.1872 -18.0968 -15.9494 -17.3322 -16.9561 -18.0957 -19.3789 -15.0551 -18.6545 -14.1989 
-3.508 -2.5645 0 -2.7405 -5.8605 -2.3345 -8.27 -1.934 -8.656501 0 -3.8655 0 -4.8835 -3.1385 -5.037 0 
-5.4775 -2.5645 -2.7405 -8.873 -8.123501 -9.927501 -9.235001 -9.842501 -8.656501 -3.8655 -3.8655 -4.8835 -7.5965 -7.04 -5.037 
-5.4775 -4.9005 -8.873 -11.599 -15.9307 -10.8925 -17.4265 -9.842501 -9.832001 -3.8655 -8.535501 -7.5965 -10.1635 -7.04 
-6.348 -11.4266 -11.599 -19.4062 -16.8957 -19.084 -17.4265 -10.7635 -9.832001 -8.535501 -11.8077 -10.1635 -10.1635 
-13.2203 -14.1526 -19.4062 -20.3712 -25.0872 -19.084 -18.3475 -10.7635 -14.502 -11.8077 -14.3747 -10.1635 
