-4.759 
n/a 
n/a 
n/a 
n/a 
-4.759 
n/a 
n/a 
n/a 
n/a 
-4.759 
n/a 
n/a 
n/a 
n/a 
-4.759 
n/a 
n/a 
n/a 
n/a 
-4.628 -5.939 -3.915 -3.5435 -4.634 
-5.9615 -9.144 -6.427 -8.9735 
-9.1575 -11.9476 -12.8316 
-11.9695 -18.3522 
-18.3741 
-3.5435 -1.7565 -6.899 -3.972 -5.8885 0 
-4.9885 -8.5275 -10.7665 -11.3275 -5.8885 
-13.1195 -12.5846 -18.122 -11.3275 
-17.1766 -19.9401 -18.122 
-24.5321 -19.9401 
-6.899 -3.915 -3.5435 -4.8135 
-11.8244 -6.427 -9.649 
-14.3364 -13.5071 
-21.4165 
n/a 
-6.6585 0 -3.5435 -4.285 -4.8135 
-6.6585 -3.5435 -6.866 -9.421 
-9.505501 -6.866 -12.6076 
-12.9806 -12.6076 
-18.7222 
