-4.759 
n/a 
n/a 
n/a 
n/a 
-4.759 
n/a 
n/a 
n/a 
n/a 
-4.759 
n/a 
n/a 
n/a 
n/a 
-4.759 
n/a 
n/a 
n/a 
n/a 
-3.999 0 -4.231 -1.7565 -5.3745 -4.891 -1.7565 -5.1845 -6.844 
-3.999 -4.231 -5.486501 -6.5 -7.061501 -6.8725 -6.580501 -6.9655 
-7.5385 -5.486501 -9.647501 -8.8485 -7.1715 -7.181 -7.1625 
-9.4505 -9.647501 -12.5422 -9.0345 -7.185 -7.202001 
-13.9483 -12.5422 -12.7282 -9.069 -7.2055 
-3.74 0 -4.231 -1.7565 -6.144 
-3.74 -4.231 -5.486501 -7.7095 
-8.5515 -5.486501 -10.316 
-10.427 -10.316 
-15.2565 
-4.231 -1.7565 -4.891 0 
-5.486501 -7.001501 -4.891 
-11.6641 -7.001501 
-11.6641 
n/a 
-3.391 0 -4.2245 -1.7565 -6.144 0 
-3.391 -4.2245 -5.277 -7.7095 -6.144 
-7.311501 -5.277 -9.714001 -7.7095 
-9.0895 -9.714001 -9.714001 
-13.3349 -9.714001 
