-4.759 
n/a 
n/a 
n/a 
n/a 
-4.759 
n/a 
n/a 
n/a 
n/a 
-4.759 
n/a 
n/a 
n/a 
n/a 
-4.759 
n/a 
n/a 
n/a 
n/a 
-2.3615 -3.729 -2.7415 -4.0835 -2.356 -3.3365 -1.7565 -3.582 -5.1475 -1.934 -1.4985 -3.9075 -3.8325 -1.7565 -6.911 -1.934 -5.9215 0 
-6.068501 -5.9115 -5.341001 -5.6715 -5.38 -4.7425 -5.3505 -6.741 -7.35 -2.6125 -4.9185 -6.650001 -4.732 -8.368 -8.7005 -7.082 -5.9215 
-7.1125 -7.176 -6.540501 -8.578501 -7.7515 -7.8225 -7.5195 -8.635501 -7.8825 -6.1365 -7.024 -8.493 -9.388 -9.740001 -9.717 -7.082 
-8.299001 -8.797501 -10.089 -11.3524 -11.0919 -10.718 -9.097 -9.097501 -11.6947 -8.865001 -8.8835 -13.3338 -10.9154 -10.2455 -9.717 
-10 -12.558 -12.8629 -14.6928 -13.9874 -12.2955 -9.524501 -13.0293 -14.4232 -10.564 -13.7923 -14.8612 -11.4209 -10.2455 
-4.426 -1.7565 -1.4985 -3.0835 -4.7285 -4.1555 -3.147 -2.3615 -2.186 -4.0835 -1.934 -3.8325 -1.7565 -6.911 -3.9075 -1.756 -3.2955 -3.582 -5.1475 -2.0935 -3.737 -2.3615 -3.729 0 
-5.47 -2.4195 -3.535 -6.042 -8.4455 -5.77 -5.445 -3.5005 -5.3675 -4.6245 -6.2605 -4.732 -8.368 -7.8485 -5.436 -5.0135 -7.4125 -6.741 -7.7105 -5.07 -5.5205 -6.068501 -3.729 
-5.9535 -4.6785 -6.335501 -9.523001 -9.541501 -8.02 -6.151 -7.666501 -6.515 -9.4715 -7.312001 -9.388 -8.946 -9.128 -8.9895 -9.067 -10.1675 -8.793501 -10.66 -6.3495 -9.1855 -6.068501 
-8.021 -7.476501 -10.0095 -10.7035 -11.7915 -8.458501 -10.5035 -8.43 -12.0558 -9.7685 -12.6742 -9.7135 -10.209 -12.7493 -13.3556 -11.8472 -12.22 -12.3532 -11.9395 -10.2865 -9.1855 
-9.983001 -11.3061 -11.3 -12.9535 -12.23 -13.3238 -11.267 -14.3428 -12.3528 -15.5535 -12.9997 -11.0347 -13.8303 -17.1154 -16.1358 -13.8997 -15.7797 -13.6327 -15.8765 -10.2865 
-5.1475 -4.921 -3.2955 -4.196 -1.934 -2.3615 -3.729 0 -2.186 -1.934 -1.4985 -4.3215 -1.7565 -3.9075 -6.911 -2.5045 -5.9215 -3.2875 
-8.145 -7.653 -7.9355 -6.1155 -3.539 -6.068501 -3.729 -2.186 -4.0835 -2.6125 -5.394 -5.7605 -6.106 -7.985001 -9.1265 -7.859 -8.370001 
-11.172 -12.9144 -9.303 -7.743 -6.8745 -6.068501 -5.6265 -4.0835 -4.6915 -7.2015 -5.962501 -7.937 -8.6695 -9.598001 -10.5135 -10.6595 
-16.4334 -14.2819 -11.0409 -11.3787 -6.8745 -6.9685 -7.2995 -4.6915 -9.2295 -8.223001 -8.029501 -9.075001 -10.459 -11.078 -13.314 
-17.8009 -16.0198 -14.6766 -11.3787 -8.462501 -8.585 -7.87 -9.2295 -10.3825 -9.844001 -9.1 -10.9285 -11.939 -13.8785 
-2.3615 -3.729 -2.186 -4.3315 -3.859 -2.9905 -1.7565 -5.1475 -2.264 -1.4985 -6.911 -3.8325 -1.7565 -5.9215 0 
-6.068501 -5.6265 -5.345 -8.4665 -6.278 -3.6185 -6.649001 -7.78 -2.9195 -7.6075 -8.901 -4.732 -7.501 -5.9215 
-6.9685 -8.4315 -9.755001 -9.747001 -7.115 -8.464001 -8.745001 -8.21 -8.762 -9.601501 -10.2369 -10.575 -7.501 
-9.663 -13.1039 -11.2299 -10.736 -12.2981 -10.7186 -8.991001 -14.4511 -10.159 -11.0666 -16.0799 -10.575 
-14.5608 -14.5788 -12.2189 -15.9191 -14.5527 -10.9646 -15.6209 -15.8481 -11.6241 -16.9096 -16.0799 
