-4.759 
n/a 
n/a 
n/a 
n/a 
-4.759 
n/a 
n/a 
n/a 
n/a 
-4.759 
n/a 
n/a 
n/a 
n/a 
-4.759 
n/a 
n/a 
n/a 
n/a 
-1.934 -4.7405 -3.7515 -2.9805 -3.3785 -4.7075 
-6.6195 -6.614501 -6.386 -6.45 -8.6315 
-7.9165 -9.163 -10.3047 -12.058 
-11.462 -13.1707 -15.9127 
-15.4697 -18.7787 
-2.9805 -3.659 -7.3695 -2.5195 -3.091 -4.253 -3.4795 0 
-7.4315 -12.8325 -9.807 -4.8225 -6.3545 -7.027 -3.4795 
-16.8092 -15.27 -12.4778 -7.5385 -8.0695 -7.027 
-19.2467 -17.9408 -15.1938 -9.073 -8.0695 
-21.9175 -20.6568 -16.7283 -9.073 
-2.9805 -3.895 -5.069 -2.5045 -3.091 -3.809 -4.126 
-8.072001 -7.6035 -7.364 -5.0075 -6.28 -8.281501 
-12.1611 -9.6075 -9.956 -8.2015 -11.5331 
-14.1651 -12.2495 -13.15 -13.9116 
-16.8071 -15.4435 -18.8601 
-2.9805 -5.487 -5.069 -2.5195 -3.091 -4.6655 0 
-6.923 -8.293501 -7.5255 -4.8225 -6.248 -4.6655 
-9.7805 -10.7335 -9.816501 -7.282001 -6.248 
-12.3671 -13.0245 -12.3282 -7.282001 
-14.6581 -15.5362 -12.3282 
