-4.759 
n/a 
n/a 
n/a 
n/a 
-4.759 
n/a 
n/a 
n/a 
n/a 
-4.759 
n/a 
n/a 
n/a 
n/a 
-4.759 
n/a 
n/a 
n/a 
n/a 
-4.1805 -2.186 -3.383 -3.699 -1.7695 -3.8565 -3.3825 0 -1.756 -3.6385 -3.519 -1.934 -3.691 0 
-6.2695 -4.438 -5.014 -4.585 -5.800001 -4.849 -3.3825 -1.756 -5.8615 -7.006001 -5.3055 -4.8225 -3.691 
-8.3595 -5.451 -5.7245 -8.295 -6.762001 -4.849 -4.5235 -5.8615 -8.099501 -8.630501 -8.193 -4.8225 
-9.452001 -5.941 -9.76 -8.910001 -6.762001 -5.933001 -9.2635 -8.099501 -9.647501 -11.647 -8.193 
-10.249 -10.2325 -10.2355 -8.910001 -7.553 -11.5012 -10.734 -9.647501 -12.6496 -11.647 
-3.77 -4.076 -2.0935 -4.7855 -1.756 -4.2745 -2.186 -3.383 -3.699 -2.0935 -3.301 -4.042 0 -3.433 -1.7565 -2.3615 -3.691 -2.229 -3.97 -4.3195 -3.699 -4.6875 
-7.4465 -6.1615 -6.1925 -5.7805 -6.285 -6.5 -4.438 -5.014 -5.118 -5.14 -7.451 -4.042 -3.433 -4.1845 -3.523 -7.6145 -5.0855 -5.6965 -8.171501 -7.302 -6.0235 
-9.219 -10.0815 -7.0535 -9.726 -8.425501 -8.820001 -5.451 -6.1555 -7.766 -9.439001 -7.451 -7.003 -4.1845 -5.5485 -8.953001 -8.139 -8.580501 -9.846001 -10.76 -10.1867 
-13.365 -10.763 -10.5975 -11.8881 -10.7495 -9.882501 -6.429 -8.789001 -12.5978 -9.439001 -9.8505 -7.691 -5.5485 -10.0125 -10.025 -12.426 -13.8046 -12.5663 -13.6447 
-14.0465 -14.307 -12.7596 -14.2121 -11.812 -10.677 -8.9965 -13.6194 -12.5978 -11.9869 -10.454 -8.984501 -10.0125 -11.2217 -14.312 -17.6501 -16.5249 -15.451 
-1.4985 -3.1385 -1.7565 -1.4985 -3.681 -1.934 -3.836 -1.7565 -3.699 -2.3615 -4.7015 -1.934 -3.9655 -3.383 -3.699 -1.934 -2.3615 -3.691 0 
-4.2575 -4.861 -2.4195 -4.9615 -5.219 -5.964 -5.502501 -5.662 -6.2305 -7.302 -6.569 -5.717 -8.8795 -5.014 -5.35 -3.539 -7.6145 -3.691 
-5.1835 -5.5655 -5.422501 -6.7895 -10.0084 -7.416501 -10.5014 -9.461 -11.6818 -9.6475 -10.9086 -11.5568 -10.7137 -6.4135 -6.741 -9.278001 -7.6145 
-5.8365 -8.732 -7.345001 -12.0041 -11.4609 -12.9592 -14.3004 -15.0561 -14.0273 -14.0501 -16.7484 -13.391 -12.1132 -7.6715 -12.9512 -9.278001 
-10.426 -11.6033 -12.5748 -13.4566 -17.0036 -16.7582 -19.8955 -17.4016 -18.4299 -19.8899 -18.5826 -14.7905 -13.3712 -13.9635 -12.9512 
-1.4985 -4.1805 -1.7565 -3.6835 -5.164 -1.756 -3.074 -1.4985 -3.8175 -3.3035 -2.4945 -1.4985 -3.8175 -3.9825 -1.7565 -4.216 -4.351 -3.074 -3.9875 -1.7695 -3.301 -3.9655 -3.518 -1.934 -3.691 
-5.4645 -5.713 -4.6675 -5.399 -6.3 -4.566 -4.6505 -4.741 -6.909 -5.024 -3.9315 -4.741 -5.9455 -4.571 -5.362 -8.711 -7.880501 -6.285501 -4.6185 -5.5655 -7.349 -6.9865 -5.322001 -4.8225 
-6.2585 -8.7435 -6.324 -6.4905 -8.7145 -5.66 -7.7255 -7.7775 -7.964 -6.758 -6.3575 -7.3665 -7.606 -8.07 -9.367001 -12.3591 -11.3454 -6.386 -7.5295 -9.431001 -10.847 -8.257501 -8.273001 
-9.698501 -9.935 -7.3075 -8.904501 -9.666 -8.9785 -10.9674 -9.0255 -9.582001 -9.044001 -10.1505 -7.9345 -11.2634 -12.5044 -13.1149 -15.824 -11.4459 -9.511001 -11.6744 -13.1062 -12.118 -10.6875 
-10.5155 -11.0397 -9.690001 -9.7985 -13.1495 -12.2518 -12.2154 -10.361 -12.07 -13.0968 -10.9149 -11.6315 -15.6978 -16.2523 -16.5798 -15.9245 -14.5709 -13.7847 -15.3496 -14.3772 -14.548 
