-4.759 
n/a 
n/a 
n/a 
n/a 
-4.759 
n/a 
n/a 
n/a 
n/a 
-4.759 
n/a 
n/a 
n/a 
n/a 
-4.759 
n/a 
n/a 
n/a 
n/a 
-2.3615 -3.824 -2.186 -4.9575 0 -3.602 -1.7565 -3.42 -3.1495 -3.2495 -4.346 0 
-6.877501 -6.25 -7.895 -4.9575 -3.602 -4.5195 -5.572001 -6.8745 -4.8975 -6.133 -4.346 
-9.598001 -12.3494 -7.895 -9.472 -4.5195 -8.727501 -9.012 -8.522 -7.858 -6.133 
-15.6974 -12.3494 -12.9289 -9.64 -8.727501 -12.3475 -10.8281 -11.6715 -7.858 
-15.6974 -17.3833 -13.0969 -14.7854 -12.3475 -14.1636 -13.9776 -11.6715 
-2.3615 -5.5345 -4.828 -1.756 -1.4985 -3.6185 -4.723 -2.3345 -4.6905 -1.4985 -5.1605 -2.7765 -2.489 -4.7925 -3.222 -3.2495 -4.7005 0 
-8.587 -10.4265 -6.056 -3.0405 -5.133 -6.8275 -6.059 -6.196 -5.683001 -6.014501 -7.781 -3.495 -5.7645 -5.2095 -5.334 -6.0185 -4.7005 
-13.813 -11.6545 -7.121 -7.066 -8.017 -8.3295 -9.279 -6.976 -6.5925 -8.504001 -8.0345 -6.2235 -6.0075 -5.913 -7.875 -6.0185 
-15.041 -12.7195 -10.702 -9.6105 -8.7705 -11.7799 -9.575001 -8.547501 -8.93 -8.673 -11.0514 -6.3145 -6.581 -8.3415 -7.875 
-16.106 -16.3005 -13.2465 -10.623 -12.3857 -12.0759 -11.1867 -11.0986 -8.9825 -11.9887 -11.1424 -6.830501 -8.723001 -8.3415 
-2.7295 -2.7765 -5.043 -1.4985 -4.3615 -2.5045 -3.602 -4.8255 0 -3.42 -4.8255 -5.289 -1.4985 -3.824 0 
-4.065 -6.9725 -5.8035 -5.6615 -7.048 -6.7875 -8.4075 -4.8255 -3.42 -6.5765 -10.6605 -6.004 -5.519501 -3.824 
-7.586 -7.537 -9.959001 -7.919001 -11.8926 -12.2968 -8.4075 -8.3175 -6.5765 -12.7841 -11.3755 -9.6245 -5.519501 
-7.996 -11.7735 -12.4065 -12.9482 -17.4019 -12.2968 -12.6091 -9.234 -12.7841 -13.4991 -14.996 -9.6245 
-12.2991 -14.221 -17.4357 -18.4575 -17.4019 -16.4984 -13.5256 -15.66 -13.4991 -17.1196 -14.996 
-2.4265 -2.8645 -3.9755 -2.5045 -2.341 -2.3335 -2.186 -2.3615 -4.2935 -3.594 0 -6.8405 -4.2935 -3.594 
-4.1435 -8.5245 -6.4215 -5.752501 -5.7055 -3.7085 -4.4675 -7.581 -7.611501 -3.594 -6.8405 -12.1236 -7.611501 
-9.062 -10.564 -10.1185 -9.122001 -6.769 -6.794001 -9.64 -11.2844 -7.611501 -10.985 -12.1236 -15.4416 
-11.7671 -14.261 -13.7686 -9.970501 -9.718 -12.1785 -13.36 -11.2844 -15.7743 -16.2681 -15.4416 
-15.4641 -17.9111 -14.6171 -12.9195 -15.0975 -15.8985 -13.36 -19.4472 -21.0574 -19.5861 
