-4.759 
n/a 
n/a 
n/a 
n/a 
-4.759 
n/a 
n/a 
n/a 
n/a 
-4.759 
n/a 
n/a 
n/a 
n/a 
-4.759 
n/a 
n/a 
n/a 
n/a 
-3.1495 -4.2915 -2.674 -3.3715 -5.2125 
-6.655 -6.818 -5.4105 -8.010501 
-8.1905 -8.993501 -9.6435 
-10.292 -13.4927 
-14.7912 
-1.934 -2.3615 -3.6885 -3.17 -3.7095 -2.5045 -3.251 -3.7095 
-3.539 -6.1155 -7.098001 -7.091001 -6.624001 -6.541 -7.153501 
-6.7935 -9.568501 -11.5628 -10.9671 -9.978001 -11.1215 
-10.3745 -14.1061 -15.4389 -14.3211 -14.8481 
-14.9121 -17.9822 -18.7929 -19.1912 
-3.1495 -4.2915 -4.4715 -4.6155 -1.756 -3.251 -5.1405 0 
-6.655 -8.191 -8.449 -6.180501 -5.137 -8.931001 -5.1405 
-10.513 -12.7295 -10.3285 -9.276501 -11.1064 -8.931001 
-15.0515 -14.609 -13.4245 -15.7533 -11.1064 
-16.931 -17.705 -19.9013 -15.7533 
-2.3615 -3.6885 -4.138 -3.251 -5.1405 0 
-6.1155 -8.986501 -8.078 -8.931001 -5.1405 
-12.1529 -13.0709 -14.3328 -8.931001 
-16.2373 -19.3257 -14.3328 
-22.4921 -19.3257 
