-4.759 
n/a 
n/a 
n/a 
n/a 
-4.759 
n/a 
n/a 
n/a 
n/a 
-4.759 
n/a 
n/a 
n/a 
n/a 
-4.759 
n/a 
n/a 
n/a 
n/a 
-4.677 -2.4945 -3.4155 -3.1385 -3.545 -7.59 -3.401 
-7.5425 -5.318501 -6.1125 -7.786 -12.1158 -9.3605 
-10.2925 -7.518001 -11.2402 -16.6936 -13.8863 
-12.492 -12.9667 -20.1478 -18.4641 
-17.9407 -21.8743 -21.9183 

n/a 
n/a 
n/a 
n/a 
-3.0365 -2.229 -3.836 -4.138 -3.9035 -4.4175 -2.0935 -3.8905 0 -3.2615 -12.16972 -4.5355 -3.6785 -8.703 0 
-4.1125 -5.937 -8.207001 -8.8405 -9.438 -5.744 -5.625 -3.8905 -3.2615 -16.54482 -16.70522 -7.7585 -13.3443 -8.703 
-9.5065 -10.139 -13.3009 -14.8714 -10.8371 -10.688 -5.625 -7.0625 -16.54482 -21.08032 -19.92822 -17.7063 -13.3443 
-13.8265 -15.2329 -19.3318 -16.2705 -15.7811 -10.688 -8.8065 -20.93962 -21.08032 -24.30332 -29.87602 -17.7063 
-18.9204 -21.2638 -20.7309 -21.2145 -15.7811 -14.4063 -22.83382 -25.47512 -24.30332 -34.25112 -29.87602 
-4.832 -5.3255 -2.4945 -4.7135 -2.7455 -3.1495 -3.1385 -3.0695 -4.452 -2.985 -3.5895 -1.7695 -4.1955 -5.131 
-9.2615 -7.270501 -6.238501 -6.9955 -5.259501 -5.148 -4.286 -9.396501 -6.7045 -5.613501 -4.9665 -5.807001 -8.175001 
-11.3241 -10.7595 -8.505501 -9.3695 -7.2435 -6.6525 -10.4345 -11.8144 -7.5075 -7.008 -9.709001 -10.3475 
-14.8131 -13.0265 -11.0455 -11.3945 -8.4145 -12.9472 -13.2194 -12.6174 -8.998 -11.8861 -14.4447 
-17.0801 -15.5665 -13.0705 -12.5655 -14.8838 -15.7321 -14.0224 -14.1079 -14.0259 -16.6218 
