-4.759 
n/a 
n/a 
n/a 
n/a 
-4.759 
n/a 
n/a 
n/a 
n/a 
-4.759 
n/a 
n/a 
n/a 
n/a 
-4.759 
n/a 
n/a 
n/a 
n/a 
-4.539 -9.521001 -9.875 0 -8.854 0 
-10.304 -19.8908 -9.875 -8.854 -8.854 
-21.9646 -19.8908 -18.729 -8.854 
-21.9646 -28.7448 -18.729 
-30.8186 -28.7448 
-4.539 0 -8.250501 -9.952001 0 -5.7865 0 
-4.539 -8.250501 -18.6579 -9.952001 -5.7865 -5.7865 
-13.1781 -18.6579 -18.6579 -15.8289 -5.7865 
-23.5855 -18.6579 -24.5348 -15.8289 
-23.5855 -24.5348 -24.5348 
-4.539 0 -12.16972 -7.7895 0 -5.7865 0 
-4.539 -12.16972 -19.95922 -7.7895 -5.7865 -5.7865 
-17.09732 -19.95922 -19.95922 -10.123 -5.7865 
-24.88682 -19.95922 -22.29272 -10.123 
-24.88682 -22.29272 -22.29272 
-4.539 0 -8.966001 -7.7895 0 -5.7865 0 
-4.539 -8.966001 -17.3361 -7.7895 -5.7865 -5.7865 
-13.8936 -17.3361 -17.3361 -10.123 -5.7865 
-22.2637 -17.3361 -19.6696 -10.123 
-22.2637 -19.6696 -19.6696 
