-4.759 
n/a 
n/a 
n/a 
n/a 
-4.759 
n/a 
n/a 
n/a 
n/a 
-4.759 
n/a 
n/a 
n/a 
n/a 
-4.759 
n/a 
n/a 
n/a 
n/a 
-4.426 -1.7565 -1.4985 -3.6115 -4.7285 -4.1555 -3.147 -3.4635 -2.95 -4.1665 
-5.47 -2.4195 -4.081 -6.5495 -8.4455 -5.77 -5.126 -7.196501 -7.864 
-5.9535 -5.180501 -6.670501 -9.978001 -9.541501 -9.219501 -11.117 -13.0617 
-8.462501 -7.797 -10.054 -11.0524 -12.991 -15.9253 -16.9822 
-10.2375 -11.2985 -11.1648 -14.5019 -19.6968 -21.7905 
-3.4635 -4.739 -3.7455 
-8.536501 -7.985001 
-12.0587 
n/a 
n/a 
-3.956 -4.739 -1.7565 -4.763 0 
-9.071501 -5.4635 -6.619501 -4.763 
-10.6345 -9.305501 -6.619501 
-14.4765 -9.305501 
-14.4765 
-4.53 -4.113 -4.763 
-9.838 -10.032 
-15.748 
n/a 
n/a 
