-4.759 
n/a 
n/a 
n/a 
n/a 
-4.759 
n/a 
n/a 
n/a 
n/a 
-4.759 
n/a 
n/a 
n/a 
n/a 
-4.759 
n/a 
n/a 
n/a 
n/a 
-2.925 -2.4945 -3.644 -2.7455 -4.0395 -1.7565 -1.4985 -3.16 0 
-3.7675 -7.508501 -6.078501 -7.542 -4.862 -2.4195 -4.0625 -3.16 
-8.186001 -9.911001 -11.2996 -8.7065 -5.2685 -5.068501 -4.0625 
-10.6185 -15.1321 -12.4641 -9.2255 -7.681 -5.068501 
-15.8396 -16.2966 -12.9831 -11.7228 -7.681 
-2.7295 -2.674 -3.2955 -3.776 -3.7095 -3.2295 -3.277 
-3.8 -5.19 -7.7 -7.324 -7.948 -5.947001 
-6.0835 -9.0105 -11.5004 -12.2723 -10.322 
-9.688001 -12.8135 -16.4487 -14.6463 
-13.491 -17.7618 -18.8227 
-2.3615 -5.6395 -12.16972 -1.756 -8.869 -10.0865 -1.7695 -2.489 -4.091 
-8.1955 -19.18782 -13.92572 -11.046 -19.1005 -11.9382 -3.1405 -5.3945 
-22.02502 -20.94382 -23.21572 -21.2775 -20.9522 -13.3092 -6.097 
-23.78102 -30.23382 -33.44722 -23.1292 -22.3232 -16.2657 
-33.07102 -40.46532 -35.29892 -24.5002 -25.2797 
-2.3615 -4.849 -5.6395 -3.802 -4.456 -1.756 -3.3855 -4.676 0 
-6.841001 -9.658001 -7.2565 -7.867001 -5.426001 -5.142 -8.439 -4.676 
-12.3246 -11.918 -10.523 -8.83 -9.113001 -10.275 -8.439 
-14.5846 -15.1845 -11.486 -12.7496 -14.4608 -10.275 
-17.8511 -16.1475 -15.4056 -18.0974 -14.4608 
