-4.759 
n/a 
n/a 
n/a 
n/a 
-4.759 
n/a 
n/a 
n/a 
n/a 
-4.759 
n/a 
n/a 
n/a 
n/a 
-4.759 
n/a 
n/a 
n/a 
n/a 
-3.034 -4.211 -2.7455 -3.8735 -3.0465 -4.015 -8.445001 -4.101 -8.512501 -2.229 -2.8195 -1.756 -2.9805 -5.4035 -2.925 -1.4985 -4.176 
-8.6545 -5.353 -6.845 -7.01 -7.695001 -13.7112 -13.2778 -14.3719 -10.019 -4.952 -4.6595 -4.3555 -6.648001 -7.184 -4.202 -5.481501 
-9.807 -9.7725 -10.316 -9.9375 -17.9668 -18.544 -23.5487 -15.8784 -12.742 -6.5265 -7.1105 -8.038 -8.450001 -8.262 -7.8935 
-14.4373 -13.3371 -13.2435 -22.0057 -22.7996 -28.8149 -25.0552 -18.6014 -14.3165 -8.5375 -10.9984 -9.471001 -9.368501 -12.2871 
-18.0019 -16.2646 -25.3117 -26.8385 -33.0705 -30.3214 -27.7782 -20.1759 -16.3275 -12.5562 -12.4314 -10.6475 -13.4892 
-4.215 -1.4985 -2.9195 -3.8735 -3.7555 -4.248 -7.5605 -4.101 -1.7695 -8.4665 -2.229 -3.545 -1.756 -5.1515 -1.4985 -3.4075 -4.176 
-5.372 -4.4535 -6.440001 -8.014501 -8.1975 -13.0471 -10.958 -4.6905 -10.7175 -9.731 -5.0665 -4.9285 -7.443501 -7.476 -4.118 -6.606 
-6.757 -8.073 -11.5582 -9.846001 -17.3198 -16.4446 -11.5475 -13.9461 -11.982 -12.8161 -6.3225 -10.322 -8.838 -10.4045 -7.0515 
-11.1685 -14.2062 -13.3897 -19.1245 -20.7173 -17.0341 -20.8031 -15.2106 -15.0671 -14.0721 -12.0156 -12.2435 -11.8547 -13.338 
-17.3017 -16.0377 -22.6682 -22.522 -21.3068 -26.2897 -22.0676 -18.2957 -16.3231 -19.7652 -13.9371 -15.2602 -14.7882 
-3.8735 -3.7875 -6.777 -5.3285 -8.445001 0 -8.006001 -7.348001 -3.074 -1.934 
-7.6775 -10.3165 -12.8261 -14.2425 -8.445001 -8.006001 -9.484 -10.533 -4.93 
-14.3661 -16.8412 -21.7401 -14.2425 -17.1828 -9.484 -12.7392 -12.389 
-20.8908 -25.7552 -21.7401 -22.9803 -18.6608 -12.7392 -14.5952 
-29.8048 -25.7552 -30.4779 -24.4583 -21.916 -14.5952 
-3.034 -8.445001 -4.4455 -2.3335 -3.8735 -3.7555 -4.248 -2.9805 -3.0835 -4.101 -1.7695 -8.512501 0 -2.229 -3.545 -1.7695 -4.44 -1.4985 -3.4075 -4.176 0 
-12.642 -13.6223 -5.3015 -6.491 -8.014501 -8.1975 -7.023 -5.948501 -6.726 -4.6905 -10.862 -8.512501 -2.229 -5.0665 -5.4955 -5.3335 -6.1195 -4.118 -6.606 -4.176 
-17.8193 -14.4783 -9.4785 -9.306001 -9.846001 -10.6875 -10.2535 -7.849501 -7.0915 -14.0906 -10.862 -10.019 -5.0665 -6.881001 -9.427 -6.6255 -8.779 -7.0515 -6.606 
-18.6753 -18.6553 -12.5569 -11.3421 -12.4922 -13.918 -12.1545 -8.0775 -16.589 -14.0906 -12.3685 -12.8565 -6.881001 -11.1823 -10.719 -9.064501 -8.923 -7.0515 
-22.8523 -21.7337 -14.593 -13.9883 -15.7227 -15.819 -12.3825 -17.7002 -16.589 -15.5971 -15.206 -14.671 -11.1823 -12.4743 -13.158 -9.177501 -8.923 
