-4.759 
n/a 
n/a 
n/a 
n/a 
-4.759 
n/a 
n/a 
n/a 
n/a 
-4.759 
n/a 
n/a 
n/a 
n/a 
-4.759 
n/a 
n/a 
n/a 
n/a 
-2.5045 -5.0345 -3.5315 -3.1635 0 -4.191 -3.682 -2.4945 -4.175 -1.7695 -10.4135 0 -12.16972 0 
-8.678 -8.137501 -5.4925 -3.1635 -4.191 -8.421 -5.2045 -5.892 -5.054 -13.1652 -10.4135 -12.16972 -12.16972 
-11.9132 -9.818501 -5.4925 -8.0225 -8.421 -10.096 -8.456 -6.606 -17.0769 -13.1652 -22.58322 -12.16972 
-13.5942 -9.818501 -10.27 -12.5237 -10.096 -13.4721 -9.094 -19.0031 -17.0769 -25.33492 -22.58322 
-13.5942 -14.8546 -14.7712 -14.1987 -13.4721 -14.1101 -21.5351 -19.0031 -29.24662 -25.33492 
-4.489 -4.0745 -1.8085 -2.95 -2.356 -4.191 -4.798 -1.7695 -8.087001 -1.756 -10.1825 -2.264 -4.851 -3.5315 -5.0345 
-8.949501 -5.753 -4.4675 -4.937 -6.344501 -9.005501 -6.4775 -9.9255 -9.190501 -12.9471 -12.5987 -6.63 -6.958 -7.602 
-11.2728 -8.724 -6.6805 -8.922501 -10.7335 -10.219 -15.2735 -11.5038 -20.5104 -15.3633 -16.9647 -8.0625 -10.4855 
-14.2438 -11.5156 -10.503 -13.6431 -11.947 -19.1312 -16.8518 -22.8237 -22.9266 -19.7293 -18.3972 -11.7464 
-17.0354 -15.3381 -15.2236 -14.8566 -20.8592 -20.7095 -28.1717 -25.2399 -27.2926 -21.1618 -22.0811 
-1.934 -9.061001 -3.158 -4.851 -3.5315 -3.8655 -4.8555 -4.3465 -2.6615 -4.1645 -2.356 -2.95 -4.8075 -2.0935 -3.5155 -4.621 -1.756 -4.87 0 
-12.0014 -12.352 -8.095 -6.958 -8.725 -9.422001 -10.375 -7.684 -7.630501 -6.397 -5.496 -6.5645 -6.5175 -4.7255 -8.657001 -6.403 -6.8225 -4.87 
-15.2924 -17.289 -10.688 -12.3839 -14.4739 -15.2991 -13.7125 -13.2378 -9.852001 -9.573 -9.379001 -8.002501 -9.3275 -9.892 -8.701 -8.484 -6.8225 
-20.2294 -19.882 -16.1139 -18.1328 -20.351 -18.6366 -19.2663 -15.4593 -13.0522 -13.8058 -11.0392 -11.1311 -14.5374 -9.941501 -10.6605 -8.484 
-22.8224 -25.3079 -21.8628 -24.0099 -23.6885 -24.1904 -21.4878 -18.6595 -17.285 -15.466 -14.1678 -16.341 -14.5869 -12.1576 -10.6605 
-2.264 -4.851 -3.5315 -5.0345 0 -9.110001 -4.8225 -1.8085 -4.726 -1.7695 -4.87 -2.356 -4.191 -3.8585 0 
-6.63 -6.958 -7.602 -5.0345 -6.757 -13.216 -7.1305 -6.198501 -6.053 -7.055 -7.782001 -6.344501 -8.701 -3.8585 
-8.0625 -10.4855 -7.602 -9.242001 -13.4932 -15.8012 -11.9003 -7.237 -12.4915 -9.053 -12.0819 -10.688 -8.701 
-11.7464 -10.4855 -10.013 -16.3348 -15.8012 -20.571 -12.9388 -13.9499 -14.4895 -13.5941 -16.4254 -10.688 
-11.7464 -12.8965 -17.3894 -18.6428 -20.571 -21.6095 -19.6517 -15.9479 -19.0306 -17.9376 -16.4254 
