-4.759 
n/a 
n/a 
n/a 
n/a 
-4.759 
n/a 
n/a 
n/a 
n/a 
-4.759 
n/a 
n/a 
n/a 
n/a 
-4.759 
n/a 
n/a 
n/a 
n/a 
-1.4985 -3.1935 -5.69 -1.7565 -1.4985 -3.7695 0 -3.5855 -4.454 -1.7565 -3.995 -4.7425 0 -4.414 -4.732 -1.4985 -4.2665 -4.352 0 -2.3345 -4.719 -3.7375 
-4.728 -7.747 -7.4665 -2.4195 -4.999001 -3.7695 -3.5855 -7.2675 -5.044 -5.423 -8.2095 -4.7425 -4.414 -8.903 -5.618001 -5.2325 -7.38 -4.352 -2.3345 -6.424001 -6.3985 
-9.446001 -9.1415 -8.358 -6.024 -4.999001 -7.712 -7.2675 -8.906501 -7.979 -9.572001 -8.2095 -9.3545 -8.903 -9.7235 -10.485 -8.2615 -7.38 -6.489 -6.424001 -10.0745 
-10.1475 -9.857 -12.1045 -6.024 -9.069 -11.9276 -8.906501 -9.913 -12.6342 -9.572001 -13.2293 -13.9219 -9.7235 -14.7051 -13.514 -8.2615 -9.4855 -10.389 -10.0745 
-10.484 -13.6035 -12.1045 -10.2645 -13.5278 -13.5666 -9.913 -15.4294 -12.6342 -14.7394 -17.7967 -14.7424 -14.7051 -17.7341 -13.514 -10.374 -13.4763 -14.4039 
0 -3.995 -4.425 -4.237 -3.5855 0 -4.414 -2.5195 -1.4985 -3.5855 -2.4945 -3.818 0 -4.719 -3.7375 -2.8645 -4.3845 
-3.995 -7.9715 -8.6915 -8.703 -3.5855 -4.414 -6.018 -3.1695 -5.1475 -6.633 -5.7935 -3.818 -4.719 -6.3985 -6.498 -9.366 
-7.9715 -12.5326 -13.5253 -8.703 -8.688001 -6.018 -6.7655 -6.93 -8.491501 -9.836 -5.7935 -9.2015 -6.3985 -10.63 -13.3389 
-12.5326 -17.3664 -13.5253 -14.2007 -9.630001 -6.7655 -11.2088 -10.3885 -11.8455 -9.836 -11.8228 -10.9732 -10.63 -17.4709 
-17.3664 -17.3664 -19.023 -15.1427 -10.0985 -11.2088 -14.6673 -13.7425 -11.8455 -15.8851 -13.5945 -15.2047 -17.4709 
-5.8645 -4.593 -2.186 -3.5855 -4.9425 0 -4.3285 -3.1935 -2.0935 -4.719 -3.7375 -2.0935 -3.998 -1.756 -4.873 -4.352 
-11.2827 -6.739501 -6.713 -9.337 -4.9425 -4.3285 -7.092 -5.4515 -7.212501 -6.3985 -6.326 -5.8755 -5.648 -7.013 -10.0575 
-13.4292 -11.8319 -13.1043 -9.337 -9.9805 -7.092 -10.078 -10.494 -10.0965 -10.458 -10.8012 -7.308001 -11.8386 -12.5659 
-18.5216 -18.2232 -13.1043 -14.5542 -12.744 -10.078 -15.2579 -13.378 -14.388 -14.9332 -12.2337 -13.8276 -17.3915 
-24.9129 -18.2232 -18.3215 -17.3177 -15.73 -15.2579 -18.1419 -17.6695 -18.8632 -16.3657 -18.7533 -19.3805 
-4.719 -3.7375 -4.3285 -3.1935 -2.264 -3.6605 -4.7425 -1.756 -3.5855 -4.454 0 -4.2665 -5.5145 -2.5195 -1.4985 -3.914 
-6.3985 -8.449 -7.092 -5.01 -5.641 -4.8735 -6.0065 -5.1875 -7.2675 -4.454 -4.2665 -8.009 -7.363 -3.1695 -5.0465 
-12.581 -11.5437 -9.7915 -8.666 -6.212 -6.103001 -9.425 -9.120501 -7.2675 -8.313 -8.009 -10.204 -7.7805 -6.9545 
-15.6757 -14.2432 -13.5609 -9.3255 -7.2895 -9.452001 -13.578 -9.120501 -10.757 -12.6037 -10.204 -10.7255 -12.2051 
-18.3752 -18.0126 -14.2204 -10.554 -10.621 -13.6164 -13.578 -12.8142 -15.0477 -14.7987 -10.7255 -15.1501 
