-4.759 
n/a 
n/a 
n/a 
n/a 
-4.759 
n/a 
n/a 
n/a 
n/a 
-4.759 
n/a 
n/a 
n/a 
n/a 
-4.759 
n/a 
n/a 
n/a 
n/a 
-3.0835 -4.584 0 -4.1865 -3.8315 -4.53 
-7.693501 -4.584 -4.1865 -6.47 -8.222501 
-7.693501 -9.0625 -6.47 -11.792 
-12.5356 -11.8994 -11.792 
-15.3725 -17.2214 
-3.94 -3.522 0 -8.863001 -4.361 -3.772 
-6.281 -3.522 -8.863001 -13.808 -6.857 
-6.281 -13.1484 -13.808 -16.304 
-16.4342 -18.0934 -16.304 
-21.3792 -20.5894 
-4.0105 -4.867 0 -9.6365 -4.361 -5.1735 
-9.665001 -4.867 -9.6365 -14.1237 -9.370501 
-9.665001 -15.4993 -14.1237 -19.1332 
-20.4769 -19.9865 -19.1332 
-24.9641 -24.996 
-3.0835 -3.473 0 -8.863001 -3.8315 -4.9835 
-6.9355 -3.473 -8.863001 -13.2785 -7.8795 
-6.9355 -13.27 -13.2785 -17.3265 
-17.5193 -17.6855 -17.3265 
-21.9348 -21.7335 
