-4.759 
n/a 
n/a 
n/a 
n/a 
-4.759 
n/a 
n/a 
n/a 
n/a 
-4.759 
n/a 
n/a 
n/a 
n/a 
-4.759 
n/a 
n/a 
n/a 
n/a 
-4.065 -2.8645 -4.528 -1.4985 -4.7505 -2.5195 -8.411 -4.5315 0 -1.756 -1.4985 -4.5315 -5.409 -2.3335 -2.985 -5.115 -3.098 -9.525001 -12.16972 -3.098 -1.7695 -2.489 -3.7855 -1.7695 -1.4985 -3.4425 -2.5045 -10.1915 
-8.3535 -6.173 -5.716001 -5.934 -6.9965 -11.6041 -13.5375 -4.5315 -1.756 -3.0405 -5.863 -9.3995 -6.2875 -4.917 -6.429 -7.382 -13.0164 -21.85432 -15.26772 -5.051 -3.1405 -4.789001 -4.793 -2.7955 -4.4545 -5.6725 -13.6134 
-11.7316 -7.2035 -9.026001 -8.0155 -16.5157 -16.7306 -13.5375 -5.5845 -3.0405 -7.292 -10.304 -10.097 -8.223001 -8.122001 -9.3675 -17.86 -25.34572 -24.95232 -17.22072 -6.3985 -5.6465 -5.3715 -5.356501 -5.741 -6.4645 -17.4294 
-12.7621 -10.7595 -10.096 -17.9183 -21.6422 -16.7306 -14.5905 -7.108001 -7.292 -11.8492 -10.6835 -12.2917 -11.622 -11.5183 -20.0097 -30.18932 -28.44372 -26.90532 -18.56822 -8.374001 -6.2075 -5.9095 -8.39 -7.5835 -18.3502 
-16.3181 -11.8295 -20.0344 -23.0448 -21.6422 -17.7836 -16.114 -9.672501 -11.8492 -12.2287 -12.8782 -15.6907 -15.0183 -22.1605 -32.33902 -33.28732 -30.39672 -28.25282 -20.54372 -8.4755 -6.6385 -9.077001 -10.6465 -19.5908 
-1.4985 -9.026 -4.5315 -2.5195 -4.4685 -1.4985 -4.065 -4.423 -1.4985 -3.873 -2.0935 -1.4985 -5.3885 -4.042 -4.302 -6.277 -2.0935 -3.7875 -1.4985 -3.2875 -4.281 -5.3885 -3.2615 -2.985 -4.235 -9.525001 -9.109501 0 
-11.6183 -14.1155 -6.9005 -6.002 -5.348 -4.824 -9.394501 -5.437 -4.7405 -5.5335 -2.9725 -7.283501 -9.842501 -7.987 -12.1132 -6.772 -5.4945 -5.007 -4.127 -7.497001 -9.3165 -8.673 -5.5625 -6.068501 -11.1415 -18.7941 -9.109501 
-16.7078 -16.4845 -9.718 -6.7565 -8.551001 -9.556001 -10.3055 -7.562 -6.5405 -6.5655 -8.7425 -12.4227 -14.4961 -16.309 -12.6082 -10.8166 -6.455501 -8.2735 -8.2705 -12.8105 -13.6238 -11.0986 -7.7475 -13.347 -20.4106 -18.7941 
-19.0768 -19.302 -10.47 -9.928 -13.4598 -10.3365 -12.4305 -8.635 -7.2055 -12.9241 -14.0429 -17.0763 -22.8181 -16.804 -16.6528 -11.7776 -9.828001 -12.4894 -13.8506 -17.1178 -16.0494 -13.2836 -15.5102 -22.6161 -20.4106 
-21.8943 -20.054 -13.6415 -14.8556 -14.2403 -12.4615 -13.5035 -9.311501 -13.6675 -18.2245 -18.6965 -25.3983 -23.3131 -20.8486 -17.6138 -15.1501 -14.1553 -18.0695 -18.1579 -19.5434 -18.2344 -21.0463 -24.7793 -22.6161 
-2.5045 -1.4985 -4.065 -4.423 -1.4985 -4.042 -4.302 -2.5195 -1.4985 -8.411 -4.5315 0 -8.411 -4.5315 -3.985 -2.3335 -1.4985 -3.098 -1.7565 -5.965 -2.489 -4.164 -1.7695 -5.3885 0 
-3.583 -4.824 -9.394501 -5.437 -5.804 -7.987 -7.796 -3.1695 -10.151 -13.5375 -4.5315 -8.411 -13.5375 -8.594501 -6.035501 -3.3515 -4.3095 -4.3615 -7.106 -9.9725 -5.190001 -5.3235 -7.072001 -5.3885 
-6.877 -9.556001 -10.3055 -9.675501 -10.7014 -11.9918 -8.2995 -12.0554 -16.9741 -13.5375 -13.8053 -13.5375 -17.6005 -10.7175 -6.708 -6.2085 -4.5915 -10.115 -10.6335 -12.8003 -5.9965 -10.4425 -7.072001 
-11.6662 -10.3365 -14.544 -14.7253 -14.7062 -12.4953 -17.4408 -18.8785 -16.9741 -22.8113 -18.9318 -17.6005 -19.7235 -11.39 -9.3625 -6.715 -10.2805 -13.7713 -13.4613 -13.6068 -11.5473 -10.4425 
-12.4467 -14.575 -19.5938 -18.7301 -15.2097 -21.6366 -24.2639 -18.8785 -26.2479 -27.9378 -22.9948 -19.7235 -20.396 -14.0445 -9.6575 -12.6492 -14.0086 -16.5991 -14.2678 -19.1576 -11.5473 
-3.433 -1.7565 -4.065 -4.423 -5.3885 -9.764501 -4.656 -2.5195 -8.411 -4.5315 0 -1.4985 -8.411 -4.5315 -4.417 -1.7695 -3.5395 -2.5045 -10.2555 -1.7565 -1.4985 -3.098 -9.525001 -9.170501 -3.0695 -2.186 -1.4985 -4.235 -1.7565 -8.411 -4.5315 0 
-4.1845 -5.305501 -9.394501 -11.1415 -16.1208 -14.6475 -7.188 -11.6041 -13.5375 -4.5315 -1.4985 -10.151 -13.5375 -9.4455 -5.632 -4.7845 -6.4025 -13.6774 -12.3006 -2.4195 -4.3095 -13.0164 -18.8551 -11.1415 -4.2675 -3.339 -5.1495 -5.388 -10.884 -13.5375 -4.5315 
-8.7185 -11.2204 -16.1648 -21.8738 -21.0038 -17.1795 -16.6076 -16.7306 -13.5375 -6.1175 -10.151 -16.9741 -18.4515 -10.689 -8.134501 -7.6025 -18.0924 -15.7225 -12.9636 -5.791 -14.7881 -22.3465 -20.8261 -12.3395 -5.455 -6.543 -5.680501 -15.2977 -16.0105 -13.5375 
-14.5506 -17.9907 -26.8971 -26.7568 -23.5358 -26.5991 -21.7341 -16.7306 -15.1235 -15.3158 -16.9741 -21.8881 -19.695 -13.1915 -11.2825 -19.6826 -20.1375 -16.3855 -16.3351 -16.1712 -24.1182 -24.3175 -22.0241 -13.527 -7.4775 -6.73 -15.739 -20.4242 -16.0105 
-21.3209 -28.723 -31.7801 -29.2888 -32.9554 -31.7256 -21.7341 -18.3166 -24.3218 -22.1389 -21.8881 -23.1316 -22.1975 -16.3395 -23.3626 -21.7277 -20.8005 -19.757 -26.7153 -25.5013 -26.0892 -25.5155 -23.2116 -15.5495 -7.6125 -17.1219 -20.8655 -20.4242 
