-4.759 
n/a 
n/a 
n/a 
n/a 
-4.759 
n/a 
n/a 
n/a 
n/a 
-4.759 
n/a 
n/a 
n/a 
n/a 
-4.759 
n/a 
n/a 
n/a 
n/a 
-3.0835 -3.188 -3.8275 -4.0875 -3.5015 -4.672 -2.5685 -3.9035 -1.7565 -1.4985 -3.188 
-5.7815 -4.801 -7.568 -5.143 -8.0555 -6.7535 -5.716 -4.616 -2.4195 -3.619 
-5.963 -8.8985 -7.887 -8.632 -9.528501 -9.240001 -5.9055 -4.895 -4.4095 
-9.369 -9.314501 -11.4944 -10.4855 -12.0768 -9.257501 -6.06 -5.773 
-9.813001 -13.0027 -13.3479 -13.0338 -12.0943 -9.3725 -6.769 
-3.0835 -3.188 -3.8275 -2.186 -1.8085 -4.4695 -2.871 -1.4985 -3.188 -3.8275 0 
-5.7815 -4.801 -5.669 -3.164 -5.8105 -7.1955 -5.1 -3.619 -4.801 -3.8275 
-5.963 -7.642 -6.6865 -6.77 -8.167001 -8.954 -7.312 -6.377 -4.801 
-8.355 -8.649 -10.674 -8.896001 -9.768001 -11.215 -10.1765 -6.377 
-9.3415 -12.7073 -12.8 -10.4345 -12.029 -14.0795 -10.1765 
-1.4985 -3.0835 -3.188 -3.8275 -2.186 -3.3155 -2.186 -1.4985 -2.5685 -3.59 -4.37 -2.264 -3.2795 -3.8275 
-3.535 -5.7815 -4.801 -5.669 -5.021 -5.035 -3.339 -4.907001 -6.714 -8.1385 -6.405001 -6.395 -7.803 
-6.070001 -5.963 -7.642 -9.1335 -6.831 -5.4285 -6.7695 -9.062501 -11.9295 -10.316 -10.6215 -11.5917 
-6.1905 -8.355 -11.2357 -11.0069 -7.4755 -9.026 -11.749 -14.4624 -14.107 -14.8677 -15.8182 
-8.3675 -12.0279 -13.1091 -11.6514 -11.2064 -14.2199 -17.1489 -16.6399 -18.6587 -20.0644 
-3.188 -3.8275 -2.186 -1.4985 -2.871 -2.9705 -2.7415 -4.4825 -3.6215 -1.4985 -3.188 0 
-4.801 -5.669 -3.339 -4.316 -5.591 -4.512 -8.028501 -7.229 -4.094 -3.619 -3.188 
-7.642 -6.8995 -5.399 -6.506001 -6.9335 -9.792001 -10.8946 -7.7905 -4.561 -3.619 
-8.660501 -9.004001 -7.2425 -7.8275 -12.2753 -12.9003 -11.4561 -8.1545 -4.561 
-11.0196 -10.9505 -8.6035 -13.4069 -15.3836 -13.4618 -11.8201 -8.1545 
