-4.759 
n/a 
n/a 
n/a 
n/a 
-4.759 
n/a 
n/a 
n/a 
n/a 
-4.759 
n/a 
n/a 
n/a 
n/a 
-4.759 
n/a 
n/a 
n/a 
n/a 
-1.934 -4.0195 -2.3085 -3.0805 -4.424 -2.3335 -2.95 -2.3085 -3.322 -5.1845 
-7.165 -5.628 -3.7245 -8.6705 -6.88 -4.8245 -4.611 -4.975 -8.995001 
-8.050501 -7.078001 -9.828 -11.3439 -9.7005 -6.1025 -6.7785 -11.1852 
-9.852 -13.3687 -12.5014 -14.1644 -10.9785 -8.8395 -13.3199 
-16.1427 -16.0421 -15.3219 -15.4424 -13.7155 -15.3261 
-12.16972 -5.1845 -10.5785 -5.1215 -8.571501 
-17.35422 -17.0574 -15.7 -14.7446 
-29.22712 -22.1789 -25.3231 
-34.34862 -31.802 
-43.97172 
-4.209 -2.0935 -3.3875 -3.322 -1.934 -5.1845 -3.498 -1.7565 -4.209 0 
-5.8745 -7.179 -5.579 -5.327001 -6.564 -10.6215 -4.005 -6.684501 -4.209 
-9.889501 -8.779501 -7.8665 -9.908501 -12.6132 -11.1285 -9.083501 -6.684501 
-11.687 -11.5836 -12.8346 -15.9577 -13.1202 -16.207 -9.083501 
-14.4911 -16.5517 -18.8838 -16.4647 -18.1987 -16.207 
-3.4985 -3.8255 -3.956 -6.8175 -2.7295 -3.3875 -3.322 -5.1845 
-6.406 -7.965 -11.8289 -9.393 -4.867 -5.579 -8.995001 
-10.8925 -17.0663 -14.4044 -11.7083 -7.9685 -11.8248 
-19.9938 -19.6418 -16.7197 -14.8098 -14.7699 
-22.5693 -21.9571 -19.8212 -21.6112 
