-4.759 
n/a 
n/a 
n/a 
n/a 
-4.759 
n/a 
n/a 
n/a 
n/a 
-4.759 
n/a 
n/a 
n/a 
n/a 
-4.759 
n/a 
n/a 
n/a 
n/a 
-3.508 -5.645 -4.392 -1.7695 -3.995 -3.4975 -4.3645 -6.249 -4.7345 -3.676 -4.3215 -2.3335 -2.925 -4.7035 -3.539 0 -4.9345 -3.0415 -2.3335 -3.0365 -2.186 -2.847 -3.6885 -2.0935 -3.995 
-8.512 -10.311 -6.5895 -5.497 -8.1765 -7.9125 -11.9785 -11.5253 -9.488501 -7.481 -5.1075 -4.0295 -6.729 -6.557 -3.539 -4.9345 -7.2815 -4.132 -4.2925 -3.66 -4.1045 -5.1925 -5.407001 -5.767 
-12.9219 -12.5239 -8.9335 -9.083501 -12.9485 -15.8411 -17.2548 -16.2793 -13.7569 -8.223001 -6.3015 -8.472 -8.925 -6.557 -8.909 -7.2815 -8.048 -6.121 -4.7505 -4.256001 -6.3565 -6.8475 -10.007 
-15.4774 -13.3934 -12.6978 -14.1049 -20.8771 -21.1174 -22.0088 -20.5477 -14.4989 -9.483001 -11.9776 -10.389 -8.925 -12.497 -11.364 -8.048 -9.361 -6.4385 -5.361001 -6.5815 -7.610001 -11.7127 
-16.3469 -17.2219 -17.7192 -22.0335 -26.1534 -25.8714 -26.2772 -21.2897 -15.7589 -15.2553 -13.8946 -10.389 -15.0056 -14.952 -12.1305 -9.361 -9.491 -6.9105 -7.673 -8.284 -12.6958 
-3.508 -5.645 -1.4985 -3.7345 -2.871 -5.3895 -4.281 -9.302501 -3.251 -3.1125 -4.0225 -4.33 -1.4985 -3.995 -2.3335 -2.7415 -4.9345 -2.3345 -1.4985 -3.4975 -4.5605 -3.9665 0 -3.0415 -2.3335 -2.847 -3.9515 -3.1425 -2.6165 -3.6955 -1.7695 -3.995 -2.3345 -2.4265 0 
-8.512 -6.8135 -4.9965 -6.854 -7.754001 -8.7585 -13.9001 -13.1221 -4.28 -6.426001 -7.1365 -4.900001 -4.712 -6.3975 -4.2725 -6.129 -5.816 -3.233 -4.3125 -7.5885 -8.303 -3.9665 -3.0415 -4.132 -4.8485 -6.827001 -6.8835 -4.516 -5.485001 -4.4705 -5.497 -6.273 -5.412 -2.4265 
-9.287001 -10.8575 -8.283501 -9.628 -12.023 -18.6972 -17.7197 -14.1511 -7.651 -10.068 -7.9045 -7.610001 -6.8865 -7.9645 -7.4525 -6.621 -6.4415 -5.433 -7.8225 -11.6796 -8.303 -6.994 -4.132 -6.258 -8.8485 -9.2945 -8.098001 -6.915501 -6.3155 -7.391 -7.438001 -9.7335 -5.412 
-13.9645 -14.8265 -11.2517 -13.9708 -21.9617 -22.5168 -18.7487 -17.5221 -10.6095 -10.9298 -9.5755 -9.6195 -8.495501 -9.989 -7.894001 -7.2425 -9.515 -9.1365 -12.0932 -11.6796 -11.7771 -7.756001 -6.258 -10.4845 -10.634 -11.269 -11.0157 -7.7365 -9.039001 -9.91 -10.6735 -9.7335 
-17.7701 -17.7947 -15.5945 -23.9095 -25.7813 -23.5458 -22.1197 -20.4806 -11.4713 -12.6008 -11.8896 -11.3721 -10.5638 -10.7281 -8.454 -10.1265 -13.2185 -13.5296 -12.0932 -15.1537 -12.5391 -9.846001 -10.4845 -12.27 -12.6085 -14.1867 -11.8367 -10.714 -11.7876 -13.1455 -10.6735 
-3.508 -3.1255 0 -3.676 -2.8645 -4.3215 -2.3335 -3.0365 -2.7415 -2.847 -4.853 -2.4285 -4.7905 -2.3345 -1.4985 -4.3645 -3.68 -4.7345 -4.8525 -1.4985 -3.995 0 -2.9705 -2.7415 -4.2635 -2.3345 -1.4985 -3.4975 -4.5605 0 
-5.474 -3.1255 -3.676 -5.929501 -5.389 -5.1075 -4.2925 -4.2225 -4.8165 -6.0165 -6.2135 -7.023 -6.759 -3.233 -5.8055 -8.337 -7.9685 -10.9075 -5.628 -4.712 -3.995 -2.9705 -4.512 -5.7585 -5.555 -3.233 -4.3125 -7.5885 -4.5605 
-5.474 -7.987501 -5.929501 -7.795001 -5.97 -7.287001 -5.2565 -4.944 -7.92 -8.022 -8.262 -9.2215 -8.184501 -7.5845 -10.411 -9.283501 -14.6123 -11.683 -7.758501 -4.712 -6.7085 -4.512 -7.601001 -6.9715 -7.0575 -5.433 -7.8225 -7.5885 
-10.6735 -10.513 -7.795001 -8.5695 -8.264 -8.095 -5.859 -7.954501 -9.618501 -9.6885 -10.4855 -10.3615 -12.7476 -12.39 -10.566 -16.0611 -15.3878 -13.8135 -7.758501 -7.0895 -8.066 -7.601001 -8.793 -7.942 -9.737 -9.1365 -7.8225 
-13.199 -12.3785 -8.5695 -10.9587 -10.426 -8.832001 -8.7095 -9.677501 -10.206 -12.279 -11.6255 -14.9246 -17.5531 -12.545 -17.3436 -16.8366 -17.5183 -13.8135 -10.0885 -8.465 -11.316 -8.793 -9.821501 -10.609 -13.6077 -9.1365 
-3.508 -3.1255 -2.5195 -4.5285 -1.7695 -3.995 0 -3.4975 -4.9085 -4.99 -3.68 -8.580501 -2.8645 -3.1125 -5.764 -2.3345 -3.4975 -4.5605 -4.348 0 -3.0415 -2.847 -3.6885 -2.0935 -3.995 -3.851 -1.7695 -2.3615 0 
-5.474 -6.1635 -7.8985 -6.4965 -5.497 -3.995 -3.4975 -7.6925 -10.0345 -7.5345 -12.9031 -10.564 -3.5345 -7.7235 -7.244 -5.741 -7.5885 -7.8315 -4.348 -3.0415 -5.581 -5.1925 -5.407001 -5.767 -7.8545 -4.0015 -3.736 -2.3615 
-8.255 -12.0619 -8.985001 -9.7155 -5.497 -8.1765 -7.6925 -13.4327 -12.579 -17.8192 -14.8866 -10.7675 -8.1645 -8.307 -10.4185 -9.940001 -10.7025 -7.8315 -7.242 -5.581 -7.548501 -6.8475 -10.007 -10.218 -7.88 -6.14 -3.736 
-15.0154 -13.1484 -12.807 -9.7155 -9.083501 -12.7285 -13.4327 -15.9772 -22.8637 -19.8027 -15.0901 -15.3975 -8.535501 -11.7105 -14.6175 -13.123 -10.7025 -11.1795 -9.953501 -7.548501 -8.977501 -11.7127 -14.458 -10.226 -9.748 -6.14 
-16.1019 -16.9704 -12.807 -13.3488 -13.8849 -18.4687 -15.9772 -26.2619 -24.8472 -20.0062 -19.7201 -15.7685 -12.0896 -15.9095 -17.8005 -13.123 -14.0505 -13.891 -11.9582 -8.977501 -14.0955 -16.1637 -14.466 -12.3156 -9.748 
