-4.759 
n/a 
n/a 
n/a 
n/a 
-4.759 
n/a 
n/a 
n/a 
n/a 
-4.759 
n/a 
n/a 
n/a 
n/a 
-4.759 
n/a 
n/a 
n/a 
n/a 
-1.4985 -4.5195 -4.031 -1.7565 -3.8275 -2.7415 -2.3335 -5.3285 -4.5055 -1.756 -3.091 -4.284 -3.4985 -5.128 -1.934 -1.4985 -3.6115 -2.4945 -4.2635 -4.19 -1.934 -3.506 -3.279 -5.0345 
-5.38 -8.059501 -5.571 -4.8265 -5.9615 -4.8245 -8.0865 -8.88 -6.2255 -4.2995 -4.863 -7.232501 -6.8025 -6.3865 -2.6125 -4.8215 -6.876 -6.854001 -6.248 -5.525 -4.961 -5.51 -7.6415 
-8.460001 -10.028 -8.731501 -7.311501 -7.993 -9.488001 -11.8488 -9.948501 -7.632 -5.423 -7.6385 -10.3885 -7.6815 -7.034 -5.6145 -7.559501 -10.3745 -8.421 -6.7725 -8.928 -7.954 -8.404501 
-10.159 -13.2673 -11.8065 -9.386001 -12.8473 -13.8785 -12.9173 -11.454 -8.9095 -8.665001 -10.9315 -11.2675 -8.462 -8.6125 -8.2885 -11.121 -11.9415 -9.150001 -9.75 -12.0608 -11.3317 
-13.4399 -16.3423 -13.881 -14.3421 -17.2378 -14.947 -14.4228 -12.7315 -12.2733 -11.9946 -11.8105 -12.048 -9.687 -11.4225 -11.9904 -12.688 -12.6705 -12.3453 -12.8828 -15.4385 
-1.4985 -4.5195 -4.031 -2.0935 -1.4985 -3.8275 -2.186 -2.3335 -1.4985 -4.5055 -4.7125 -1.756 -3.091 -4.284 -2.7415 -4.493 -3.4985 -2.925 -3.152 -5.128 -1.934 -1.8085 -3.6115 -2.9965 -3.279 -3.506 -5.0345 
-5.38 -8.059501 -4.8935 -2.9725 -4.726 -5.669 -3.9765 -3.3515 -5.5625 -8.633 -6.5775 -4.2995 -4.863 -6.119 -5.5985 -6.598 -5.287 -4.203 -7.1495 -6.3865 -3.2685 -4.7375 -7.471001 -7.0965 -5.916 -7.633 
-8.460001 -8.4125 -5.596 -6.304 -6.430501 -7.5735 -4.788 -7.376 -10.6735 -11.0176 -8.086 -5.423 -6.576 -8.0565 -7.354 -8.6745 -6.172 -7.703501 -7.8735 -7.3225 -5.884 -8.764 -11.9308 -10.419 -8.737 
-8.684501 -8.913501 -8.193001 -8.0695 -8.421 -8.4635 -9.0755 -12.7452 -13.0581 -12.5261 -9.104501 -7.629001 -8.369 -10.0845 -9.922501 -9.0225 -9.135 -8.242001 -8.607 -8.3765 -10.0065 -13.3136 -15.2533 -13.24 
-9.0275 -11.5823 -9.497001 -9.684501 -9.3015 -12.9322 -14.5347 -15.1298 -14.5666 -13.5446 -11.3323 -9.621 -10.2135 -12.8428 -10.0105 -12.0607 -9.778501 -9.2895 -9.587501 -12.8806 -14.5561 -16.6361 -18.0743 
-4.489 -3.59 -1.7695 -9.489 -1.756 -3.091 -4.284 -3.074 -4.101 -1.7695 -3.6115 -5.452 -1.934 -4.531 -5.0345 -3.506 -3.279 0 
-7.911 -5.3875 -12.2407 -11.3722 -4.2995 -4.863 -7.172501 -6.3535 -4.6905 -6.1625 -9.8265 -6.384 -6.848 -9.946001 -8.210501 -5.51 -3.279 
-10.5241 -16.6937 -14.1239 -13.9157 -5.423 -7.628 -9.515001 -6.857501 -9.171 -12.9373 -10.8753 -10.2645 -13.069 -13.2654 -9.6545 -5.51 
-21.8303 -18.5769 -16.6674 -15.0392 -8.0185 -9.889501 -9.875001 -11.3676 -16.1026 -13.9861 -14.7558 -16.6927 -16.3884 -14.7094 -9.6545 
-23.7135 -21.1204 -17.7909 -17.6347 -10.0855 -10.1935 -14.4537 -18.2992 -17.1514 -17.8666 -21.184 -20.0121 -17.8324 -14.7094 
-1.4985 -4.432 -4.031 -2.0935 -1.4985 -4.129 -1.7565 -3.8275 -2.186 -5.5755 -1.7565 -5.3285 -4.5055 -1.756 -3.091 -4.284 -3.034 -2.925 -3.152 -5.128 -1.934 -1.4985 -3.6115 -1.934 -5.0345 -3.506 -3.279 
-5.268001 -7.466001 -4.8935 -2.9725 -5.424 -6.9015 -4.8265 -5.669 -8.9265 -6.1155 -6.794001 -8.88 -6.2255 -4.2995 -4.863 -6.969001 -4.4 -4.203 -7.1495 -6.3865 -2.6125 -4.8215 -5.5975 -6.337 -8.210501 -5.51 
-7.680501 -7.7965 -5.596 -7.035501 -7.337501 -10.586 -6.7795 -13.0857 -9.9615 -9.439001 -10.6215 -9.948501 -7.632 -5.423 -7.410501 -8.2735 -5.573 -7.703501 -7.8735 -7.034 -5.6145 -6.443 -9.8785 -10.6735 -9.6545 
-8.009501 -8.4455 -10.3475 -8.665001 -10.6875 -12.539 -14.3362 -14.1207 -13.3832 -14.1651 -11.69 -11.454 -8.9095 -8.3955 -8.553 -8.9665 -9.185 -8.242001 -8.6975 -8.6125 -7.3945 -11.3242 -14.215 -12.1175 
-8.645 -13.293 -11.977 -12.0554 -12.6405 -20.0957 -15.3712 -17.5424 -18.1093 -15.2336 -13.1955 -12.7315 -12.0038 -9.036501 -9.139 -12.7885 -9.970501 -9.570001 -9.927501 -10.758 -12.6991 -15.6607 -15.659 
