-4.759 
n/a 
n/a 
n/a 
n/a 
-4.759 
n/a 
n/a 
n/a 
n/a 
-4.759 
n/a 
n/a 
n/a 
n/a 
-4.759 
n/a 
n/a 
n/a 
n/a 
-2.264 -4.751 -3.524 -5.011 0 -5.2545 -2.7415 -5.198 -2.3345 -4.9695 -4.563 -5.3205 -1.756 -4.8695 -1.934 -1.4985 -4.04 -1.756 -2.9805 -2.7415 -5.011 -4.4305 -3.091 -4.0965 -4.7945 0 
-6.6505 -6.9265 -7.356 -5.011 -5.2545 -6.742001 -6.292 -5.898001 -7.403501 -10.7497 -7.632501 -6.338 -6.6225 -5.622 -2.6125 -4.975 -5.44 -4.3555 -4.004 -6.823 -8.0455 -6.7625 -7.3905 -8.501 -4.7945 
-7.942501 -9.989 -7.356 -9.4235 -6.742001 -10.9005 -6.675 -9.703001 -13.5125 -13.8192 -8.7115 -11.9189 -8.2535 -7.1715 -5.7275 -6.144001 -7.757 -5.4385 -8.096001 -10.4803 -10.6345 -11.7194 -12.0856 -8.501 
-10.434 -9.989 -10.4675 -10.072 -10.9005 -11.2835 -10.7822 -16.3202 -16.582 -14.8982 -14.4518 -13.5499 -8.786501 -8.501 -6.799001 -8.052501 -8.5495 -9.499001 -12.0855 -13.0693 -15.5914 -16.4145 -12.0856 
-10.434 -13.1005 -10.5275 -14.3811 -11.2835 -15.3907 -17.3994 -19.3897 -17.661 -20.6385 -16.0828 -14.0829 -10.2035 -9.662001 -8.551001 -8.819 -12.718 -13.6065 -14.6745 -18.0262 -20.2865 -16.4145 
-2.264 -2.998 -3.524 -5.011 0 -5.2545 -3.966 -3.091 -4.156 -4.7945 -5.011 -3.851 -1.7695 -5.802 -4.889 -4.299 -1.756 -2.7415 -5.669 
-5.5655 -5.8315 -7.356 -5.011 -5.2545 -8.709001 -5.7645 -6.1625 -7.1365 -9.613501 -8.053 -4.0015 -8.042001 -10.6605 -6.702001 -5.769 -4.4655 -6.641 
-7.0535 -9.2675 -7.356 -9.4235 -8.709001 -9.7995 -8.3325 -8.506001 -12.3355 -12.7189 -8.0585 -9.095 -13.2289 -12.4735 -8.573001 -7.8395 -7.6165 
-9.863001 -9.2675 -10.4675 -13.004 -9.7995 -12.4177 -9.377 -13.9722 -15.4409 -12.7244 -13.3444 -14.6431 -15.0419 -14.3445 -10.494 -9.379001 
-9.863001 -10.7185 -14.8254 -14.0945 -12.4177 -13.4622 -15.0826 -17.0776 -15.4464 -18.0103 -18.8925 -16.4561 -16.9129 -16.2655 -12.0335 
-1.934 -4.751 -3.524 -5.011 -5.2545 -2.8645 -3.1125 -4.8695 -1.934 -4.04 -2.0935 -3.091 -4.4895 -3.931 -1.7565 -6.1045 -3.851 -1.7695 -4.299 -1.7565 -4.895 -3.599 -1.7565 -1.4985 -5.072 0 
-7.2725 -6.9265 -7.356 -9.4235 -7.918 -3.5345 -6.461 -5.622 -5.7425 -5.702 -4.5345 -7.4295 -7.263 -4.616 -7.533501 -8.679501 -4.0015 -5.4975 -5.794001 -6.0365 -6.865001 -5.968 -2.4195 -6.012 -5.072 
-9.642 -9.989 -10.4675 -12.213 -8.767501 -7.042 -7.7355 -8.821501 -7.184501 -8.177 -8.8015 -9.874001 -7.3155 -7.798 -10.0445 -8.683001 -8.765 -8.3055 -10.543 -7.7305 -9.828501 -6.9445 -7.163001 -6.012 
-13.1793 -13.1005 -14.0344 -13.0625 -12.4208 -8.3135 -10.034 -9.726001 -9.5165 -12.7034 -10.622 -9.939 -10.347 -10.2225 -10.05 -13.7705 -9.617001 -13.1657 -12.237 -11.2008 -10.664 -12.0514 -7.163001 
-16.2908 -16.6674 -14.8839 -16.7158 -13.6923 -10.6465 -10.9385 -12.0618 -14.3437 -14.5239 -10.681 -12.9705 -12.7715 -10.2305 -15.1375 -14.6225 -14.126 -14.8597 -15.7073 -12.0363 -15.7709 -12.0514 
-4.889 -4.299 -1.756 -3.966 -3.091 -3.716 -4.202 
-6.702001 -5.769 -5.662 -5.7645 -6.9495 -7.7095 
-8.573001 -9.219 -7.303 -10.181 -9.986 
-12.2522 -10.2705 -11.8369 -13.3633 
-13.3037 -14.8044 -15.0192 
