-4.759 
n/a 
n/a 
n/a 
n/a 
-4.759 
n/a 
n/a 
n/a 
n/a 
-4.759 
n/a 
n/a 
n/a 
n/a 
-4.759 
n/a 
n/a 
n/a 
n/a 
-3.299 -3.7455 -4.161 -1.756 -4.474 -2.4945 -4.287 -1.4985 -3.5035 0 
-7.697501 -9.057501 -5.212 -6.4695 -7.2545 -5.878 -5.0195 -4.4895 -3.5035 
-13.3211 -10.0715 -10.389 -8.349501 -11.0302 -6.4885 -7.4435 -4.4895 
-14.3351 -15.3457 -12.559 -12.299 -11.6407 -9.555 -7.4435 
-19.6093 -17.5157 -16.5085 -12.9095 -14.7072 -9.555 
-1.934 -3.93 -3.498 -3.682 -4.161 0 -1.4985 -3.4985 -3.86 -2.882 -3.4625 -1.4985 -3.333 -1.7565 -4.617 -1.7695 -4.052 -1.4985 -4.2685 0 
-5.4605 -6.337 -7.186 -8.345501 -4.161 -1.4985 -4.798 -5.719501 -6.5195 -5.455 -4.474 -4.6905 -4.76 -6.195001 -5.877 -4.393 -4.752 -5.9195 -4.2685 
-7.922501 -8.217501 -12.2599 -8.345501 -6.127501 -4.798 -6.508 -8.0625 -9.06 -6.383501 -6.612 -5.216 -8.470501 -7.325001 -9.101001 -4.9985 -6.457 -5.9195 
-10.08 -13.6556 -12.2599 -10.2285 -9.407001 -6.508 -8.5035 -10.298 -9.813001 -8.433001 -6.863 -8.839001 -10.3095 -10.513 -9.570001 -6.474 -6.457 
-15.5181 -13.6556 -14.1429 -13.508 -10.083 -8.5035 -10.532 -10.444 -11.8625 -8.612 -10.1545 -10.688 -13.4975 -10.982 -11.2647 -6.474 
-3.299 -3.498 -4.161 -3.4985 -4.042 -3.86 -2.742 -4.556 -1.4985 -4.0585 -1.7695 -7.884 -1.4985 -4.5945 -3.6615 
-5.217 -7.556 -7.9995 -7.273 -5.938001 -6.106 -6.360001 -5.7145 -4.9635 -5.414001 -8.1735 -8.604 -5.4045 -7.7165 
-7.777501 -11.9169 -12.344 -8.509001 -8.8865 -9.22 -7.099 -9.132501 -6.3815 -12.8598 -8.8385 -12.8296 -8.64 
-12.2808 -16.2614 -13.58 -11.6335 -12.0635 -10.1235 -10.5425 -9.807 -14.2609 -13.5248 -13.1735 -16.0651 
-16.6253 -17.4974 -16.7045 -14.8105 -12.967 -13.567 -10.7665 -18.1748 -14.9259 -17.8598 -16.409 
-1.934 -3.684 -3.5965 0 -2.7295 -2.674 -1.7695 -3.4625 -1.4985 -3.4985 -3.86 -2.0935 -4.052 -1.4985 -3.585 
-5.3795 -6.5955 -3.5965 -2.7295 -3.8 -3.787 -4.3 -4.474 -4.798 -5.719501 -5.6065 -7.442501 -4.752 -4.369 
-8.254001 -6.5955 -6.666 -3.8 -4.963 -5.9155 -4.9495 -7.8965 -6.508 -7.014501 -11.4847 -8.823001 -7.1375 
-8.254001 -10.6605 -7.812 -4.963 -7.068 -6.568 -8.337501 -9.945001 -8.245001 -13.4545 -12.8652 -11.2769 
-12.782 -11.8065 -9.142 -7.068 -7.5645 -10.114 -10.4675 -11.682 -14.9196 -14.835 -15.3191 
