-4.759 
n/a 
n/a 
n/a 
n/a 
-4.759 
n/a 
n/a 
n/a 
n/a 
-4.759 
n/a 
n/a 
n/a 
n/a 
-4.759 
n/a 
n/a 
n/a 
n/a 
-3.535 -3.319 -1.7565 -4.442 0 -5.6395 0 
-7.0475 -4.165 -5.6725 -4.442 -5.6395 -5.6395 
-7.321 -8.303 -5.6725 -10.1635 -5.6395 
-11.903 -8.303 -11.8392 -10.1635 
-11.903 -14.7143 -11.8392 
-3.699 -3.9755 -1.7565 -4.442 
-7.5055 -4.312 -5.6725 
-7.567 -7.557 
-11.0242 
n/a 
-5.6395 -2.186 -5.6925 -4.0455 0 
-8.092501 -8.409 -10.9172 -4.0455 
-14.5391 -14.0045 -10.9172 
-20.1346 -14.0045 
-20.1346 
-3.699 -3.9755 -1.7565 -6.365 0 -5.6395 0 
-7.5055 -4.312 -8.486 -6.365 -5.6395 -5.6395 
-7.567 -9.967 -8.486 -12.8895 -5.6395 
-13.4342 -9.967 -15.3021 -12.8895 
-13.4342 -17.2295 -15.3021 
