-4.759 
n/a 
n/a 
n/a 
n/a 
-4.759 
n/a 
n/a 
n/a 
n/a 
-4.759 
n/a 
n/a 
n/a 
n/a 
-4.759 
n/a 
n/a 
n/a 
n/a 
-2.264 -3.524 -4.845 -3.8735 -7.762001 -1.4985 -9.313001 -4.3645 -1.7695 -4.4515 0 
-4.855 -6.29 -9.951 -11.1415 -8.986001 -8.482 -11.8375 -6.62 -7.121 -4.4515 
-7.1715 -12.2266 -17.4256 -12.3655 -16.098 -10.936 -12.161 -10.5865 -7.121 
-13.4939 -19.7012 -18.6496 -19.4775 -17.931 -12.914 -16.3301 -10.5865 
-20.9685 -20.9252 -25.7616 -21.3105 -20.5355 -16.8811 -16.3301 
-3.524 -3.143 0 -4.1865 -3.7345 -3.326 -3.9235 -4.541 -4.622 -1.8085 -6.4855 -4.3645 -1.7695 -4.4515 0 
-5.45 -3.143 -4.1865 -7.348001 -6.4715 -6.261001 -8.324 -6.857 -5.476 -8.002001 -11.1745 -6.62 -7.121 -4.4515 
-5.45 -7.8265 -7.348001 -7.499 -7.825 -10.66 -10.476 -7.951001 -11.407 -13.9166 -14.8326 -10.5865 -7.121 
-10.4265 -11.3554 -7.499 -7.9275 -12.7816 -12.812 -11.57 -14.2946 -19.2365 -17.7557 -18.7991 -10.5865 
-13.9554 -11.5064 -7.9275 -13.0819 -14.9336 -13.906 -17.9136 -21.8533 -21.907 -21.7222 -18.7991 
-3.524 -7.3295 -3.7345 -3.326 -4.5675 -4.622 -4.541 -2.985 -3.0835 -5.3895 -3.4945 -3.6385 
-10.1335 -10.988 -6.4715 -6.6245 -8.601 -7.6595 -8.370001 -5.1065 -7.628 -8.861 -7.8655 
-13.9554 -11.5064 -7.704 -10.1345 -12.1053 -12.2565 -10.264 -10.494 -12.0783 -13.3876 
-14.1064 -11.7574 -10.3815 -13.8024 -16.7023 -14.1505 -15.8155 -14.9443 -16.6049 
-14.3574 -14.3954 -14.2376 -18.3994 -18.5963 -19.702 -20.2658 -19.4709 
-3.524 -3.143 0 -3.0835 -4.467 -1.7695 -1.4985 -3.563 -7.400001 -3.7345 -4.335 -1.7695 -4.4515 0 -10.515 -3.7345 -4.335 -2.7415 -4.541 -4.622 -2.3345 -1.4985 -4.1865 -3.7345 -3.326 -3.307 0 
-5.45 -3.143 -3.0835 -6.0175 -4.6455 -2.7955 -5.837 -11.8735 -10.724 -6.686 -5.5565 -7.121 -4.4515 -9.2115 -13.4565 -6.686 -6.343 -6.1245 -6.857 -5.9555 -3.233 -5.177 -7.348001 -6.4715 -5.021501 -3.307 
-5.45 -6.7935 -6.0175 -6.645 -7.7725 -7.513 -15.6087 -15.9297 -14.8335 -8.3785 -11.7608 -7.121 -10.7695 -13.5747 -16.3597 -9.073501 -9.294001 -7.606501 -8.640501 -6.425 -6.7165 -7.7545 -7.499 -8.476001 -5.021501 
-9.452001 -10.3545 -6.645 -9.324 -12.8608 -17.4639 -18.9097 -19.6832 -16.526 -15.027 -11.7608 -11.115 -15.1327 -16.3597 -19.0556 -12.0807 -11.304 -8.953501 -9.349501 -9.1005 -8.747001 -7.848001 -10.673 -8.476001 
-13.1798 -11.0576 -9.324 -14.5307 -22.8117 -20.7649 -22.6632 -21.3757 -23.1745 -15.027 -15.7548 -15.4782 -17.9177 -19.0556 -22.0628 -14.0907 -12.651 -9.661 -10.7585 -9.641001 -8.7875 -11.513 -10.673 
