-4.759 
n/a 
n/a 
n/a 
n/a 
-4.759 
n/a 
n/a 
n/a 
n/a 
-4.759 
n/a 
n/a 
n/a 
n/a 
-4.759 
n/a 
n/a 
n/a 
n/a 
-1.4985 -4.445 -1.756 -1.4985 -4.328 -4.445 -2.4945 -4.645 -2.3345 -1.8085 -3.926 -4.037 -2.5195 -1.4985 -3.1385 -2.5045 -1.8085 -4.2585 0 -3.0415 -1.4985 -4.445 -2.186 -4.107 -1.7695 -1.4985 -5.0075 -4.3955 -1.4985 -4.445 -3.251 -1.8085 -3.788 -1.7565 -3.8445 -3.277 -1.7695 -3.213 -1.934 -3.4425 -1.756 -2.7765 -2.489 -7.755001 -2.0935 -3.571 -3.7285 -3.8405 -1.934 -3.493 -1.7565 -3.956 0 -4.5025 0 -2.4285 -5.4735 0 -1.8085 -3.5435 -3.915 -3.9205 -2.5045 -4.328 -4.445 -3.1425 -4.2215 -1.934 -2.5045 -4.445 -2.4285 -4.609 -4.445 0 
-5.0495 -5.899 -3.0405 -5.4585 -7.342 -7.218 -6.212501 -5.881001 -3.8605 -5.061 -7.5985 -6.7295 -3.1695 -4.2575 -5.524 -3.3625 -4.474 -4.2585 -3.0415 -4.5735 -5.0495 -6.545 -4.93 -5.939001 -2.7955 -5.724501 -8.844501 -6.1495 -5.0495 -7.22 -4.1695 -5.344 -5.1695 -5.1395 -4.7735 -4.9945 -4.1345 -4.4465 -5.4615 -5.048 -4.53 -3.495 -8.48 -7.8595 -5.032001 -7.1575 -7.2075 -5.3015 -4.6845 -4.416 -4.994 -3.956 -4.5025 -4.5025 -2.4285 -7.2355 -5.4735 -1.8085 -5.2635 -6.313 -8.334001 -4.449 -5.8575 -7.342 -7.275001 -6.4345 -5.563001 -5.037 -6.2825 -6.6445 -6.638 -7.337501 -4.445 
-6.172 -6.582 -6.772 -8.085501 -10.1725 -9.079 -6.748 -7.081501 -6.998 -8.035 -9.7725 -7.411 -5.958 -6.721 -6.527501 -6.4795 -4.474 -7.488501 -4.5735 -8.1055 -6.8005 -8.537001 -6.573 -6.604001 -6.8805 -10.2975 -10.115 -9.1405 -7.376 -8.524 -8.2255 -6.02 -7.186501 -6.168 -6.3725 -7.462 -5.2645 -8.021 -6.7405 -7.664001 -5.008 -7.922501 -8.4075 -9.35 -8.677501 -10.9631 -8.7675 -7.884 -5.14 -7.1775 -4.994 -7.1095 -4.5025 -6.034 -7.2355 -7.2355 -7.6165 -5.2635 -6.8905 -9.861 -8.8195 -9.2235 -9.0305 -10.4765 -10.298 -7.5005 -7.958001 -8.158 -8.4925 -9.186001 -9.219501 -7.337501 
-6.652 -9.525001 -9.35 -11.3404 -10.7675 -10.2235 -8.077001 -9.265501 -8.9055 -9.986 -10.007 -9.23 -8.546 -7.465 -9.663001 -6.4795 -7.8615 -9.116501 -8.1055 -9.429501 -8.688001 -10.0705 -7.239 -9.496501 -11.5853 -11.568 -13.106 -11.6752 -8.757 -12.6858 -8.646001 -7.4485 -7.281001 -7.884501 -8.940001 -8.696501 -8.941 -8.707 -9.454 -7.9855 -9.387 -9.320001 -9.078 -13.3057 -12.5927 -12.5231 -11.588 -8.1265 -7.449 -7.1775 -7.887001 -7.1095 -6.034 -8.866 -7.2355 -9.239 -10.543 -6.8905 -10.354 -10.1545 -10.688 -10.661 -10.688 -13.4995 -10.743 -9.838 -11.4 -10.7595 -10.19 -9.2665 -9.219501 
-9.719001 -9.939 -12.6893 -11.9354 -11.912 -11.9607 -10.4765 -9.523001 -10.575 -10.218 -10.324 -12.0008 -9.426001 -10.9201 -9.663001 -8.684 -9.689501 -12.7255 -9.429501 -11.3342 -10.1675 -10.6655 -10.2225 -14.3425 -12.8558 -14.559 -15.6407 -13.0562 -12.9582 -13.1063 -9.903501 -7.5265 -9.0725 -10.6875 -9.983001 -12.435 -10.1145 -12.1157 -10.397 -11.43 -9.4985 -9.907001 -14.1211 -17.4743 -14.1527 -15.3436 -11.8305 -10.4595 -7.449 -8.933001 -7.887001 -7.4975 -8.866 -8.866 -9.239 -12.2915 -12.17 -10.354 -10.3785 -10.6985 -10.712 -10.7115 -13.711 -13.9445 -13.0805 -13.192 -14.0015 -12.457 -10.207 -9.2665 
-8.381001 -3.0365 -2.4945 -4.922 -3.499 -1.934 -1.4985 -3.641 -4.634 -1.7565 -1.4985 -3.4975 -4.518 -3.7455 -2.925 -3.7875 -1.4985 -4.061 -1.7565 -1.4985 -4.698 -2.0935 -3.2495 -3.277 -1.4985 -3.264 -1.7565 -4.061 -1.7565 -1.4985 -4.7485 -2.742 -2.489 -4.386 -1.7695 -1.4985 -3.468 -3.9345 -1.7695 -1.4985 -4.02 -1.934 -3.6055 -4.6915 -3.9345 -1.7695 -1.4985 -4.46 -1.7565 -3.533 0 -4.2405 -3.468 -3.7875 -4.144 -2.871 -3.345 -3.499 -1.756 -3.786 -3.499 -1.7565 -1.4985 -4.3125 -5.473 -3.7765 0 
-10.331 -3.688 -8.4055 -7.886001 -5.299 -2.6125 -4.644 -7.0465 -6.2255 -2.4195 -4.3125 -7.907001 -4.659 -6.816 -7.416501 -5.007 -5.496 -5.6315 -2.4195 -5.740001 -6.378 -4.798 -4.6515 -4.839 -4.0935 -3.6125 -5.5825 -5.6315 -2.4195 -5.63 -7.255501 -3.301 -5.5345 -5.58 -2.7955 -5.0815 -6.6845 -3.94 -2.7955 -4.914001 -5.502 -4.8595 -7.161 -7.3505 -3.94 -2.7955 -5.446 -5.8675 -5.6325 -3.533 -4.2405 -6.7385 -7.013 -7.954 -6.844 -6.2745 -7.7295 -4.9 -6.4475 -7.539001 -4.306 -2.4195 -5.5105 -10.214 -9.443501 -3.7765 
-11.5525 -8.552501 -9.208501 -9.252001 -5.8885 -5.3205 -7.6495 -8.239 -6.638 -4.9065 -8.438001 -8.014501 -7.876 -10.718 -8.855 -9.299001 -6.257 -5.956501 -6.387001 -7.686001 -8.941001 -5.685 -6.085 -6.7815 -4.178 -8.0835 -7.079 -5.956501 -6.403501 -7.837 -7.946001 -6.1165 -6.167 -6.2385 -6.013 -8.108001 -6.688 -4.4455 -6.4535 -6.263 -8.517 -8.120001 -10.004 -7.3545 -4.4455 -6.8725 -6.6055 -7.882 -5.6325 -8.033501 -6.7385 -9.525001 -9.816 -10.1995 -9.998 -11.1318 -9.521 -8.999001 -9.2425 -8.607 -4.5175 -6.500501 -11.56 -14.1845 -9.443501 
-16.7284 -9.21 -9.9495 -9.425501 -8.6185 -9.429001 -8.375 -8.724001 -9.443001 -9.445001 -8.454 -11.7093 -11.8952 -12.1565 -13.3758 -10.5235 -6.497 -8.995001 -8.475 -10.054 -9.625001 -7.094501 -8.022 -6.8125 -8.590501 -10.2645 -7.3995 -9.215501 -8.717501 -8.502001 -10.9743 -6.645 -6.764 -8.322001 -8.871 -8.1105 -7.0945 -7.997 -7.7685 -9.017501 -10.4505 -11.4056 -10.009 -7.851501 -7.287 -7.910501 -8.143001 -7.882 -9.524501 -10.089 -9.525001 -12.6776 -12.8135 -13.5963 -14.9319 -12.9233 -13.8876 -12.3278 -10.131 -8.7945 -9.434 -12.6444 -15.5305 -14.1845 
-17.3859 -9.948501 -9.9975 -12.9643 -13.0826 -10.323 -8.779 -11.767 -14.7657 -9.470501 -12.3444 -15.7285 -13.3337 -16.6773 -14.6003 -10.7635 -9.740001 -11.1694 -10.634 -10.708 -11.0641 -9.7075 -8.052 -11.5436 -10.621 -10.607 -10.9723 -11.6685 -9.181001 -11.5407 -11.5028 -7.2565 -8.853001 -9.9945 -8.873 -8.6625 -10.115 -9.8255 -10.564 -11.0672 -13.9443 -11.4106 -10.345 -10.0155 -8.074 -9.508 -8.143001 -12.4546 -11.7194 -12.8755 -12.6776 -15.6751 -16.2103 -18.5302 -16.7234 -17.2899 -17.2164 -13.2163 -10.382 -13.8584 -15.6337 -16.6149 -15.5305 
-3.676 -4.518 -3.7455 -3.729 -3.641 -4.8135 -3.7555 -4.922 -3.499 0 -3.345 -4.698 -4.7315 -3.7555 -3.2495 -3.277 -4.5585 -3.6055 -4.191 -3.277 -4.5585 -2.742 -2.489 -6.1195 -3.9345 -1.7695 -4.02 -3.9345 -1.7695 -3.533 -4.46 -2.743 -3.468 -3.7555 -5.084 -4.5585 0 -3.17 -6.0855 -3.1715 -3.7765 -3.7555 -3.786 -4.996 
-8.0985 -4.659 -6.9155 -7.3325 -7.1785 -9.351501 -9.2915 -7.886001 -3.499 -3.345 -8.307501 -10.0545 -8.938 -6.2455 -4.6515 -9.047501 -8.523001 -6.4905 -5.1085 -9.047501 -7.3195 -3.301 -7.3715 -8.76 -3.94 -6.444 -7.039 -3.94 -5.7455 -5.927 -7.493 -7.1105 -7.668 -9.245501 -9.504 -4.5585 -3.17 -6.2675 -7.39 -6.396501 -8.0385 -8.437 -9.998001 
-8.401501 -7.397 -10.598 -9.339001 -12.1111 -14.9367 -12.7541 -7.886001 -6.594501 -8.307501 -14.0442 -14.405 -11.4798 -8.1895 -10.2435 -13.1754 -11.549 -7.080501 -11.28 -11.9719 -7.721001 -8.153 -9.4075 -8.7625 -7.757 -9.9805 -7.0425 -8.085501 -8.1175 -8.984 -12.4703 -11.8131 -13.4566 -13.7555 -9.504 -8.3135 -6.2675 -7.456 -9.212001 -11.4317 -12.9198 -14.965 
-11.7451 -11.3929 -12.6045 -14.4066 -17.6963 -18.3993 -12.7541 -9.9615 -12.1164 -14.0442 -18.3947 -16.9468 -13.4238 -14.2731 -14.3714 -16.2014 -12.139 -13.682 -14.2044 -12.3734 -12.8558 -10.4505 -9.4115 -12.8271 -11.6473 -9.985001 -9.4135 -8.333 -11.7075 -14.0631 -17.1729 -17.6017 -17.9666 -13.7555 -13.4696 -11.5582 -7.456 -9.223001 -14.4816 -16.313 -19.4478 
-15.741 -13.3994 -17.6721 -19.9918 -21.1589 -18.3993 -14.8296 -16.1712 -17.8531 -18.3947 -20.9365 -18.8908 -19.5074 -18.401 -17.3974 -16.7914 -18.7405 -16.6064 -14.6059 -17.5082 -15.1533 -10.4645 -13.6591 -16.7174 -11.6518 -12.3622 -9.5445 -12.279 -16.7866 -18.7657 -22.9615 -22.1117 -17.9666 -17.7211 -16.7143 -12.7467 -9.223001 -14.5006 -19.3629 -22.841 
-3.676 -4.518 -3.7455 -3.729 -3.641 -4.315 -1.7565 -4.922 -3.499 0 -1.756 -7.2955 -1.7565 -3.8145 -2.341 -3.277 -4.174 -1.756 -4.02 -1.7565 -4.7715 -3.1715 -1.7565 -4.2265 -1.934 -3.533 -3.158 -4.85 -4.2405 -3.8145 -4.02 -1.7565 -10.24 0 
-8.0985 -4.659 -6.9155 -7.3325 -7.022 -5.0275 -7.259 -7.886001 -3.499 -1.756 -9.133 -9 -5.976501 -5.943 -4.464 -7.9445 -5.960001 -5.717 -5.1665 -7.3925 -8.476 -4.207 -5.32 -5.569 -5.0615 -6.5725 -8.245001 -9.4445 -8.0835 -7.461 -5.1665 -12.9457 -10.24 
-8.401501 -7.397 -10.598 -11.3659 -7.190001 -11.5282 -8.8755 -7.886001 -4.9 -9.133 -10.9061 -13.4956 -8.13 -9.1225 -9.724501 -10.071 -9.6885 -7.528 -10.688 -11.272 -10.1115 -9.820001 -6.49 -8.526501 -8.6815 -12.2949 -13.2385 -13.7333 -12.1736 -8.9655 -16.9691 -12.9457 
-11.7451 -11.3929 -14.6314 -11.5339 -13.7695 -13.1447 -8.8755 -9.512501 -13.276 -10.9061 -15.4017 -15.6491 -11.5707 -14.3854 -11.955 -13.9127 -11.5563 -13.2901 -14.5675 -12.9075 -16.1711 -10.1975 -9.793501 -12.3585 -14.3999 -17.2884 -17.5273 -17.8234 -13.6781 -20.8237 -16.9691 
-15.741 -15.4263 -14.7994 -18.1134 -15.386 -13.1447 -10.443 -18.0005 -15.0491 -15.4017 -17.5552 -19.0898 -16.8336 -16.6159 -15.7967 -15.7805 -17.3184 -17.1696 -16.203 -18.9671 -16.5486 -13.6358 -13.8863 -18.0769 -19.3934 -21.5772 -21.6174 -19.3279 -25.5363 -20.8237 
