-4.759 
n/a 
n/a 
n/a 
n/a 
-4.759 
n/a 
n/a 
n/a 
n/a 
-4.759 
n/a 
n/a 
n/a 
n/a 
-4.759 
n/a 
n/a 
n/a 
n/a 
-5.525 -5.359 0 -5.525 0 -6.4905 -3.152 -3.7405 
-9.304001 -5.359 -5.525 -5.525 -6.4905 -9.013 -7.4095 
-9.304001 -9.741001 -5.525 -9.853001 -9.013 -13.4461 
-13.8632 -9.741001 -9.853001 -12.5499 -13.4461 
-13.8632 -14.1336 -12.5499 -16.983 
-3.5005 -7.3755 0 -8.2865 
-10.9075 -7.3755 -8.2865 
-10.9075 -16.3558 
-19.8878 
n/a 
-1.934 -3.994 -1.7695 -2.3335 0 -5.525 -1.756 -5.475 -3.074 -3.7965 0 
-4.095 -4.3645 -4.46 -2.3335 -5.525 -6.478 -6.55 -8.4025 -5.1585 -3.7965 
-4.418 -6.4695 -4.46 -8.722501 -6.478 -7.0965 -8.957001 -10.8314 -5.1585 
-6.4855 -6.4695 -11.4324 -9.734501 -7.0965 -9.118 -11.6663 -10.8314 
-6.4855 -13.7883 -12.4444 -10.301 -9.118 -12.1793 -11.6663 
-3.074 -5.525 -5.359 0 -5.525 0 -5.475 -3.074 -2.7765 -3.613 0 
-8.8885 -9.304001 -5.359 -5.525 -5.525 -5.475 -8.4025 -5.628 -5.235001 -3.613 
-12.9229 -9.304001 -9.741001 -5.525 -6.894 -8.4025 -9.100501 -8.742001 -5.235001 
-12.9229 -13.8632 -9.741001 -6.894 -10.5215 -9.100501 -13.4647 -8.742001 
-17.4821 -13.8632 -10.4975 -10.5215 -11.2195 -13.4647 -13.4647 
