-4.759 
n/a 
n/a 
n/a 
n/a 
-4.759 
n/a 
n/a 
n/a 
n/a 
-4.759 
n/a 
n/a 
n/a 
n/a 
-4.759 
n/a 
n/a 
n/a 
n/a 
-3.0835 -4.584 0 -5.1845 -3.97 
-7.693501 -4.584 -5.1845 -8.8585 
-7.693501 -10.8625 -8.8585 
-14.3356 -14.5365 
-18.0096 
-3.0835 -4.584 0 -5.1845 -3.9655 
-7.693501 -4.584 -5.1845 -8.2305 
-7.693501 -10.8625 -8.2305 
-14.3356 -13.9085 
-17.3816 
-4.0105 -3.522 0 -8.1485 -3.97 
-8.1415 -3.522 -8.1485 -12.4791 
-8.1415 -12.4339 -12.4791 
-17.447 -16.7645 
-21.7776 
-3.535 -3.522 0 -8.1485 -3.97 
-5.913 -3.522 -8.1485 -12.4791 
-5.913 -12.4339 -12.4791 
-15.0165 -16.7645 
-19.3471 
