-4.759 
n/a 
n/a 
n/a 
n/a 
-4.759 
n/a 
n/a 
n/a 
n/a 
-4.759 
n/a 
n/a 
n/a 
n/a 
-4.759 
n/a 
n/a 
n/a 
n/a 
-9.703501 -3.7805 -4.4895 
-11.366 -9.450001 
-17.9935 
n/a 
n/a 
-4.539 0 -4.905 -5.1645 -4.3225 
-4.539 -4.905 -10.335 -7.378 
-9.497 -10.335 -12.5485 
-15.1478 -12.5485 
-17.3613 
-4.539 0 -5.1645 -7.1505 -4.4895 
-4.539 -5.1645 -10.147 -12.4618 
-9.654 -10.147 -15.5779 
-14.9609 -15.5779 
-20.3918 
-4.539 0 -5.896 -1.934 -5.1645 -4.3225 
-4.539 -5.896 -7.571001 -6.5525 -7.378 
-10.8236 -7.571001 -12.5315 -8.372001 
-12.4986 -12.5315 -14.351 
-17.4591 -14.351 
