-4.759 
n/a 
n/a 
n/a 
n/a 
-4.759 
n/a 
n/a 
n/a 
n/a 
-4.759 
n/a 
n/a 
n/a 
n/a 
-4.759 
n/a 
n/a 
n/a 
n/a 
-2.4265 -2.7415 -4.4895 -2.3345 -3.647 -2.9705 -2.7415 -3.6975 -3.3255 -2.911 -3.974 0 
-3.681 -5.4595 -5.5805 -4.874001 -7.0205 -4.512 -6.6145 -7.920001 -6.695001 -4.4735 -3.974 
-6.723 -6.502 -8.686001 -8.118501 -8.677 -7.974501 -9.521 -11.6241 -6.929 -4.4735 
-7.7945 -9.502501 -10.5865 -9.935 -12.3395 -10.7025 -13.4309 -11.8581 -6.929 
-10.597 -11.4994 -12.403 -13.5975 -15.0675 -14.6124 -13.6649 -11.8581 
-2.4265 -2.7415 -4.4895 -2.3345 -3.647 0 -2.9705 -2.186 -4.4695 -2.0935 -2.911 -3.974 0 
-3.681 -5.4595 -5.5805 -4.874001 -3.647 -2.9705 -3.89 -6.053 -5.6265 -5.12 -4.4735 -3.974 
-6.723 -6.502 -8.686001 -4.874001 -7.0205 -3.89 -7.449501 -6.184 -9.913 -6.55 -4.4735 
-7.7945 -9.502501 -8.686001 -8.118501 -7.816 -7.449501 -7.5505 -10.5325 -11.5358 -6.55 
-10.597 -9.502501 -10.5865 -8.9895 -11.7157 -7.5505 -12.205 -12.1553 -11.5358 
-2.4265 -2.7415 -4.4895 -2.3345 -2.911 -3.974 -4.0285 -3.647 0 
-3.681 -5.4595 -5.5805 -5.928 -4.4735 -8.9125 -7.867001 -3.647 
-6.723 -6.502 -10.0575 -6.6665 -9.088501 -13.0356 -7.867001 
-7.7945 -10.7175 -10.9828 -10.034 -13.2942 -13.0356 
-12.1072 -12.2078 -14.3503 -14.5243 -13.2942 
-4.5045 -1.8085 -4.4695 -2.911 -3.974 -3.647 -4.752 -2.3615 0 
-5.0395 -5.8105 -8.2045 -4.4735 -6.626 -8.253 -6.84 -2.3615 
-8.0725 -9.671501 -8.757501 -6.758501 -11.9028 -11.3444 -6.84 
-12.4571 -9.805 -9.712501 -12.3353 -14.9942 -11.3444 
-12.5906 -10.822 -15.5495 -15.4267 -14.9942 
