-4.759 
n/a 
n/a 
n/a 
n/a 
-4.759 
n/a 
n/a 
n/a 
n/a 
-4.759 
n/a 
n/a 
n/a 
n/a 
-4.759 
n/a 
n/a 
n/a 
n/a 
-3.5155 -3.5485 -1.756 -3.711 -3.5095 -2.3335 -2.4265 -3.6245 -4.1085 -1.7695 -2.489 -3.6135 
-6.539001 -4.869 -5.469501 -6.877 -4.5055 -3.913 -5.3585 -7.722001 -4.428 -3.1405 -6.2555 
-6.843 -5.8015 -8.803 -8.009001 -5.807 -7.3295 -9.422501 -7.891001 -5.6315 -6.670001 
-6.9165 -9.096001 -9.675 -9.323501 -9.630501 -10.159 -9.759501 -8.876501 -9.184501 
-9.955 -10.0375 -10.6765 -13.6348 -12.6224 -10.418 -10.7635 -12.5429 
-4.1485 -3.383 -3.6135 -1.7695 -1.4985 -3.5095 -1.756 -3.962 -3.5155 -1.7565 -4.6525 
-7.8215 -5.8785 -5.962501 -2.7955 -6.5465 -5.688001 -6.26 -6.9735 -4.8955 -6.999001 
-10.733 -8.408501 -8.223001 -7.8585 -8.416 -10.7025 -9.061501 -8.1975 -9.4345 
-13.263 -9.661501 -13.522 -9.5745 -13.9635 -13.504 -10.254 -13.3545 
-14.516 -15.2177 -15.238 -15.3376 -16.765 -14.6965 -15.537 
-3.5155 -4.1455 -1.756 -4.1285 -3.9335 -2.3335 -2.4265 -3.2645 -2.489 -4.719 -1.756 -4.103 -1.934 -3.4905 
-6.505 -5.5555 -5.5985 -9.0295 -5.0915 -3.913 -4.563 -3.7195 -6.4525 -5.8595 -5.982 -5.804 -5.33 
-6.5575 -5.7085 -9.8655 -10.119 -6.316501 -5.849 -4.8385 -7.8005 -7.2025 -8.297001 -7.960001 -9.429001 
-6.57 -9.925 -10.6505 -11.4236 -7.9595 -6.1635 -8.7725 -8.811501 -9.710501 -10.159 -10.586 
-10.2635 -10.651 -11.9551 -13.0666 -8.151501 -9.882501 -9.6715 -11.0653 -11.7209 -12.8698 
-3.5155 -4.1455 -1.756 -4.1285 -3.465 -5.0295 -1.7695 -2.489 -3.469 -3.4905 
-6.505 -5.5555 -5.5985 -8.773001 -9.3065 -7.1265 -3.1405 -5.8395 -6.955 
-6.5575 -5.7085 -9.969501 -14.7065 -11.4637 -8.5255 -6.2385 -10.1765 
-6.57 -9.998 -15.8992 -16.8637 -12.8627 -11.7613 -11.1411 
-10.41 -15.9069 -18.0564 -18.2627 -16.0985 -16.6639 
