-4.759 
n/a 
n/a 
n/a 
n/a 
-4.759 
n/a 
n/a 
n/a 
n/a 
-4.759 
n/a 
n/a 
n/a 
n/a 
-4.759 
n/a 
n/a 
n/a 
n/a 
-2.3615 -3.2495 -3.7865 -2.4945 -5.431 -1.7695 -3.135 -3.564 -3.772 
-5.9175 -7.83 -6.6215 -6.58 -7.500501 -4.779 -6.688001 -6.179501 
-11.3726 -9.575001 -11.1912 -8.533001 -9.6745 -8.2045 -8.715501 
-13.1176 -14.1757 -13.1442 -10.872 -13.81 -10.7025 
-17.7183 -16.1287 -15.4832 -15.0075 -16.308 
-3.5155 -5.181 -1.4985 -3.6065 -5.2955 -1.7565 -1.4985 -3.8475 
-8.592501 -5.8135 -4.8665 -8.304001 -6.388 -2.4195 -5.09 
-9.1215 -9.309501 -9.43 -9.7655 -6.8355 -5.604001 
-12.7517 -14.2276 -9.970501 -10.307 -9.871501 
-17.6698 -14.7681 -10.448 -13.343 
-3.5155 -3.2495 -7.5045 -3.6065 -4.8855 -1.7565 -2.871 -4.2655 0 
-7.153 -11.809 -12.0702 -8.838501 -6.218501 -4.521 -6.994 -4.2655 
-16.1791 -16.3747 -17.3022 -10.068 -8.805501 -7.9545 -6.994 
-20.7448 -21.6067 -18.5317 -12.5446 -12.526 -7.9545 
-25.9768 -22.8362 -21.0083 -16.2651 -12.526 
-3.5155 -4.938 -1.4985 -4.925 -3.6065 -4.331 
-8.0655 -5.3995 -6.707001 -8.8245 -8.453001 
-8.443501 -11.4188 -11.2593 -13.9192 
-14.5448 -15.9711 -16.354 
-19.0971 -21.0658 
