-4.759 
n/a 
n/a 
n/a 
n/a 
-4.759 
n/a 
n/a 
n/a 
n/a 
-4.759 
n/a 
n/a 
n/a 
n/a 
-4.759 
n/a 
n/a 
n/a 
n/a 
-2.925 -3.152 -5.68 -2.3345 -5.1185 -4.645 -5.3205 0 
-4.203 -7.299001 -7.1715 -6.503 -8.683001 -7.512501 -5.3205 
-8.312 -8.329 -11.975 -10.2865 -9.404 -7.512501 
-9.149 -13.2823 -15.7585 -10.631 -9.404 
-14.2521 -17.0658 -16.103 -10.631 
-3.4715 -5.3205 -1.7695 -2.489 -4.6185 
-8.193001 -6.921 -3.1405 -5.6555 
-9.657001 -8.461 -6.6585 
-11.4876 -12.3684 
-15.395 
-4.645 -3.898 -4.889 -5.5435 -4.4825 
-7.2355 -7.6715 -6.920501 -8.7325 
-11.6762 -10.7025 -10.147 
-14.7072 -13.929 
-17.9337 
-2.925 -5.68 -2.3345 -5.1185 -5.152 -5.3205 
-8.064001 -7.1715 -6.503 -9.023001 -9.739 
-10.3105 -11.975 -10.025 -15.4608 
-15.114 -15.497 -16.6794 
-18.636 -22.1514 
