-4.759 
n/a 
n/a 
n/a 
n/a 
-4.759 
n/a 
n/a 
n/a 
n/a 
-4.759 
n/a 
n/a 
n/a 
n/a 
-4.759 
n/a 
n/a 
n/a 
n/a 
-6.341 -1.756 -6.316 -2.7415 -1.4985 -2.8965 -3.2495 -5.0715 
-7.823 -8.052 -8.570001 -4.063 -3.928 -5.5505 -7.5175 
-9.814 -10.2925 -9.677501 -6.785501 -5.604 -9.700001 
-12.1417 -11.4 -12.4674 -9.118501 -9.753 
-13.2492 -14.1899 -14.8004 -13.3751 
-6.341 0 -6.316 -2.4945 -1.4985 -3.2495 -3.699 -5.3 
-6.341 -6.316 -8.875501 -3.9315 -4.1915 -6.0885 -9.58 
-9.5345 -8.875501 -9.918501 -6.1025 -7.6165 -12.6369 
-12.4482 -9.918501 -12.3149 -8.6295 -14.2577 
-13.4912 -12.3149 -14.8419 -15.3905 
-5.923 -1.756 -6.316 -2.4945 -1.4985 -3.2495 -2.8965 -5.0715 -1.7565 -5.1875 -4.2655 
-7.2695 -8.052 -8.875501 -3.9315 -4.1915 -5.452 -6.735001 -6.306 -6.68 -7.408 
-9.3745 -9.527 -9.918501 -6.1025 -6.53 -9.467001 -8.4125 -9.715501 -8.396501 
-10.505 -10.0655 -12.3149 -8.476501 -9.9505 -11.2797 -12.242 -10.4705 
-11.0435 -12.5765 -14.6889 -12.0096 -12.1674 -15.1092 -12.997 
-2.8965 -3.2495 -5.0715 -1.7565 -6.648 -1.756 -8.2945 0 
-5.5505 -7.5175 -6.306 -7.935 -8.523001 -10.2485 -8.2945 
-9.700001 -8.936501 -13.2905 -9.479501 -17.2139 -10.2485 
-10.461 -16.1166 -14.835 -18.3858 -17.2139 
-17.9715 -17.6611 -23.7413 -18.3858 
