-4.759 
n/a 
n/a 
n/a 
n/a 
-4.759 
n/a 
n/a 
n/a 
n/a 
-4.759 
n/a 
n/a 
n/a 
n/a 
-4.759 
n/a 
n/a 
n/a 
n/a 
-3.1495 -4.1455 -3.074 -7.746 -9.3245 -3.849 -9.3245 -4.346 0 
-6.132 -7.211 -11.8204 -10.862 -13.3177 -13.3341 -13.8147 -4.346 
-8.851501 -16.5318 -14.9364 -14.8552 -22.8028 -17.8243 -13.8147 
-18.3091 -19.6478 -18.9296 -24.3403 -27.293 -17.8243 
-21.4251 -23.641 -28.4147 -28.8305 -27.293 
-2.3615 -4.1455 -2.186 -3.319 -1.7565 -9.3245 
-7.5415 -6.7535 -6.578501 -4.165 -12.0302 
-8.89 -11.4456 -7.6085 -15.3027 
-13.7511 -12.4756 -19.0206 
-14.7811 -23.8877 
-3.1495 -5.3255 -2.4945 -7.746 -9.3245 -3.717 0 
-7.739 -7.270501 -11.6687 -10.862 -13.1857 -3.717 
-8.875501 -16.6965 -14.7847 -14.7232 -13.1857 
-18.3205 -19.8125 -18.6459 -14.7232 
-21.4365 -23.6737 -18.6459 
-3.1495 -4.1455 -2.5685 -2.4945 -3.5005 -1.7695 -7.746 -9.3245 -7.949501 -9.3245 -4.957 0 
-6.132 -6.811 -5.3665 -6.844 -6.54 -10.322 -10.862 -17.4182 -17.5934 -14.4257 -4.957 
-8.3985 -9.163501 -9.402 -9.2355 -15.4859 -13.438 -18.9557 -27.0621 -22.6946 -14.4257 
-10.4345 -13.2432 -12.0247 -18.2416 -18.6019 -21.5317 -28.5996 -32.1633 -22.6946 
-14.5142 -15.8659 -21.0308 -21.3576 -26.6956 -31.1756 -33.7008 -32.1633 
