-4.759 
n/a 
n/a 
n/a 
n/a 
-4.759 
n/a 
n/a 
n/a 
n/a 
-4.759 
n/a 
n/a 
n/a 
n/a 
-4.759 
n/a 
n/a 
n/a 
n/a 
-4.426 -1.7565 -1.4985 -3.6115 -4.7285 -4.1555 -3.147 -3.9005 0 -3.93 -4.3715 -3.4005 -2.4945 -3.672 -4.3315 -3.046 -1.7695 -4.0215 -3.3255 -3.5435 -3.8135 0 
-5.47 -2.4195 -4.081 -6.5495 -8.4455 -5.77 -7.243 -3.9005 -3.93 -6.985001 -5.5295 -6.221 -4.854 -8.182501 -5.9205 -4.575 -5.175 -7.489 -6.8435 -6.547 -3.8135 
-5.9535 -5.180501 -6.670501 -9.978001 -9.541501 -8.372001 -7.243 -8.736501 -6.985001 -7.9735 -7.9035 -8.302 -8.793501 -8.590501 -7.081 -7.577001 -8.1715 -10.275 -9.3625 -6.547 
-8.462501 -7.797 -10.054 -11.0524 -12.1435 -8.372001 -12.8242 -10.634 -7.9735 -10.19 -9.726 -12.3033 -8.847 -10.31 -9.5965 -10.275 -11.0709 -12.794 -9.3625 
-10.2375 -11.2985 -11.1648 -13.6544 -12.1435 -15.838 -14.7217 -11.6225 -10.19 -12.0125 -14.0611 -12.3568 -10.9051 -12.8255 -12.4295 -13.1744 -13.5899 -12.794 
-4.6395 -3.4005 -1.756 -3.93 -3.4005 -2.186 -3.8225 -1.7695 -2.5685 -3.5435 -3.4005 -4.328 -2.4945 -3.672 -4.5925 -3.046 0 
-8.027 -4.503 -5.34 -4.708 -5.4505 -5.589 -5.547 -4.2305 -6.308001 -6.226 -6.021 -5.9755 -4.854 -8.929501 -6.089 -3.046 
-9.106501 -7.472 -6.099 -6.4395 -9.213501 -6.2885 -6.1715 -7.4845 -9.294001 -9.2775 -7.5805 -8.7755 -9.767501 -9.410001 -6.089 
-12.1229 -7.591 -8.189 -10.0885 -9.962501 -6.9265 -9.753 -10.9293 -12.8837 -10.761 -10.3345 -13.76 -9.895 -9.410001 
-12.2419 -9.653501 -11.7154 -11.3713 -10.36 -10.6735 -13.2896 -14.519 -14.3672 -13.515 -15.6168 -13.8875 -9.895 
-4.9845 -3.4005 -1.756 -3.93 -3.4005 -2.4945 -3.8535 -5.0655 -1.7695 -2.5685 -3.5385 -2.3345 -1.4985 -3.5435 -4.179 0 
-7.0895 -4.503 -5.34 -4.708 -6.221 -5.5465 -8.6025 -6.7245 -4.2305 -5.622 -5.9275 -3.233 -4.2755 -6.8745 -4.179 
-8.581501 -7.472 -6.099 -7.2135 -9.748501 -10.041 -10.718 -8.088 -6.837 -7.788 -7.159 -5.4055 -7.151 -6.8745 
-11.9175 -7.591 -8.362 -10.8518 -14.5208 -12.2557 -12.0815 -11.1071 -9.062501 -8.979 -9.402 -8.071 -7.151 
-12.0365 -9.5825 -12.1075 -15.6241 -16.7355 -13.6192 -15.1006 -13.3326 -9.8985 -10.7035 -12.1595 -8.071 
-3.9005 -3.833 -1.756 -3.93 -3.284 -3.833 -2.4945 -3.8225 -1.7695 -4.5025 -5.172 -3.8135 -3.1435 -3.046 
-6.882 -5.172 -5.34 -7.0435 -7.354501 -5.7555 -5.672 -5.547 -6.268001 -9.873501 -8.2095 -7.7305 -6.150001 
-8.64 -8.960501 -8.457001 -10.361 -9.341001 -9.177501 -6.478001 -8.724501 -12.612 -12.1635 -12.3397 -11.0246 
-12.6579 -12.5375 -11.8195 -12.3475 -12.8186 -10.1555 -9.778001 -14.9042 -14.4392 -16.4615 -15.6338 
-16.2349 -15.9 -13.806 -15.8251 -13.7966 -13.2935 -15.7808 -16.7238 -18.7372 -19.7556 
