-4.759 
n/a 
n/a 
n/a 
n/a 
-4.759 
n/a 
n/a 
n/a 
n/a 
-4.759 
n/a 
n/a 
n/a 
n/a 
-4.759 
n/a 
n/a 
n/a 
n/a 
-2.3345 -4.7135 0 -5.5175 -8.664001 -5.09 -9.759501 -7.3025 -6.871 -11.0235 -12.16972 -7.3745 0 0 -3.1385 -3.2955 -1.7695 -4.8415 -1.4985 -5.914001 -3.4715 -3.2615 -4.509 -7.7445 -7.190001 0 
-6.108 -4.7135 -5.5175 -15.0151 -14.2346 -15.4113 -17.1632 -14.8729 -18.6969 -23.19322 -19.54422 -7.3745 0 -3.1385 -6.4565 -3.9425 -6.553501 -6.6665 -7.083 -9.333 -6.4565 -6.3075 -13.5245 -9.337 -7.190001 
-6.108 -10.1725 -15.0151 -20.5857 -24.5559 -22.815 -24.7336 -26.6988 -30.86662 -30.56772 -19.54422 -7.3745 -3.1385 -6.4565 -6.68 -8.0925 -7.496001 -12.6838 -10.597 -12.5962 -8.802 -15.9378 -15.117 -9.337 
-12.0306 -19.9689 -20.5857 -30.907 -31.9596 -30.3854 -36.5595 -38.86852 -38.24112 -30.56772 -19.54422 -11.5688 -6.4565 -6.68 -11.4878 -8.842501 -13.6559 -16.1978 -14.3138 -14.9417 -18.6603 -17.5303 -15.117 
-21.827 -25.5395 -30.907 -38.3107 -39.53 -42.2113 -48.72922 -46.24302 -38.24112 -30.56772 -23.73852 -14.8868 -6.68 -11.4878 -12.2378 -15.0862 -17.1699 -19.9146 -16.6593 -24.8 -20.2528 -17.5303 
-1.7695 -4.4035 -4.6555 0 -3.0465 -5.271 0 -1.7695 -5.957 -4.7385 -1.756 -4.05 0 -2.3615 -2.925 -2.742 -4.975 -1.756 -4.8415 -1.4985 -1.4985 -4.991 -5.603 -4.5335 -3.4715 -2.264 -5.057 -5.0505 
-4.8505 -8.0885 -4.6555 -3.0465 -9.255501 -5.271 -1.7695 -6.147501 -9.8765 -5.7115 -5.625 -4.05 -2.3615 -5.8255 -4.3725 -6.747 -6.4075 -6.5125 -6.6665 -4.935 -6.171 -11.6196 -11.1825 -7.4305 -5.7995 -7.5515 -8.0275 
-8.252501 -8.0885 -7.812 -9.255501 -9.255501 -6.912001 -6.147501 -10.0605 -10.393 -7.3535 -5.625 -6.489 -5.8255 -7.085 -8.3885 -8.3105 -9.361 -7.813 -10.1425 -9.6485 -13.3242 -17.1991 -14.0795 -9.533501 -11.8328 -11.0532 
-8.252501 -11.8082 -14.9348 -9.255501 -10.348 -11.876 -10.0605 -10.6145 -12.035 -7.3535 -8.0185 -10.7175 -7.085 -11.2572 -9.499001 -11.5006 -10.5765 -11.4268 -14.9822 -16.8727 -18.9037 -20.0961 -16.1825 -15.8086 -15.3345 
-12.2728 -18.931 -14.9348 -10.348 -15.7962 -15.789 -10.6145 -12.2565 -12.035 -9.1525 -12.3636 -11.977 -11.2572 -12.3677 -12.8117 -12.7161 -14.6341 -16.2665 -22.2064 -22.4522 -21.8007 -22.1991 -22.4576 -19.3103 
0 -3.1435 -1.8085 -4.0905 0 0 -4.3905 -4.1205 -9.5795 -4.536 -2.356 -4.2485 -7.607 -2.9905 -1.4985 -6.6365 -2.5195 -2.791 0 -3.115 -2.3615 -4.7135 -1.756 -5.456 -4.461 -1.7565 -3.5505 -2.5195 -5.057 -1.7695 -4.991 -5.0505 
-3.1435 -5.211 -5.2585 -4.0905 0 -4.3905 -9.6855 -15.2255 -13.732 -6.5655 -5.7655 -10.5925 -10.0835 -4.143 -9.123501 -9.514501 -5.1365 -2.791 -3.115 -4.312 -7.699 -6.7995 -6.9885 -9.903501 -5.722001 -5.005 -6.017 -7.212501 -7.149 -6.973501 -8.0985 
-5.211 -8.106001 -5.2585 -4.0905 -4.3905 -9.6855 -21.2787 -19.0609 -15.4152 -8.5315 -11.769 -12.5095 -11.591 -12.1496 -12.1161 -12.1419 -5.1365 -6.0325 -4.312 -9.038 -9.571 -12.5384 -11.7192 -11.1645 -8.854501 -7.1285 -11.363 -8.236501 -12.7632 -10.6735 
-8.106001 -8.106001 -5.2585 -9.887501 -9.6855 -21.2787 -24.9549 -20.4109 -15.9712 -14.1945 -14.269 -14.0835 -20.2368 -15.1422 -14.7435 -12.1419 -8.3345 -6.3685 -9.038 -11.2988 -15.4515 -17.2691 -12.9802 -14.297 -10.2985 -12.6957 -12.387 -14.6031 -16.4632 
-8.106001 -8.106001 -11.8561 -15.1755 -21.2787 -24.9549 -26.3049 -20.9669 -20.0623 -17.0771 -15.606 -22.7293 -23.2294 -17.7696 -14.7435 -15.3399 -9.4925 -12.8151 -11.2988 -17.1793 -20.1822 -18.5301 -16.1127 -15.741 -15.9105 -13.7197 -18.7536 -18.3031 
-5.5175 -9.041 -4.7855 -4.1705 -1.4985 -7.190001 -1.7695 -4.8125 -4.4715 -2.4265 -3.952 -1.7695 -1.4985 -4.6615 0 -2.3615 -5.3045 -1.7695 -2.489 -4.1585 -1.756 -4.606 -7.190001 -4.3025 -1.7695 -1.4985 -4.606 -3.545 0 
-15.3921 -14.3707 -9.863501 -6.108 -8.786501 -9.4245 -5.7435 -7.505 -6.906501 -6.71 -4.9895 -2.7955 -5.087501 -4.6615 -2.3615 -7.0565 -7.0155 -3.1405 -5.7385 -6.5515 -6.661 -13.0354 -11.136 -5.715 -2.7955 -5.825001 -8.449 -3.545 
-20.7218 -19.4487 -11.801 -13.7076 -11.3002 -13.6515 -7.817501 -9.536 -12.1662 -7.845 -5.691 -6.173501 -5.087501 -7.016001 -7.0565 -8.957001 -8.617001 -6.177001 -7.458 -12.2137 -15.4682 -16.9814 -12.5485 -7.781 -7.352001 -9.262501 -8.449 
-25.7998 -21.3862 -19.4006 -16.2213 -15.5272 -15.7255 -9.922001 -14.8127 -13.3012 -8.443501 -9.476501 -6.173501 -7.441501 -12.1116 -8.957001 -10.1305 -11.9393 -7.7375 -13.3218 -21.0209 -19.4142 -18.3939 -14.6145 -12.6809 -10.7495 -9.262501 
-27.7373 -28.9858 -21.9143 -20.4483 -17.6012 -17.83 -15.1421 -15.9477 -13.8997 -12.4744 -9.476501 -8.3505 -12.7855 -14.0121 -10.1305 -13.5638 -13.4998 -13.6499 -22.129 -24.9669 -20.8267 -20.4599 -19.5144 -16.0784 -10.7495 
