-4.759 
n/a 
n/a 
n/a 
n/a 
-4.759 
n/a 
n/a 
n/a 
n/a 
-4.759 
n/a 
n/a 
n/a 
n/a 
-4.759 
n/a 
n/a 
n/a 
n/a 
-3.0415 -1.8085 -4.6025 -3.5185 -2.0935 -4.609 0 
-5.4025 -5.8675 -8.857 -6.426 -6.582 -4.609 
-9.193001 -10.4675 -12.0483 -11.6549 -6.582 
-13.8006 -13.6588 -17.2772 -11.6549 
-16.9919 -18.8877 -17.2772 
-3.433 -1.7565 -2.9705 -2.9805 -4.69 -4.609 0 
-4.1845 -4.3815 -4.783 -6.204 -8.2805 -4.609 
-7.5325 -5.8725 -8.717001 -9.507501 -8.2805 
-8.749001 -10.19 -12.0635 -9.507501 
-12.9905 -13.5365 -12.0635 
-3.0415 0 -4.567 -4.0555 -4.609 
-3.0415 -4.567 -9.6905 -10.004 
-6.619 -9.6905 -15.6838 
-12.1459 -15.6838 
-18.1392 
-3.2615 -2.3615 -4.4305 -1.934 -4.609 
-5.276 -6.961 -5.9715 -6.5805 
-9.6525 -8.4905 -10.543 
-11.2708 -13.3266 
-16.1069 
