-4.759 
n/a 
n/a 
n/a 
n/a 
-4.759 
n/a 
n/a 
n/a 
n/a 
-4.759 
n/a 
n/a 
n/a 
n/a 
-4.759 
n/a 
n/a 
n/a 
n/a 
-6.184 0 -10.6255 -5.057 -2.4285 -3.299 -4.088 -2.4265 -2.186 -3.962 -3.873 -3.3435 -6.32 -2.186 -3.383 -3.699 -1.7565 -4.2335 -1.756 -4.2225 0 -2.872 -1.4985 -3.8245 -3.681 -2.7765 -3.962 -3.9615 -8.441 0 
-6.184 -10.6255 -16.0301 -7.3645 -5.679501 -6.403 -6.2585 -3.292 -5.363 -8.6035 -7.542 -8.781 -8.222 -4.438 -5.014 -6.1875 -5.64 -5.316 -5.5795 -4.2225 -2.872 -4.035 -5.1915 -6.1385 -5.9115 -7.983 -7.231 -13.1641 -8.441 
-17.6645 -16.0301 -18.3376 -11.0969 -9.278501 -8.654 -7.106 -6.5115 -10.8587 -12.4049 -13.7053 -11.6336 -10.389 -5.451 -8.314501 -11.1068 -6.341 -5.969 -5.5795 -6.554 -4.035 -7.978001 -7.7345 -8.252001 -12.094 -11.5038 -16.715 -13.1641 
-23.0691 -18.3376 -22.07 -14.6959 -11.5643 -9.286 -10.1505 -12.954 -14.6601 -18.5682 -16.5579 -13.8006 -11.402 -8.7675 -13.0684 -11.8078 -6.708 -5.969 -7.851 -7.709001 -7.978001 -10.1675 -10.3095 -14.7553 -15.6148 -20.9878 -16.715 
-25.3766 -22.07 -25.669 -16.9817 -12.1963 -12.3617 -16.6682 -16.7554 -20.8234 -21.4208 -18.7249 -14.8136 -14.7185 -13.7312 -13.7694 -12.1748 -6.708 -8.184 -9.0375 -11.8214 -10.1675 -12.9661 -16.8534 -18.2761 -25.0988 -20.9878 
-2.925 -2.4945 -6.952 -2.264 -2.3345 -1.4985 -4.975 -4.3035 -1.756 -4.7225 -1.4985 -4.989 -4.4205 -2.186 -3.074 -1.8085 -5.3395 0 -3.929 -2.4265 -5.6725 -1.7695 -4.6675 -2.0935 -4.283 -3.3435 -2.5195 -1.4985 -4.208 -3.0365 -2.4945 -3.074 -3.3715 -4.587 -1.756 -4.283 -4.178 -5.7755 -1.7695 -1.4985 -5.898 -4.418 0 
-3.7675 -8.0235 -7.2675 -5.319 -3.233 -5.592 -7.047501 -5.926 -6.54 -6.604001 -5.901501 -5.8365 -6.589001 -4.156 -4.639 -6.6035 -5.3395 -3.929 -5.029 -7.118 -6.2065 -5.8985 -5.728 -6.1085 -5.9495 -5.882 -3.1695 -5.2705 -7.488501 -3.688 -4.4205 -6.0315 -6.926001 -5.658 -5.6395 -6.666 -7.7605 -6.63 -2.7955 -6.783501 -7.9495 -4.418 
-8.767 -8.620501 -8.155001 -5.9555 -7.831 -7.9445 -8.639 -8.7305 -8.517501 -10.4345 -6.6215 -7.728001 -8.6665 -4.962 -9.357 -6.6035 -9.284 -5.029 -9.0275 -7.6245 -9.2285 -6.7875 -9.559 -7.789001 -7.981 -6.49 -6.926 -8.073 -8.1955 -5.288 -6.355 -9.528501 -7.8735 -8.0135 -8.0835 -10.4035 -7.886 -7.088 -7.969 -8.460001 -7.9495 
-9.294001 -8.6875 -9.033 -10.434 -9.889 -9.199501 -10.586 -10.2385 -12.4412 -10.49 -7.973501 -9.670001 -9.469001 -9.6005 -9.357 -9.953501 -10.127 -9.0275 -9.943501 -10.1265 -10.523 -10.5975 -10.611 -10.111 -8.6675 -10.341 -10.0475 -8.835501 -9.536 -6.51 -9.911 -10.487 -10.1385 -9.894001 -11.9894 -10.5985 -8.271 -12.8337 -9.709001 -8.460001 
-9.3575 -9.9835 -13.7335 -12.7572 -10.761 -11.3175 -12.094 -14.1622 -12.4967 -11.842 -9.732 -10.4965 -14.1257 -9.6005 -12.8172 -10.762 -14.2895 -9.943501 -12.4455 -11.421 -14.333 -10.737 -12.933 -10.5705 -12.7151 -13.4625 -10.615 -10.2035 -10.6615 -9.910001 -10.722 -12.752 -11.7846 -13.7999 -12.1844 -10.9835 -14.1113 -14.5737 -9.709001 
-1.4985 -3.873 -1.4985 -6.184 -1.756 -7.353 -5.116 -2.3335 -2.4945 -1.934 -3.299 -6.149 0 -3.0365 -2.4945 -3.383 -3.689 -4.2335 -1.756 -4.141 -5.1305 -4.474 -2.872 0 -3.9615 -1.4985 -5.936 -4.418 -3.0365 -2.4945 -3.9615 -5.1305 -1.7565 -4.178 -2.674 -6.180501 0 
-4.7405 -5.7185 -7.2285 -8.235001 -8.491 -10.7495 -6.9555 -3.947 -4.2645 -4.976501 -6.8655 -6.149 -3.0365 -3.688 -4.732 -7.358 -8.668501 -5.316 -5.6005 -8.4585 -8.8035 -6.684 -2.872 -3.9615 -4.716 -6.1495 -9.672001 -7.172 -3.688 -6.035 -8.046 -5.6875 -5.6105 -6.3015 -7.3025 -6.180501 
-6.396 -11.7873 -8.6 -9.504001 -12.5075 -12.589 -8.165 -5.6445 -6.7925 -8.210501 -6.8655 -8.6085 -3.688 -6.068501 -8.540001 -12.5949 -9.563001 -7.8435 -8.7505 -12.4253 -11.3989 -6.684 -7.238 -4.716 -7.3375 -10.016 -12.4154 -7.628 -6.096001 -9.4405 -8.253 -8.8605 -7.969501 -9.992001 -7.3025 
-12.686 -13.1588 -9.7825 -13.5809 -14.347 -13.7985 -10.0345 -7.7475 -10.621 -8.210501 -9.126 -9.123 -6.068501 -9.035501 -13.9815 -13.4894 -12.1185 -10.4765 -12.7121 -15.0207 -11.3989 -11.3206 -7.660501 -7.3375 -11.438 -12.7594 -12.8714 -10.3675 -9.460001 -9.545501 -11.6688 -11.4553 -11.943 -9.992001 
-14.0575 -14.3413 -13.833 -15.4204 -15.5565 -15.668 -12.1373 -12.085 -10.621 -10.442 -9.712501 -11.4579 -9.035501 -14.7206 -14.876 -16.0449 -14.7515 -14.4381 -15.3075 -15.0207 -16.0355 -11.7431 -10.328 -11.438 -14.1814 -13.2154 -15.6109 -13.7315 -9.561001 -13.1665 -14.2636 -15.4288 -11.943 
-1.934 -1.4985 -6.184 -5.645 -7.353 -4.418 -4.2225 -1.756 -4.178 -2.4945 -3.557 -4.9575 -1.756 -3.0365 -2.4945 -1.8085 -4.187 -1.7565 -3.8245 -4.3125 -3.9615 -1.4985 -2.8965 -3.9035 -1.7565 -1.4985 -3.995 0 
-2.6125 -7.2285 -12.684 -13.6814 -10.2435 -9.099001 -5.3695 -6.016 -5.8245 -5.304 -8.596001 -6.824 -4.484 -3.688 -4.16 -4.425 -4.2795 -5.058 -7.9625 -7.8665 -4.716 -3.928 -5.4185 -4.616 -2.4195 -4.712 -3.995 
-7.8385 -13.9779 -20.7204 -16.5719 -14.9245 -10.355 -8.5845 -7.9195 -7.3895 -9.511001 -10.0925 -9.477001 -5.1685 -4.897501 -6.226 -4.431 -7.772501 -9.246 -11.6205 -8.290501 -7.811501 -6.592 -5.5165 -4.895 -5.2205 -4.712 
-14.8091 -22.0143 -23.6109 -21.2529 -16.1805 -13.57 -10.404 -9.715 -11.9563 -10.759 -12.7455 -10.124 -6.355 -6.257 -6.23 -8.0055 -13.0103 -13.1236 -12.0445 -11.57 -10.7263 -6.795 -5.667 -7.265 -5.2205 
-22.8455 -24.9048 -28.2919 -22.5089 -19.3955 -15.3895 -12.1995 -14.3416 -13.2043 -13.412 -13.3925 -11.3105 -7.874001 -6.26 -9.8585 -13.2747 -16.8879 -13.5476 -15.324 -14.4848 -10.9293 -6.971 -8.757 -7.265 
