-4.759 
n/a 
n/a 
n/a 
n/a 
-4.759 
n/a 
n/a 
n/a 
n/a 
-4.759 
n/a 
n/a 
n/a 
n/a 
-4.759 
n/a 
n/a 
n/a 
n/a 
-2.5195 -5.877 0 -3.432 -3.402 -3.3715 -4.9225 -3.152 -3.2345 -3.6615 -4.8865 -3.433 -2.3615 -4.662 -4.0555 -3.2615 -1.4985 -3.2495 -3.5785 -1.7565 -1.4985 -4.662 -2.3335 -5.877 -4.385 -5.6255 -2.742 -2.6165 -3.5895 -5.0655 0 
-8.242001 -5.877 -3.432 -6.993 -7.913501 -7.0565 -7.4025 -8.1485 -5.5705 -8.2305 -8.1195 -5.373 -6.052 -7.018001 -6.207 -4.032 -4.1915 -5.3185 -4.9835 -2.4195 -5.515 -6.1665 -8.664001 -11.187 -9.4905 -8.0725 -3.995 -5.2165 -8.777 -5.0655 
-8.242001 -9.153501 -6.993 -11.9053 -11.8475 -9.636001 -12.6494 -10.6575 -11.1255 -11.8005 -9.972501 -9.462 -8.2895 -7.9995 -6.9315 -6.7625 -7.14 -6.385 -5.809 -6.6 -6.707 -12.8452 -14.2118 -16.2925 -12.5053 -9.658 -6.4255 -10.051 -8.777 
-11.9761 -13.4575 -11.9053 -15.8393 -14.427 -14.9151 -15.1584 -16.2125 -14.6955 -13.6535 -14.1027 -12.0397 -9.434 -8.660001 -9.118 -9.046 -8.088 -6.9945 -9.159 -8.144 -13.3727 -18.393 -19.3173 -19.3073 -14.0908 -12.1455 -11.5898 -10.051 
-16.2801 -18.3698 -15.8393 -18.4188 -19.7061 -17.4241 -20.7134 -19.7825 -16.5485 -17.7837 -16.6804 -13.1842 -9.982 -10.3675 -11.5879 -9.903001 -8.955001 -9.961 -10.7595 -14.8689 -18.9205 -23.4985 -22.3321 -20.8928 -16.5783 -17.3098 -11.5898 
-5.877 -3.147 -3.2615 -3.013 -5.651501 -3.6845 -3.046 -3.1335 -1.7695 -3.4625 -3.1385 -3.571 -2.871 -2.5195 -2.3615 -3.634 
-9.683001 -6.1855 -7.717 -8.529501 -7.442501 -6.753 -5.499001 -4.809 -4.3 -6.718 -7.217 -5.3415 -5.421 -4.4095 -4.7085 
-12.8499 -10.238 -12.6119 -11.7615 -12.3245 -9.3675 -6.7705 -8.067 -7.2275 -11.4801 -9.1595 -7.287 -7.5455 -6.701 
-16.9024 -15.2039 -14.9739 -13.525 -15.0762 -9.732 -10.6677 -11.4399 -12.4466 -13.4226 -11.4418 -9.0345 -10.157 
-21.8683 -17.5659 -18.3804 -16.3397 -15.4407 -13.7184 -14.0406 -16.659 -14.3891 -15.7049 -13.1893 -11.9094 
-3.5065 -2.3615 -4.4995 -3.2615 -2.341 -3.5785 -2.3335 -5.877 -4.339 -2.186 -2.6165 -3.046 -4.819 0 -2.5685 -1.4985 -3.1385 -5.0345 -3.2295 -1.7695 -2.3615 -2.5195 -5.877 0 
-5.4055 -5.593 -6.320001 -5.81 -4.745 -6.18 -8.664001 -9.943001 -5.8175 -3.5105 -5.975 -7.782001 -4.819 -2.5685 -3.7015 -4.2575 -8.181 -6.7765 -4.92 -3.736 -5.2415 -8.242001 -5.877 
-8.341001 -7.834001 -8.664001 -7.1915 -8.0815 -12.9673 -12.9678 -11.4271 -7.271 -6.5325 -8.2685 -7.782001 -7.37 -3.7015 -5.7305 -10.2085 -9.458 -6.93 -6.5555 -7.264 -11.4854 -8.242001 
-10.0675 -10.467 -10.5325 -9.5605 -15.179 -17.2711 -14.4519 -12.8806 -10.6924 -8.918 -8.2685 -10.6875 -8.236501 -5.7305 -12.1209 -11.4855 -9.7135 -8.863 -9.9615 -13.7169 -11.4854 
-13.1431 -12.3355 -12.9015 -16.9208 -19.4828 -18.7552 -15.9054 -16.302 -13.0779 -8.918 -11.4208 -11.554 -10.054 -12.1209 -13.3979 -11.741 -11.6613 -10.6605 -16.491 -13.7169 
-2.3615 -4.662 -3.6915 -3.2495 -3.5785 -3.2615 -1.4985 -4.662 -1.7565 -4.0825 -1.4985 -3.046 -3.09 -1.934 -5.877 -3.5065 -2.3615 -3.493 -3.17 -1.7565 -1.4985 -3.1385 -4.1555 -2.5195 -5.877 -1.7695 -3.16 0 
-6.052 -7.849 -7.062 -5.3185 -5.2835 -4.032 -5.515 -5.68 -6.3485 -5.378 -4.5205 -6.186501 -4.809 -8.173501 -9.690001 -5.4055 -4.628 -6.9285 -4.179 -2.4195 -4.2575 -7.9795 -6.070001 -8.242001 -8.076 -5.4185 -3.16 
-10.238 -12.0035 -9.285 -6.4465 -5.6595 -6.917 -6.0925 -10.298 -8.019501 -9.193001 -7.6415 -8.202001 -11.7777 -12.4875 -11.7302 -7.977 -7.9005 -7.574 -4.497 -5.013 -9.055 -9.943001 -12.2339 -9.611501 -10.096 -5.4185 
-14.5641 -14.2265 -10.276 -6.888 -8.4025 -7.339 -10.7025 -11.969 -12.1999 -12.422 -9.668501 -15.4931 -16.0917 -14.5277 -14.3017 -11.9645 -8.344 -7.7485 -6.2035 -9.367001 -11.1583 -16.1947 -13.6034 -11.7863 -10.096 
-16.7871 -15.2175 -10.7435 -9.399 -8.9565 -12.1278 -12.3735 -16.1494 -15.4289 -14.449 -17.0152 -19.8071 -18.1319 -17.0992 -18.2892 -12.408 -8.468 -9.406 -11.1173 -11.5141 -17.41 -17.5642 -15.7782 -11.7863 
