-4.759 
n/a 
n/a 
n/a 
n/a 
-4.759 
n/a 
n/a 
n/a 
n/a 
-4.759 
n/a 
n/a 
n/a 
n/a 
-4.759 
n/a 
n/a 
n/a 
n/a 
-4.3225 -3.807 -3.9355 -2.356 -2.985 -5.279 
-7.568 -8.817501 -5.852 -4.4615 -6.694 
-10.586 -10.4345 -7.851 -7.8255 
-12.203 -12.4335 -8.754001 
-14.202 -13.3365 
-2.0935 -3.8225 -6.229 -3.1435 -4.1685 -4.3955 
-5.8435 -9.826 -10.1725 -7.526501 -7.818001 
-12.4088 -13.9795 -14.5555 -11.6496 
-16.5623 -18.3625 -18.6786 
-20.9453 -22.4856 
-1.4985 -5.232 -3.6845 -1.4985 -3.9355 -1.756 -2.985 -5.279 
-7.244 -8.656501 -4.8155 -4.8035 -5.2215 -4.2025 -6.694 
-9.75 -9.474001 -8.385 -6.298 -7.0755 -6.942 
-10.6353 -13.2645 -9.986 -8.2545 -7.998 
-14.4258 -14.8655 -12.0511 -9.06 
-4.3225 -2.186 -4.1685 -1.4985 -5.279 -1.7565 -3.9355 -1.756 -4.221 -5.279 0 
-6.514501 -5.75 -5.337501 -6.132501 -6.0175 -5.442 -5.2215 -5.8925 -10.209 -5.279 
-10.5975 -6.9495 -9.724501 -6.495501 -7.2895 -6.4345 -10.1855 -12.2689 -10.209 
-11.797 -11.5345 -9.844501 -7.565001 -8.083501 -11.6767 -16.8865 -12.2689 
-16.382 -11.6545 -10.9388 -8.479 -13.7023 -18.3777 -16.8865 
