-4.759 
n/a 
n/a 
n/a 
n/a 
-4.759 
n/a 
n/a 
n/a 
n/a 
-4.759 
n/a 
n/a 
n/a 
n/a 
-4.759 
n/a 
n/a 
n/a 
n/a 
-1.934 -4.3285 -9.195001 -8.7615 0 -5.7865 0 
-5.522501 -13.8739 -18.4431 -8.7615 -5.7865 -5.7865 
-15.6463 -23.122 -18.4431 -14.802 -5.7865 
-24.8944 -23.122 -24.4836 -14.802 
-24.8944 -29.1625 -24.4836 
-1.934 -4.3285 0 -6.9875 -8.7615 0 -5.7865 0 
-5.522501 -4.3285 -6.9875 -10.932 -8.7615 -5.7865 -5.7865 
-5.522501 -11.6664 -10.932 -10.932 -14.802 -5.7865 
-13.4388 -15.6109 -10.932 -16.9725 -14.802 
-17.3833 -15.6109 -16.9725 -16.9725 
-1.934 -4.3285 -9.195001 -8.7615 0 -5.7865 0 
-5.522501 -13.8739 -18.4431 -8.7615 -5.7865 -5.7865 
-15.6463 -23.122 -18.4431 -14.802 -5.7865 
-24.8944 -23.122 -24.4836 -14.802 
-24.8944 -29.1625 -24.4836 
-1.934 -4.3285 0 -8.759501 -8.7615 0 -8.854 0 
-5.522501 -4.3285 -8.759501 -17.9704 -8.7615 -8.854 -8.854 
-5.522501 -13.4384 -17.9704 -17.9704 -17.8695 -8.854 
-15.2108 -22.6493 -17.9704 -27.0784 -17.8695 
-24.4217 -22.6493 -27.0784 -27.0784 
