-4.759 
n/a 
n/a 
n/a 
n/a 
-4.759 
n/a 
n/a 
n/a 
n/a 
-4.759 
n/a 
n/a 
n/a 
n/a 
-4.759 
n/a 
n/a 
n/a 
n/a 
-10.6255 -3.5905 -3.8385 -6.7945 -12.16972 -3.355 -1.7695 -2.489 -3.9375 
-14.216 -7.285 -11.0145 -19.65622 -15.52472 -5.411 -3.1405 -7.394 
-17.9105 -14.7696 -23.87622 -23.01122 -17.58072 -6.8795 -7.910501 
-25.3951 -27.63132 -27.23122 -25.06722 -19.04922 -12.0489 
-38.25682 -30.98632 -29.28722 -26.53572 -24.21862 
-7.893001 0 -4.1205 -5.3745 -4.891 -1.7565 -5.1845 -6.844 -4.156 -6.7945 -2.7415 -4.024 -3.251 -2.5195 -4.559 -2.229 -5.263 -4.288 0 
-7.893001 -4.1205 -8.726501 -7.061501 -6.8725 -6.580501 -6.9655 -10.111 -10.66 -9.0105 -5.275001 -5.9595 -5.146 -6.4585 -5.3525 -7.0235 -6.314001 -4.288 
-12.6677 -8.726501 -10.3545 -7.1715 -7.181 -7.1625 -10.1385 -16.9514 -12.876 -11.6118 -7.099501 -7.596001 -9.243 -7.2585 -10.155 -8.975 -6.314001 
-17.2737 -10.3545 -10.379 -7.185 -7.202001 -10.142 -16.9769 -19.1674 -15.4773 -13.4363 -8.897 -10.503 -10.486 -12.3452 -12.2313 -8.975 
-18.9017 -10.379 -10.3905 -7.2055 -10.194 -16.9848 -19.1929 -21.7687 -17.3018 -15.2338 -11.911 -11.746 -15.5727 -14.4215 -12.2313 
-3.5315 -2.341 -5.1845 -3.1385 -5.1845 -4.891 -3.9235 -4.1205 -4.2245 -6.7945 -4.351 -2.5195 -4.559 -4.288 -1.7695 -6.6585 
-5.503 -7.939 -7.4095 -8.83 -6.988 -8.623 -8.4195 -6.9845 -9.521501 -10.4855 -5.638 -6.4585 -9.552 -6.4015 -8.6355 
-12.0946 -10.6382 -9.214001 -10.7025 -10.543 -13.3552 -11.5503 -12.8623 -13.3983 -11.7725 -9.3 -12.0231 -12.0863 -13.6679 
-14.7938 -12.4427 -11.2481 -14.2575 -15.2752 -16.486 -17.4281 -16.7391 -14.6853 -15.4345 -15.047 -14.5574 -19.3527 
-16.5983 -14.4768 -14.8031 -18.9897 -18.406 -22.3638 -21.3049 -18.0261 -18.3473 -21.1815 -17.5813 -21.8238 
-9.3915 -4.2245 -1.7565 -5.1845 -3.1385 -2.229 -5.3745 -3.7575 -6.7945 -2.7415 -4.024 -3.251 -1.7695 -6.6585 -2.3345 -1.4985 -4.559 -3.5435 0 
-12.999 -5.277 -6.580501 -7.4095 -4.6125 -6.4755 -9.463 -10.1345 -9.0105 -5.275001 -5.9595 -3.664 -8.6355 -9.278 -3.233 -7.208 -7.515 -3.5435 
-14.3919 -9.4425 -8.684001 -9.0015 -6.732 -10.451 -15.8382 -12.6455 -11.6118 -7.099501 -6.1615 -10.0745 -10.4035 -10.5045 -8.949 -10.2535 -7.515 
-18.6509 -11.7222 -10.5975 -9.8655 -11.8029 -16.8262 -18.3492 -15.2468 -13.4363 -7.244 -13.1546 -12.0509 -11.9176 -16.2205 -12.2165 -10.2535 
-21.0022 -13.6357 -11.4615 -15.327 -18.1781 -19.3372 -20.9505 -17.0713 -13.5808 -14.3651 -15.131 -13.565 -17.6336 -19.488 -12.2165 
