-4.759 
n/a 
n/a 
n/a 
n/a 
-4.759 
n/a 
n/a 
n/a 
n/a 
-4.759 
n/a 
n/a 
n/a 
n/a 
-4.759 
n/a 
n/a 
n/a 
n/a 
-2.4265 -2.186 -6.0775 -2.3335 -3.1495 -2.915 -2.4945 -9.9265 -4.482 -2.356 -2.985 -3.8825 -1.756 -3.739 0 
-3.292 -7.6925 -7.2235 -4.8015 -6.805 -5.622 -13.8492 -14.5293 -6.828501 -4.4615 -6.327001 -5.265 -5.0735 -3.739 
-9.738501 -8.696 -9.413 -8.483001 -8.108001 -17.8791 -18.452 -16.8758 -9.264501 -7.7735 -7.606 -5.722 -5.0735 
-10.377 -10.8493 -13.1815 -9.508501 -20.6091 -22.4819 -20.7985 -19.3118 -12.5931 -9.256001 -7.914001 -5.722 
-12.5303 -14.6178 -14.207 -22.1394 -25.2119 -24.8284 -23.2345 -22.6404 -14.0756 -9.631001 -7.914001 
-1.4985 -5.593 -2.7455 -3.277 -3.814 -1.756 -3.8825 -2.915 -2.186 -4.482 -2.9705 -2.186 -3.642 -5.099 
-7.217 -6.681001 -5.294 -7.439501 -5.222 -5.3525 -6.3355 -4.5385 -7.132501 -7.818501 -3.89 -4.8635 -7.165 
-8.2355 -9.1905 -9.786501 -9.1675 -5.728 -7.384 -8.751 -9.779501 -10.4765 -8.463501 -6.364 -7.9835 
-11.1226 -13.811 -10.7525 -9.377501 -8.873 -9.7085 -14.083 -13.5731 -11.1215 -11.0753 -9.2025 
-15.7431 -14.777 -10.7905 -12.6013 -10.3745 -15.1331 -17.8766 -14.2181 -13.7333 -13.9138 
-2.3335 -2.7415 -4.9 -1.4985 -2.915 -2.9705 -2.186 -3.7855 -2.3345 -3.277 -2.4945 -4.6785 -4.048 -1.4985 -3.8825 -1.756 -3.814 -3.3435 -2.3335 -3.6765 
-4.2725 -5.559 -6.786 -4.1675 -5.5755 -3.89 -4.9225 -5.0075 -5.5635 -5.237 -6.127501 -6.8205 -4.9805 -4.569 -5.265 -5.712501 -6.3075 -5.5325 -5.3345 
-8.976001 -7.313 -10.2865 -6.709001 -6.177 -6.6625 -5.6565 -7.729001 -7.539001 -8.900001 -9.5035 -7.266 -8.821501 -6.153501 -6.9585 -7.974501 -8.56 -8.698501 
-10.4675 -11.4625 -13.0024 -7.412 -8.6875 -7.2775 -9.349501 -9.684 -11.4872 -12.505 -9.949 -11.3084 -10.0545 -7.803 -9.238 -10.7595 -11.8562 
-14.617 -14.1784 -13.7054 -9.3655 -9.3625 -10.6215 -11.4103 -13.66 -15.0922 -12.9505 -13.9914 -12.5414 -12.1242 -10.503 -12.1064 -14.0557 
-2.4265 -2.186 -1.8085 -3.4155 -4.5215 -2.3335 -3.45 -5.593 -2.4945 -5.075 -4.59 -1.7695 -2.985 -3.814 -1.756 -3.8825 -3.3435 0 
-3.292 -3.164 -4.0495 -7.6985 -6.085 -5.2765 -8.3625 -7.497001 -6.9965 -10.155 -6.1165 -4.281 -6.249001 -5.222 -5.3525 -7.013 -3.3435 
-4.4005 -4.831 -8.214001 -8.867001 -8.525001 -10.4505 -9.2545 -12.5992 -13.0403 -11.6003 -7.58 -7.634501 -7.299 -5.728 -8.339001 -7.013 
-5.915 -9.076 -9.314501 -11.4536 -13.9346 -11.3425 -14.5179 -18.643 -14.4856 -13.0638 -11.5709 -8.596001 -8.051001 -8.4945 -8.339001 
-9.384501 -9.595 -11.9897 -16.8632 -14.8266 -16.6059 -20.5617 -20.0883 -15.9491 -17.0547 -12.5324 -9.514001 -9.9145 -8.4945 
