-4.759 
n/a 
n/a 
n/a 
n/a 
-4.759 
n/a 
n/a 
n/a 
n/a 
-4.759 
n/a 
n/a 
n/a 
n/a 
-4.759 
n/a 
n/a 
n/a 
n/a 
-3.8325 -2.0935 -5.3745 -4.891 -1.7565 -5.1845 -6.844 0 
-5.7105 -7.123 -7.061501 -6.8725 -6.580501 -6.9655 -6.844 
-11.6416 -10.1 -7.1715 -7.181 -7.1625 -6.9655 
-14.6186 -10.3285 -7.185 -7.202001 -7.1625 
-14.8471 -10.3515 -7.2055 -7.202001 
-4.98 -3.5665 -1.7565 -5.1845 -6.844 -5.3745 -5.1845 -4.891 
-9.182501 -6.111 -6.580501 -6.9655 -8.695001 -9.2745 -6.988 
-11.8742 -11.5008 -7.1625 -8.7215 -13.8386 -9.3275 
-17.264 -12.0828 -9.688001 -14.0735 -13.8916 
-17.846 -14.6083 -15.3904 -14.1265 
-5.3745 -4.891 -5.1845 -5.2135 
-7.061501 -9.155001 -10.884 
-10.058 -15.1269 
-16.4065 
n/a 
-12.0835 -3.1385 -4.248 -4.9385 -2.229 -5.1845 -3.845 0 
-11.4535 -7.68 -6.7035 -6.759001 -7.7055 -9.3815 -3.845 
-15.6784 -10.204 -8.269 -12.9471 -12.4329 -9.3815 
-18.2024 -12.0547 -15.0787 -17.6745 -12.4329 
-20.0531 -18.8644 -19.8061 -17.6745 
