-4.759 
n/a 
n/a 
n/a 
n/a 
-4.759 
n/a 
n/a 
n/a 
n/a 
-4.759 
n/a 
n/a 
n/a 
n/a 
-4.759 
n/a 
n/a 
n/a 
n/a 
-3.0835 -4.584 0 -6.6585 -2.229 -4.351 
-7.693501 -4.584 -6.6585 -9.037001 -6.9425 
-7.693501 -12.2097 -9.037001 -13.9919 
-15.6828 -14.5882 -13.9919 
-18.0613 -19.5431 
-3.699 -3.522 0 -6.899 -3.883 
-7.3435 -3.522 -6.899 -11.7924 
-7.3435 -10.598 -11.7924 
-14.9849 -15.4914 
-19.8783 
-3.535 -3.522 0 -6.899 -4.351 
-5.913 -3.522 -6.899 -12.2604 
-5.913 -10.598 -12.2604 
-13.1806 -15.9594 
-18.542 
-3.0835 -3.522 0 -4.628 -4.743 -2.229 -4.042 
-6.3975 -3.522 -4.628 -4.7515 -6.5015 -5.339 
-6.3975 -8.1315 -4.7515 -6.5135 -8.679 
-11.7028 -8.279 -6.5135 -8.696 
-11.8503 -9.6665 -8.696 
