-4.759 
n/a 
n/a 
n/a 
n/a 
-4.759 
n/a 
n/a 
n/a 
n/a 
-4.759 
n/a 
n/a 
n/a 
n/a 
-4.759 
n/a 
n/a 
n/a 
n/a 
-1.4985 -5.204 -1.756 -4.418 -1.7565 -4.088 
-6.075001 -6.198501 -5.9165 -5.347 -5.0835 
-6.920501 -7.9855 -7.094 -7.861001 
-9.121501 -8.9925 -9.663 
-9.658001 -11.7717 
-4.518 -1.756 -4.957 -1.7565 -4.088 0 
-5.771 -6.37 -6.0415 -5.0835 -4.088 
-11.3562 -7.5135 -9.523001 -5.0835 
-12.4997 -11.3846 -9.523001 
-16.3708 -11.3846 
-5.2925 -1.7565 -4.088 -1.756 -7.951 
-6.5795 -5.0835 -5.1965 -9.690001 
-10.3537 -6.123 -14.4181 
-11.3932 -15.446 
-20.7162 
-4.088 -4.167 -1.756 -5.6785 0 
-7.682 -5.3535 -6.6765 -5.6785 
-8.769 -9.382501 -6.6765 
-13.481 -9.382501 
-13.481 
