-4.759 
n/a 
n/a 
n/a 
n/a 
-4.759 
n/a 
n/a 
n/a 
n/a 
-4.759 
n/a 
n/a 
n/a 
n/a 
-4.759 
n/a 
n/a 
n/a 
n/a 
-3.7515 -1.4985 -3.644 -4.2485 -3.892 -4.347 -4.986 -4.323 -5.0485 -1.7565 -4.661 -4.35 -2.4945 -3.9205 -2.5045 -4.577 -3.892 
-4.6795 -4.9855 -5.843 -7.8345 -7.921 -7.635 -8.076 -8.518001 -5.682 -6.086501 -6.2905 -6.847501 -5.3595 -4.449 -7.3605 -8.6225 
-7.669 -6.991 -8.567501 -12.2515 -11.2504 -9.804501 -12.6504 -9.654 -8.6145 -8.282001 -9.8085 -9.562501 -6.1115 -9.1545 -11.7372 
-9.846001 -8.793501 -13.0467 -15.5809 -13.4199 -14.5635 -13.7864 -12.5211 -10.586 -11.7994 -12.5743 -10.277 -10.634 -13.7642 
-11.7045 -13.2929 -16.3761 -17.7504 -18.1789 -15.6995 -16.6535 -14.4926 -14.1034 -14.5652 -13.2888 -14.8817 -15.2437 
-3.2615 -2.3335 -3.5015 -3.0365 -2.4945 -1.4985 -3.6135 -4.35 -4.281 -2.5045 -4.577 -4.35 0 0 -3.1435 -4.1165 -2.7415 -4.986 -6.142 
-5.0495 -5.909 -6.191 -3.688 -3.9315 -4.4525 -8.825001 -8.090501 -5.893 -7.3605 -8.706 -4.35 0 -3.1435 -7.024 -7.3015 -8.294001 -10.097 
-8.904501 -8.1805 -6.882 -5.9845 -6.841001 -10.1805 -13.0851 -9.202001 -11.1098 -11.8207 -8.706 -4.35 -3.1435 -7.024 -9.001 -13.3648 -13.9596 
-11.5386 -9.0915 -9.024501 -8.435501 -12.8404 -14.2602 -14.1966 -14.6998 -15.57 -11.8207 -8.706 -8.166 -7.024 -9.001 -15.1419 -19.0304 
-12.4496 -11.2788 -11.5471 -14.5407 -16.9201 -15.3717 -19.6944 -19.16 -15.57 -11.8207 -12.6966 -12.2847 -9.001 -15.1419 -20.8075 
-3.644 -4.2485 -3.7515 -6.1235 -6.116 -4.8565 -4.4095 -1.7565 -3.4775 0 
-5.843 -7.066501 -8.976501 -10.1155 -8.436501 -9.179501 -5.1885 -5.4235 -3.4775 
-9.802501 -11.4695 -13.3675 -11.9425 -13.0197 -10.7489 -9.626 -5.4235 
-14.6653 -17.2741 -15.3062 -16.5257 -14.5891 -15.1864 -9.626 
-20.0735 -18.9986 -19.8894 -18.0951 -19.0266 -15.1864 
-4.144 -4.2485 -3.355 -4.285 -4.986 -6.142 -4.8665 -3.7345 -2.674 -6.6455 -4.35 -2.186 -3.9205 -2.5045 -7.337501 0 
-6.4025 -8.1595 -8.511001 -9.7215 -10.097 -9.356 -8.808001 -7.047 -9.969501 -9.863501 -5.8735 -4.9645 -4.449 -10.932 -7.337501 
-11.2267 -13.3185 -14.1599 -15.2895 -15.0063 -14.1691 -12.3647 -14.6373 -13.4609 -12.2982 -8.751 -5.539 -12.6073 -10.932 
-16.3857 -18.9674 -19.7279 -19.9918 -19.2956 -17.7258 -19.955 -18.1287 -15.8956 -15.1757 -9.01 -14.1821 -12.6073 
-22.0346 -24.5354 -24.4302 -24.2811 -22.8523 -25.3161 -23.4464 -20.5634 -18.7731 -15.4347 -18.0037 -14.1821 
