-4.759 
n/a 
n/a 
n/a 
n/a 
-4.759 
n/a 
n/a 
n/a 
n/a 
-4.759 
n/a 
n/a 
n/a 
n/a 
-4.759 
n/a 
n/a 
n/a 
n/a 
-1.4985 -3.333 -1.7565 -3.473 -2.6165 -1.4985 -3.5005 -3.7075 0 
-4.6905 -4.76 -5.448 -6.8485 -4.2225 -7.193001 -7.97 -3.7075 
-5.216 -8.931 -8.97 -8.085 -9.686 -12.0257 -7.97 
-9.3325 -12.8248 -10.6651 -13.8993 -14.9207 -12.0257 
-13.4235 -14.5199 -16.4794 -19.134 -14.9207 
-3.693 -3.4625 -1.7565 -3.962 
-7.527 -4.9855 -7.517001 
-9.406 -10.647 
-15.1809 
n/a 
-3.7075 -1.7565 -3.7345 -2.5045 -2.4265 -2.7835 -3.889 -2.186 -4.9775 -3.693 0 
-4.51 -5.835001 -4.6815 -5.0375 -4.934 -7.931 -5.727 -6.778 -8.080001 -3.693 
-8.057 -6.132501 -6.1795 -7.056001 -10.7595 -8.415 -9.3655 -9.953501 -8.080001 
-8.585501 -7.1825 -8.334001 -13.1253 -11.2435 -12.6467 -12.7292 -9.953501 
-10.702 -8.998001 -14.4589 -13.6093 -15.4752 -16.0104 -12.7292 
-9.71 -3.291 -2.95 -4.9985 -2.3615 -3.4605 -3.043 -1.7695 -2.9635 
-13.3602 -5.0635 -8.759501 -7.522 -4.455 -6.4005 -3.528 -4.09 
-15.1327 -11.552 -11.391 -10.243 -7.6675 -6.7925 -6.3655 
-21.6212 -14.1835 -14.112 -13.6545 -8.199 -9.788 
-24.2527 -16.9045 -17.5235 -14.186 -11.7147 
