-4.759 
n/a 
n/a 
n/a 
n/a 
-4.759 
n/a 
n/a 
n/a 
n/a 
-4.759 
n/a 
n/a 
n/a 
n/a 
-4.759 
n/a 
n/a 
n/a 
n/a 
-3.8735 -2.186 -1.4985 -3.188 -2.229 -3.6115 -3.17 -6.0855 -3.59 
-5.949 -3.339 -3.619 -4.279 -5.314 -5.962501 -6.2675 -7.2875 
-7.04 -4.9385 -4.3695 -6.474501 -7.249 -7.542 -7.329 
-8.0755 -4.97 -6.5325 -7.779 -8.026501 -8.1855 
-8.0975 -7.362 -7.797501 -8.228001 -8.6005 
-3.8735 -2.186 -3.6115 -4.1735 -5.473 -3.59 -1.934 -1.4985 -3.188 
-5.949 -5.979 -5.7235 -8.5825 -7.6 -5.272 -2.6125 -3.619 
-9.077001 -8.3995 -9.486501 -9.4665 -8.0585 -5.747 -4.377 
-10.0855 -12.4689 -9.847501 -9.693001 -8.3035 -6.1975 
-14.3301 -12.8299 -10.076 -9.803 -8.385 
-3.188 -4.0005 -3.959 -3.8735 -2.186 -5.188 -3.5015 0 
-4.969501 -8.791 -7.138 -5.949 -6.1175 -8.944 -3.5015 
-8.867001 -12.4388 -8.63 -11.5475 -11.2795 -8.679501 
-12.6702 -13.9308 -11.856 -13.8421 -11.8291 
-14.1622 -17.4946 -17.8893 -15.1685 
-1.934 -1.4985 -3.188 -3.959 0 -3.8735 -4.2215 -2.5045 -1.4985 -3.6115 -3.5015 -1.934 -4.02 
-2.6125 -3.619 -6.2425 -3.959 -3.8735 -8.505501 -6.349 -3.583 -4.081 -5.6765 -4.704 -6.1145 
-4.377 -7.77 -6.2425 -7.138 -8.505501 -10.396 -7.309 -6.14 -6.577001 -6.547501 -9.646001 
-8.574501 -7.77 -9.487 -12.406 -10.396 -11.356 -9.506001 -8.4445 -7.7755 -10.7495 
-8.574501 -11.5305 -15.0794 -14.2965 -11.356 -13.553 -12.0009 -10.382 -12.2545 
