-4.759 
n/a 
n/a 
n/a 
n/a 
-4.759 
n/a 
n/a 
n/a 
n/a 
-4.759 
n/a 
n/a 
n/a 
n/a 
-4.759 
n/a 
n/a 
n/a 
n/a 
-10.4705 0 -7.462 0 -8.2205 -4.6805 -4.6825 0 -5.585 0 -7.686 -3.7865 0 -2.5685 -2.4945 -3.3235 -4.1225 
-10.4705 -7.462 -7.462 -8.2205 -10.2135 -9.38 -4.6825 -5.585 -5.585 -7.686 -11.9229 -3.7865 -2.5685 -5.3665 -5.2475 -7.877 
-18.0831 -7.462 -16.1809 -10.2135 -14.913 -9.38 -9.859001 -5.585 -14.211 -11.9229 -11.9229 -6.672 -5.3665 -7.605 -10.5418 
-18.0831 -16.1809 -18.1739 -14.913 -14.913 -14.8485 -9.859001 -14.211 -18.4479 -11.9229 -14.8084 -9.449501 -7.605 -12.8899 
-26.802 -18.1739 -22.8734 -14.913 -20.3815 -14.8485 -18.6872 -18.4479 -18.4479 -14.8084 -17.5859 -11.8584 -12.8899 
-5.1605 -2.0935 -3.469 -2.3345 -6.864 0 -7.462 -1.756 -8.2205 -4.6805 0 -5.1845 -5.74 -4.4495 -1.8085 -4.246 -4.2465 -3.61 -2.356 -3.845 -1.7565 -5.585 -1.756 -5.521 -3.962 -2.5685 -3.6215 
-7.1085 -5.214 -6.440001 -9.2355 -6.864 -7.462 -9.3815 -10.2865 -10.2135 -4.6805 -5.1845 -5.7465 -10.4765 -5.3525 -5.085 -8.965 -8.3065 -6.1615 -7.043 -4.13 -7.124001 -6.4485 -6.924 -9.627501 -6.3735 -5.2175 
-10.0475 -8.1565 -13.886 -9.2355 -9.861 -9.3815 -18.1176 -12.2795 -10.2135 -9.755501 -5.7465 -10.476 -11.3795 -8.2005 -9.353001 -13.2012 -11.8198 -10.733 -7.364501 -9.184501 -7.718 -8.8035 -11.5473 -12.2404 -8.190001 
-13.0966 -15.7951 -13.886 -12.4055 -10.085 -18.1176 -20.1106 -12.2795 -15.2885 -10.5355 -10.476 -11.379 -14.2275 -12.7815 -13.7248 -16.7145 -16.3913 -11.0545 -12.535 -9.815001 -10.185 -13.6442 -14.1602 -14.0569 
-20.7352 -15.7951 -17.056 -12.6295 -19.1913 -20.1106 -20.1106 -17.3545 -16.0685 -15.265 -11.379 -14.227 -18.8085 -17.1533 -17.2381 -21.286 -16.7128 -16.225 -13.1655 -12.3046 -15.0257 -16.2571 -15.9767 
-6.864 0 -7.462 0 -6.7865 -5.6655 -5.1605 -1.756 -3.0415 -3.3715 -5.585 0 -5.521 -1.756 -2.8965 -5.2975 -2.4945 -4.834 0 
-6.864 -7.462 -7.462 -6.7865 -10.089 -9.226 -7.339 -4.454 -4.5985 -7.705001 -5.585 -5.521 -6.5895 -3.751 -7.0265 -7.028 -6.0725 -4.834 
-9.861 -7.462 -10.396 -10.089 -13.6495 -10.435 -9.501 -6.217 -8.9875 -7.705001 -8.929 -6.5895 -8.09 -8.6 -8.797 -9.832001 -6.0725 
-9.861 -10.396 -13.6985 -13.6495 -14.8585 -12.597 -11.3796 -10.717 -8.9875 -11.4352 -9.394 -8.09 -13.4064 -10.078 -11.9302 -9.832001 
-10.7635 -13.6985 -17.259 -14.8585 -17.0205 -14.4756 -15.8796 -10.717 -12.7957 -11.9002 -10.405 -13.4064 -14.8844 -13.4086 -11.9302 
-2.4265 -2.7415 -6.292 -2.3345 -6.864 0 -7.2555 0 -1.756 -9.758 -1.756 -2.186 -4.4695 -2.0935 -5.585 0 -4.205 0 -5.2915 
-3.681 -9.1 -8.3725 -9.2355 -6.864 -7.2555 -7.2555 -1.756 -10.586 -10.674 -3.986 -6.053 -5.6265 -8.097 -5.585 -4.205 -4.205 -5.2915 
-10.1985 -9.794001 -15.7455 -9.2355 -14.9073 -7.2555 -9.057 -10.586 -11.502 -12.904 -7.527 -6.184 -9.844 -8.097 -8.869 -4.205 -9.5035 
-11.1087 -17.2982 -15.7455 -17.4518 -14.9073 -9.057 -18.0924 -11.502 -13.732 -16.445 -7.6095 -10.185 -9.844 -11.6804 -8.869 -9.5035 
-18.6129 -17.2982 -23.9618 -17.4518 -16.7088 -18.0924 -19.0084 -13.732 -17.273 -16.5275 -11.9931 -10.185 -13.4766 -11.6804 -14.6617 
