-4.759 
n/a 
n/a 
n/a 
n/a 
-4.759 
n/a 
n/a 
n/a 
n/a 
-4.759 
n/a 
n/a 
n/a 
n/a 
-4.759 
n/a 
n/a 
n/a 
n/a 
-3.436 -1.4985 -4.712 -2.4265 -2.186 -2.6165 -2.664 -5.707 -3.59 -1.756 -2.6165 -3.849 -1.934 -2.3615 -3.098 
-4.213 -5.918 -7.048 -3.292 -3.5105 -4.827 -8.764 -8.967001 -5.017 -4.2965 -6.308001 -5.735 -3.539 -5.7775 
-8.508 -8.685501 -7.620001 -4.443 -5.13 -11.4802 -12.3486 -10.0855 -7.252501 -8.345501 -7.7685 -7.610001 -7.7865 
-11.4993 -9.85 -8.746501 -6.1715 -12.1406 -15.0648 -13.4671 -12.321 -11.6785 -9.927501 -9.378501 -10.758 
-12.6638 -10.9765 -10.375 -13.3121 -15.7252 -16.1833 -15.7026 -16.747 -13.2605 -11.6233 -12.8029 
-3.834 -2.3335 -2.4265 -2.7415 -2.6165 -1.8085 -3.59 -1.756 -3.5745 -2.6165 -3.5395 -1.934 -2.3615 -3.098 0 
-6.0605 -3.913 -3.681 -4.266 -4.0345 -4.973001 -5.017 -5.2215 -4.114 -5.837 -5.528 -3.539 -5.7775 -3.098 
-9.1115 -4.9035 -5.1275 -5.440001 -7.287 -6.735001 -8.2725 -5.566 -6.9675 -7.7945 -7.504001 -7.7865 -5.7775 
-10.0315 -6.0495 -6.2235 -8.726001 -8.762 -9.47 -8.5815 -8.393001 -8.3245 -9.930501 -12.2721 -7.7865 
-11.1775 -7.092 -9.685 -10.044 -10.7575 -9.491 -11.5925 -9.854 -10.7113 -15.2134 -12.2721 
-3.436 -2.3335 0 -2.4265 -3.5745 -2.6165 -4.439 -2.5045 -1.8085 -4.2775 -3.59 -2.4285 -2.356 -3.8825 -12.16972 -2.688 -3.098 0 
-5.4805 -2.3335 -2.4265 -5.0785 -4.114 -5.0715 -6.1995 -3.3625 -4.8285 -7.607 -5.6145 -5.1055 -6.897 -16.90982 -14.85772 -5.6905 -3.098 
-5.4805 -3.913 -5.0785 -5.505 -6.249 -7.1105 -6.763 -5.875 -7.7015 -9.48 -8.351501 -10.0645 -20.20412 -19.59782 -17.86022 -5.6905 
-7.018 -6.2465 -5.505 -7.635 -7.912 -7.634501 -8.0385 -8.623 -9.55 -12.38 -13.5871 -23.38262 -22.89212 -22.60032 -17.86022 
-9.4825 -6.429501 -7.635 -9.290001 -8.3395 -8.857 -10.003 -10.634 -12.4912 -17.6156 -26.90522 -26.07062 -25.89462 -22.60032 
-3.436 -2.3335 -2.4265 -2.186 -2.6165 -1.8085 -3.8755 -3.2875 -2.356 -3.098 -3.1015 0 
-5.4805 -3.913 -3.292 -3.5105 -4.0345 -6.780001 -7.396 -5.74 -6.179501 -6.59 -3.1015 
-7.018 -4.5215 -4.443 -4.4335 -9.283501 -10.494 -10.5325 -9.788 -10.564 -6.59 
-8.1045 -5.5735 -5.5165 -9.715 -13.1911 -14.0445 -14.8609 -14.5617 -10.564 
-9.175 -6.67 -10.1715 -13.832 -16.7416 -18.3729 -19.6346 -14.5617 
