-4.759 
n/a 
n/a 
n/a 
n/a 
-4.759 
n/a 
n/a 
n/a 
n/a 
-4.759 
n/a 
n/a 
n/a 
n/a 
-4.759 
n/a 
n/a 
n/a 
n/a 
-1.4985 -4.2485 -2.5045 -1.4985 -3.9535 -1.7565 -3.995 -2.7765 -3.3165 -5.7865 -5.9485 -5.744 -1.756 -4.153 -5.7865 -4.2535 -5.44 
-5.307 -6.211 -3.1915 -5.0085 -5.163 -5.423 -6.6885 -5.1085 -8.263 -10.33 -10.5155 -7.5 -5.8605 -9.252001 -9.5565 -9.6465 
-6.781001 -6.8985 -5.903501 -5.422 -8.883 -8.504001 -9.438 -8.7305 -12.9575 -14.8265 -11.3185 -10.427 -10.733 -13.0332 -15.0533 
-7.391001 -9.2145 -6.1665 -9.098001 -12.049 -11.3637 -13.0854 -13.5372 -17.774 -16.0105 -14.2981 -15.2995 -14.5142 -18.53 
-9.361501 -9.318501 -10.0605 -12.2906 -14.9087 -15.0111 -17.8921 -18.3537 -18.958 -18.9901 -19.1706 -19.0807 -20.011 
-1.934 -3.307 -1.7565 -1.4985 -3.995 -1.4985 -4.2485 -4.518 -5.197 -5.744 -1.756 -4.625 -2.186 -4.2535 -5.44 0 
-6.0465 -4.8035 -2.4195 -4.712 -5.7605 -5.307 -7.614501 -9.4735 -9.7125 -7.5 -6.261 -6.276 -7.2985 -9.6465 -5.44 
-6.948501 -5.2765 -5.2205 -6.261001 -8.829 -8.007501 -12.9596 -14.034 -11.5545 -12.3894 -8.3385 -12.0083 -13.1405 -9.6465 
-8.1595 -6.65 -6.679501 -8.988001 -11.9241 -13.498 -17.5201 -15.876 -16.4439 -14.4669 -14.1242 -17.8503 -13.1405 
-10.522 -8.2615 -9.159 -12.1869 -17.4146 -18.0585 -19.3621 -20.7654 -18.5214 -20.2526 -19.9662 -17.8503 
-3.3715 -3.1385 -4.8785 -2.3335 -1.4985 -4.0745 -2.5195 -5.387 -4.2985 -1.7565 -4.978 -1.934 -4.7715 -5.2705 -1.4985 -3.995 -3.3875 -2.489 -1.7565 -3.4155 -3.7515 0 -2.5045 -3.76 -1.8085 -3.7375 -4.277 -3.277 0 -2.872 -1.4985 -4.6955 -1.7565 -5.387 -5.9335 -1.934 -1.4985 -4.7715 -1.7565 -1.4985 -5.465 -2.882 -2.489 -3.6245 -3.299 -2.0935 -2.664 -4.5735 -3.995 0 
-4.712501 -8.040501 -5.5695 -3.3515 -5.021 -5.541 -7.546 -7.9195 -6.745 -6.341001 -6.5375 -7.093 -10.1945 -6.376 -4.712 -7.495501 -3.7975 -4.9805 -5.0175 -7.207 -3.7515 -2.5045 -3.8195 -5.153 -3.8995 -7.294001 -6.336 -3.277 -2.872 -4.035 -5.653 -5.315001 -6.1765 -7.1695 -6.991 -2.6125 -5.746 -6.5265 -2.4195 -6.377501 -8.258 -3.631 -5.2795 -5.5375 -5.8765 -4.189 -5.701 -7.833 -3.995 
-8.9285 -8.73 -6.337 -6.3485 -6.805 -10.286 -9.842501 -9.108 -9.6705 -7.473001 -8.856501 -12.9826 -11.3432 -9.346001 -7.864501 -7.933001 -6.2725 -6.267 -8.2475 -7.207 -5.7695 -3.8195 -5.1665 -6.431 -7.3435 -8.005501 -6.336 -5.418 -4.035 -8.118 -5.847 -8.595 -7.892 -8.2255 -7.735 -7.0395 -7.165501 -6.9125 -7.158501 -8.959001 -8.789001 -6.133 -6.9045 -6.566 -7.922501 -7.643001 -8.7085 -7.833 
-9.4665 -9.47 -9.856001 -8.267 -11.793 -12.5825 -10.4225 -12.3213 -10.6495 -9.490001 -14.8969 -14.1313 -14.3132 -13.1693 -8.228001 -10.374 -8.7805 -9.7065 -8.2475 -9.687 -7.7095 -5.1665 -6.4375 -9.568501 -8.1365 -8.005501 -8.458 -6.4925 -8.118 -8.400001 -8.906 -9.908001 -8.581 -8.6175 -10.199 -8.144501 -7.547501 -9.476501 -9.718501 -9.419001 -10.75 -7.5065 -7.757501 -8.628 -11.5859 -9.554501 -8.7085 
-10.2195 -13.115 -11.7745 -13.475 -14.0895 -13.1625 -13.6358 -13.3003 -12.6665 -15.7876 -16.0456 -17.1013 -18.1365 -13.5328 -10.66 -12.882 -10.5975 -9.7065 -10.254 -10.7595 -9.495001 -6.4375 -9.5755 -10.124 -8.1365 -9.522501 -9.553501 -10.476 -8.400001 -11.4812 -10.4035 -10.498 -8.7775 -10.609 -11.304 -8.3245 -9.858001 -12.1789 -10.3635 -11.391 -12.1235 -8.2515 -9.743 -12.4066 -13.4974 -9.554501 
-1.4985 -4.2485 -2.5045 -1.4985 -3.995 -2.229 -3.307 -2.882 -4.2615 -5.9485 -7.596 -1.756 -4.153 -4.2535 -5.44 0 
-5.307 -6.211 -3.1915 -4.712 -5.324 -5.599 -6.516 -6.475 -10.015 -11.1345 -8.71 -5.8605 -9.188001 -9.6465 -5.44 
-6.781001 -6.8985 -6.811501 -5.586 -7.957 -8.841001 -10.335 -10.362 -14.8693 -12.5603 -10.76 -11.3659 -14.8792 -9.6465 
-7.391001 -8.924001 -7.105 -8.163501 -11.5404 -12.9768 -14.393 -17.0171 -16.2111 -14.7051 -16.2654 -17.0571 -14.8792 
-9.347 -8.960501 -8.898001 -11.8981 -15.6762 -17.0348 -20.8771 -18.0671 -18.3559 -20.2105 -21.9566 -17.0571 
