-4.759 
n/a 
n/a 
n/a 
n/a 
-4.759 
n/a 
n/a 
n/a 
n/a 
-4.759 
n/a 
n/a 
n/a 
n/a 
-4.759 
n/a 
n/a 
n/a 
n/a 
-2.9805 -2.7415 -4.645 -1.7695 -1.4985 -6.965 -6.249 0 
-4.004 -5.6165 -5.484001 -2.7955 -7.5015 -7.0305 -6.249 
-6.2005 -6.170001 -5.949501 -8.575001 -7.508501 -7.0305 
-6.692 -6.377501 -9.271001 -8.5825 -7.508501 
-6.8745 -9.607501 -9.272501 -8.5825 
-3.2615 -2.3335 -8.110001 -2.7415 -4.645 -2.0935 -3.1715 -3.8495 -1.756 -2.9805 -2.7415 -4.254 -2.5045 -3.4185 -1.934 -3.1715 -3.8495 
-5.0495 -11.136 -9.8325 -5.6165 -6.451001 -5.4315 -6.1445 -5.3165 -4.3555 -4.004 -7.027 -5.522 -6.382501 -5.6705 -5.2765 -6.1445 
-14.2748 -12.8585 -12.7887 -7.649 -9.894501 -9.155001 -7.528501 -7.987 -5.4385 -8.572001 -8.877501 -9.379001 -8.521501 -9.4335 -9.324501 
-15.9973 -15.8147 -14.8212 -11.2249 -13.8582 -10.6745 -10.6595 -8.944 -10.185 -9.673 -12.6597 -11.8386 -12.4835 -13.6647 
-18.9535 -17.8472 -18.3971 -15.1886 -15.3777 -13.8055 -11.6165 -13.8119 -11.286 -13.5428 -15.1193 -15.8006 -16.7147 
-3.2615 -2.3335 -4.219 -8.39 -4.3195 -1.8085 -3.4185 
-5.0495 -6.7335 -12.8825 -13.121 -5.0655 -4.1435 
-8.433001 -15.2204 -17.0987 -13.9048 -6.491 
-17.1767 -19.3196 -17.7767 -15.5011 
-21.2205 -19.9976 -19.373 

n/a 
n/a 
n/a 
n/a 
