-4.759 
n/a 
n/a 
n/a 
n/a 
-4.759 
n/a 
n/a 
n/a 
n/a 
-4.759 
n/a 
n/a 
n/a 
n/a 
-4.759 
n/a 
n/a 
n/a 
n/a 
-2.925 -1.756 -5.1595 -3.458 -3.277 -2.742 -4.636 -3.9345 -1.7695 -1.4985 -3.5015 0 
-4.335 -6.019 -8.649 -5.3735 -5.772 -5.575 -6.18 -3.94 -2.7955 -4.737 -3.5015 
-7.851001 -9.278 -10.3105 -7.736001 -8.7465 -6.827001 -6.183 -4.4455 -6.0515 -4.737 
-11.2106 -10.703 -12.673 -9.892 -9.779501 -6.83 -6.523 -8.175501 -6.0515 
-12.6356 -13.0655 -14.829 -10.979 -9.7825 -7.090001 -9.6355 -8.175501 
-3.1495 -3.458 -2.925 -3.539 -4.763 -1.756 -3.6065 -3.319 -1.7565 -3.9035 0 
-8.0435 -7.537 -5.6515 -8.975 -6.161 -5.5745 -6.149 -4.165 -5.809 -3.9035 
-12.2397 -9.2775 -11.4977 -10.287 -9.008 -8.294001 -6.26 -8.5105 -5.809 
-13.9802 -15.3561 -12.8097 -13.134 -11.8153 -8.382 -10.476 -8.5105 
-20.0588 -16.6681 -15.6567 -15.9413 -11.9033 -12.6816 -10.476 
-3.0365 -3.152 -4.4605 -1.756 -5.1595 -3.9225 -1.4985 -5.891 -3.402 -3.2 -1.934 -2.985 -4.5 -4.418 0 
-4.453 -8.6085 -5.6125 -6.019 -9.088 -4.463 -6.9925 -7.641 -5.817 -4.9415 -4.111 -4.699 -7.283 -4.418 
-8.6785 -8.688001 -6.0405 -9.605 -9.4995 -9.6855 -8.935501 -9.686001 -7.576 -7.352 -5.962 -7.4655 -7.283 
-8.701 -8.7135 -9.6145 -9.755 -14.9524 -11.9171 -10.5225 -10.6 -10.0095 -9.089001 -7.6965 -7.4655 
-8.719501 -12.4137 -9.762 -15.4617 -17.184 -13.5041 -11.4365 -13.0335 -11.8341 -10.504 -7.6965 
-3.321 -4.1755 -3.458 -3.277 -4.4565 -1.7695 -4.319 
-8.862 -4.717 -5.3735 -7.964001 -4.9325 -4.9595 
-9.619 -6.7365 -9.269 -8.186501 -9.096001 
-11.7373 -10.9302 -9.4505 -12.4574 
-15.931 -11.1117 -13.8054 
