-4.759 
n/a 
n/a 
n/a 
n/a 
-4.759 
n/a 
n/a 
n/a 
n/a 
-4.759 
n/a 
n/a 
n/a 
n/a 
-4.759 
n/a 
n/a 
n/a 
n/a 
-8.5955 -3.6185 -1.7565 -14.667 0 -3.098 0 
-12.6362 -5.093 -14.7555 -13.146 -3.098 -3.098 
-14.1107 -18.699 -15.2 -17.3494 -3.098 
-27.9709 -18.9532 -19.299 -17.3494 
-27.9709 -22.8246 -19.299 
-8.8655 -4.3955 -2.3345 -2.8635 -7.2935 
-13.7052 -6.9185 -5.531 -7.857501 
-16.2282 -9.885 -9.75 
-19.1947 -14.69 
-23.9997 
-5.4475 -1.7565 -12.1425 
-7.2545 -13.1045 
-18.8765 
n/a 
n/a 
-10.926 -2.229 -5.4475 -1.7695 -8.5955 
-11.105 -7.087 -6.4375 -11.0145 
-16.1478 -7.795001 -16.3839 
-16.8558 -17.897 
-26.9578 
