-4.759 
n/a 
n/a 
n/a 
n/a 
-4.759 
n/a 
n/a 
n/a 
n/a 
-4.759 
n/a 
n/a 
n/a 
n/a 
-4.759 
n/a 
n/a 
n/a 
n/a 
-5.576 -4.2225 -1.756 -3.571 -4.2225 -1.7565 -5.3255 -3.158 -2.742 -3.106 0 -1.7695 -3.5555 0 -3.5725 -4.834 -1.756 -3.6845 -1.4985 -2.915 -1.7565 -2.871 -4.0305 
-10.459 -5.3695 -5.1285 -8.7845 -6.2915 -7.968501 -8.329 -5.765 -7.739501 -3.106 -1.7695 -5.63 -3.5555 -3.5725 -8.4895 -6.846 -5.0105 -4.8155 -4.1675 -5.2705 -4.521 -6.898001 
-12.4424 -9.026001 -10.2645 -11.0035 -13.3763 -11.2138 -11.2056 -11.2947 -7.739501 -5.533 -5.63 -5.63 -8.0305 -8.4895 -10.4425 -10.127 -6.147 -7.356501 -6.247001 -7.861501 -8.815001 
-16.0989 -14.2652 -12.4835 -18.0883 -16.6216 -14.0904 -16.7353 -11.2947 -10.586 -7.536 -5.63 -9.901001 -13.1877 -10.4425 -13.7235 -11.2635 -8.453 -9.2755 -8.810501 -12.5605 
-21.3381 -16.4842 -19.5683 -21.3336 -19.4982 -19.6201 -16.7353 -14.1412 -12.589 -7.536 -9.901001 -15.0582 -15.1407 -13.7235 -14.86 -13.5695 -10.7025 -11.9378 -13.3863 
-1.934 -5.3255 -3.0365 -2.4945 -3.3715 -4.2225 -2.742 -2.489 -3.931 0 -3.433 -1.7565 -3.6605 -4.7425 0 
-6.7375 -8.01 -3.688 -4.846 -6.6455 -6.713 -3.301 -7.635 -3.931 -3.433 -4.1845 -5.1155 -4.8735 -4.7425 
-8.8655 -8.892001 -4.8765 -8.4285 -8.597501 -7.1825 -8.401001 -7.635 -6.976501 -4.1845 -7.3515 -5.95 -4.8735 
-9.887 -10.2285 -8.453501 -10.9207 -9.361501 -12.6267 -8.401001 -10.2335 -7.4575 -7.3515 -7.5915 -5.95 
-11.2235 -13.8055 -10.9929 -11.6847 -14.8697 -12.6267 -11.1961 -10.573 -10.757 -7.5915 -7.5915 
-2.5195 -5.576 -4.2225 -1.756 -4.2335 -3.9755 0 -3.9595 -2.5045 -4.418 -2.4265 -2.7415 -4.3765 -2.3335 -2.3345 -5.3255 -3.106 0 -1.7695 -3.5555 0 -1.7565 -3.277 -3.1425 -2.674 -6.2005 -2.5045 -4.554 -2.264 -3.739 -3.9515 -2.3345 -3.724 -2.872 -3.135 -3.9155 -4.099 -3.6615 -2.3335 -4.413 -1.4985 -5.462 -1.7565 -3.1495 -4.2225 0 -1.756 -3.644 -2.3335 -3.1495 -5.3045 -2.4945 -2.6165 -4.0005 0 
-8.8835 -10.459 -5.3695 -5.8115 -8.4975 -3.9755 -3.9595 -5.597 -7.1085 -7.082 -3.681 -5.951 -5.5725 -5.18 -6.26 -8.671 -3.106 -1.7695 -5.63 -3.5555 -1.7565 -4.25 -6.064 -4.2225 -8.271 -7.985001 -6.5955 -6.084001 -5.8325 -7.5985 -6.3755 -7.007501 -6.733 -5.309 -7.5715 -8.8585 -7.6085 -5.446 -5.791 -5.519 -6.481501 -6.382 -3.914 -6.1555 -4.2225 -1.756 -5.6485 -4.989501 -4.8015 -6.069 -6.551 -3.8065 -6.2415 -4.0005 
-14.1677 -12.4424 -6.3125 -9.0165 -8.4975 -8.592501 -5.597 -9.2735 -9.9235 -8.124001 -6.78 -6.8765 -7.4595 -7.771501 -9.684501 -8.671 -5.533 -5.63 -5.63 -5.808001 -4.25 -6.346001 -7.0395 -9.1565 -10.4269 -12.559 -8.0705 -10.4855 -10.0505 -10.4945 -11.5259 -10.316 -8.8905 -9.961 -12.9755 -12.653 -9.566501 -8.6175 -6.2965 -8.218 -6.698501 -8.48 -6.7995 -6.1555 -5.3695 -5.6485 -6.5605 -7.388 -8.445001 -7.581 -7.915 -7.1615 -6.2415 
-16.1511 -13.3854 -10.0565 -9.0165 -13.6599 -10.459 -9.2735 -12.3405 -10.9975 -10.553 -6.879 -8.875 -8.894 -11.6454 -9.684501 -10.7495 -7.536 -5.63 -7.134501 -7.9375 -6.346001 -7.208001 -12.0797 -11.4264 -15.0009 -14.034 -12.6962 -14.7035 -13.0111 -15.6449 -14.8344 -12.4735 -13.7053 -15.365 -16.77 -14.611 -12.7764 -9.0465 -9.161501 -8.259 -8.771501 -9.6455 -6.7995 -7.5055 -9.544001 -6.5605 -8.880501 -11.1581 -8.935 -8.863501 -11.9098 -7.1615 
-17.0941 -17.1294 -10.0565 -15.5025 -15.5264 -14.2667 -12.3405 -13.4145 -13.4265 -10.6515 -8.876 -10.7495 -12.8615 -11.6454 -11.763 -12.7525 -7.536 -7.134501 -9.7805 -10.328 -7.208001 -12.29 -14.3496 -16.0004 -16.4759 -18.6597 -16.9142 -17.6641 -18.1615 -18.9534 -16.9919 -17.2883 -19.1093 -19.1595 -18.728 -17.8209 -13.2054 -10.674 -9.205001 -10.4035 -9.741501 -9.6455 -8.074 -11.9066 -10.318 -8.880501 -12.8152 -11.6481 -9.975 -13.0467 -11.9098 

n/a 
n/a 
n/a 
n/a 
