-4.759 
n/a 
n/a 
n/a 
n/a 
-4.759 
n/a 
n/a 
n/a 
n/a 
-4.759 
n/a 
n/a 
n/a 
n/a 
-4.759 
n/a 
n/a 
n/a 
n/a 
-3.17 -1.7565 -1.4985 -5.6025 -2.4945 -3.8245 -1.934 -4.749 -4.693 -3.892 -1.7565 -3.8655 
-4.179 -2.4195 -6.838 -6.914001 -5.751 -4.7245 -5.849 -8.066 -6.85 -5.131001 -5.196 
-4.497 -8.007 -8.071001 -8.899 -6.158 -8.09 -9.519501 -9.313001 -7.522 -8.018001 
-9.39 -9.8205 -10.2834 -9.779 -10.513 -12.2753 -10.9897 -9.8195 -10.0675 
-10.599 -12.1929 -11.1634 -14.3352 -14.6983 -13.7455 -11.4962 -12.6714 
-4.4285 -1.7565 -1.4985 -4.3105 -4.221 -4.4985 -4.749 -4.1115 -4.675 0 
-4.6405 -2.4195 -4.977 -8.583 -8.508501 -11.5649 -8.9735 -6.957001 -4.675 
-5.2 -5.7825 -10.66 -13.0209 -15.6299 -15.7894 -12.2372 -6.957001 
-8.7115 -11.7789 -15.0979 -20.1423 -19.8544 -19.0531 -12.2372 
-15.0821 -16.2168 -22.2193 -24.3668 -23.1181 -19.0531 
-3.17 -1.7565 -1.4985 -5.6025 -3.511 -2.264 -1.4985 -3.59 -2.229 -4.749 -4.693 -3.892 0 
-4.179 -2.4195 -6.838 -8.2325 -5.158 -2.9195 -4.268 -4.966 -6.8145 -8.066 -6.85 -3.892 
-4.497 -8.007 -10.485 -9.488501 -5.9305 -6.281001 -5.127 -8.77 -9.653 -9.313001 -6.85 
-9.39 -11.8064 -11.741 -9.7705 -9.322001 -6.784501 -8.788501 -11.8943 -10.942 -9.313001 
-13.4584 -13.0624 -12.023 -13.3504 -10.0255 -10.1945 -11.9248 -13.1833 -10.942 
-3.17 -5.6025 -4.641 -1.756 -3.8245 -1.4985 -3.8875 -1.7565 -1.4985 -3.502 -5.93 -1.7565 -3.59 
-7.5275 -10.0855 -7.472 -5.5 -5.6895 -4.938 -6.536 -2.4195 -4.5955 -10.7335 -7.1365 -5.59 
-12.4401 -12.8791 -11.7332 -7.259 -9.2425 -6.9515 -7.401501 -5.5145 -12.1472 -11.94 -11.5266 
-15.2337 -17.1403 -13.4922 -10.634 -11.7296 -7.886001 -9.455501 -13.167 -13.3537 -16.3301 
-19.4949 -18.8993 -16.8672 -13.1211 -12.6641 -9.966001 -17.4292 -14.3735 -17.7438 
