-4.759 
n/a 
n/a 
n/a 
n/a 
-4.759 
n/a 
n/a 
n/a 
n/a 
-4.759 
n/a 
n/a 
n/a 
n/a 
-4.759 
n/a 
n/a 
n/a 
n/a 
-12.16972 -12.16972 -4.5265 -12.16972 -12.16972 -12.16972 -12.16972 
-24.33944 -16.69622 -17.41022 -24.33944 -24.33944 -24.33944 
-28.86594 -29.57994 -29.57994 -36.50916 -36.50916 
-41.74966 -41.74966 -41.74966 -48.67888 
-53.91938 -53.91938 -53.91938 
-5.9455 -4.0225 -1.7695 -2.871 -3.251 -1.7565 -2.871 -2.674 -5.006 0 
-10.3415 -4.9235 -4.5615 -6.385 -4.97 -4.521 -6.3025 -8.344501 -5.006 
-11.2425 -8.012 -8.7735 -8.621 -7.3955 -8.6235 -12.2776 -8.344501 
-14.331 -12.6892 -10.66 -11.0351 -12.0148 -14.6896 -12.2776 
-19.0082 -14.5757 -13.0741 -15.6544 -18.0809 -14.6896 
-5.9455 -4.0555 -2.871 -2.3345 -2.871 -2.186 -3.849 -2.5045 -8.4755 
-9.289001 -7.091 -5.35 -4.9425 -4.751 -4.8565 -6.305 -11.0805 
-12.9493 -8.914001 -5.8075 -7.8325 -7.0175 -7.104 -14.9846 
-14.7723 -8.9235 -8.038501 -10.3815 -9.5535 -15.9134 
-14.7818 -11.3633 -10.7501 -12.9175 -18.5599 
-12.16972 -2.871 -2.3345 -2.871 -3.6955 -8.4755 -3.8755 
-15.04072 -5.35 -4.9425 -6.77 -13.6144 -12.7558 
-17.51972 -5.8075 -9.2875 -17.2287 -17.8947 
-17.97722 -9.325001 -20.0274 -21.509 
-21.49472 -20.0945 -24.3077 
