-4.759 
n/a 
n/a 
n/a 
n/a 
-4.759 
n/a 
n/a 
n/a 
n/a 
-4.759 
n/a 
n/a 
n/a 
n/a 
-4.759 
n/a 
n/a 
n/a 
n/a 
-1.4985 -4.4905 -1.7565 -6.8325 -4.39 -3.436 -3.8275 -1.7695 -3.7085 -3.1435 -4.0735 -4.221 
-5.2295 -5.283501 -8.2565 -9.330501 -7.678 -7.6305 -5.9455 -4.19 -6.2585 -6.422 -8.512501 
-5.3985 -12.6727 -10.0575 -12.7521 -12.3515 -10.218 -8.141001 -6.476 -10.1385 -11.6938 
-12.8893 -14.4737 -13.8795 -17.4256 -14.939 -12.4135 -9.9805 -10.3605 -15.4103 
-14.6903 -18.2957 -18.553 -20.0131 -17.1345 -14.253 -13.865 -15.6323 
-3.436 -1.4985 -3.8275 -1.4985 -4.385 -1.7565 -4.105 -4.2745 -1.7565 -1.4985 -3.959 -1.7565 -4.0385 -3.519 -2.7415 -1.7695 -4.3455 -4.2055 -1.7565 -4.0735 0 
-4.213 -4.726 -5.4605 -5.214 -4.933 -5.3805 -6.291 -5.705 -2.4195 -5.5 -5.473 -5.942501 -6.646 -6.2355 -4.604 -4.706 -7.2475 -5.1865 -5.7055 -4.0735 
-6.4625 -6.2615 -9.179001 -5.458 -8.8795 -6.8695 -8.058001 -6.0195 -6.073501 -6.1685 -11.0714 -8.51 -9.083 -7.9645 -7.3725 -7.457 -8.746 -8.612 -5.7055 
-7.7005 -10.051 -9.3465 -9.837501 -10.9083 -8.526501 -8.466001 -9.199 -7.0055 -12.2851 -13.6389 -10.7595 -10.554 -10.597 -10.4945 -8.977 -12.3545 -8.612 
-11.5772 -10.4735 -13.9936 -11.8663 -12.5653 -8.945001 -11.8113 -9.642501 -13.4421 -14.8526 -15.8884 -12.2305 -13.1865 -13.719 -12.0145 -12.7439 -12.3545 
-3.9355 -3.8275 -4.0385 -4.6195 -4.703 -2.7415 -4.4165 -3.519 -4.23 0 
-6.418 -8.092501 -6.762501 -8.4445 -6.941 -6.768001 -7.9845 -6.599 -4.23 
-10.0705 -9.958501 -10.9653 -9.552501 -11.4517 -10.7974 -11.4751 -6.599 
-12.0859 -14.2541 -12.0733 -15.1386 -15.4811 -14.288 -11.4751 
-16.3815 -15.3621 -17.6594 -19.168 -18.9717 -14.288 
-3.436 -1.4985 -3.8275 0 -1.4985 -3.983 -1.7565 -4.051 -4.385 -1.7565 -1.4985 -3.4155 -4.6195 -2.7415 -5.7025 -1.4985 -3.519 -4.2055 0 
-4.213 -4.726 -3.8275 -1.4985 -4.867001 -5.555501 -5.091 -9.533501 -4.933 -2.4195 -4.4155 -6.6245 -7.347 -9.102501 -6.514501 -4.426001 -7.18 -4.2055 
-6.4625 -4.726 -5.4605 -4.867001 -5.994 -9.030001 -10.4035 -10.3765 -5.85 -5.211 -7.011001 -9.1215 -13.9036 -9.581501 -10.138 -7.8415 -7.18 
-6.4625 -6.2615 -9.554501 -5.994 -9.369 -14.6503 -11.2465 -11.2935 -8.870001 -7.5795 -9.347501 -15.7347 -14.3826 -13.2498 -13.6617 -7.8415 
-7.7005 -10.2865 -10.39 -9.369 -15.0885 -15.4933 -12.1635 -14.3135 -11.4909 -9.606 -15.9863 -16.2137 -18.0509 -16.7735 -13.6617 
