-4.759 
n/a 
n/a 
n/a 
n/a 
-4.759 
n/a 
n/a 
n/a 
n/a 
-4.759 
n/a 
n/a 
n/a 
n/a 
-4.759 
n/a 
n/a 
n/a 
n/a 
-12.224 -3.4155 -4.1455 -10.7985 
-13.9971 -6.386001 -16.1525 
-16.3755 -18.955 
-29.0831 
n/a 
-3.17 -5.473 -4.1455 -4.96 -2.3345 -4.8835 -5.7305 
-7.016 -10.8025 -7.6765 -5.912 -6.6465 -8.217 
-12.8157 -14.3335 -7.9005 -10.56 -9.1675 
-16.3467 -14.5575 -11.0235 -9.874001 
-16.5707 -16.6535 -10.0485 
-4.4695 -4.1455 -4.96 -2.3345 -12.224 
-7.4605 -7.6765 -5.912 -12.044 
-10.451 -7.9005 -14.453 
-10.557 -14.466 
-17.4953 
-4.4695 -4.1455 -2.5195 -10.614 -3.3195 
-7.4605 -5.1645 -10.29 -11.096 
-8.726 -12.764 -11.8445 
-15.6855 -13.78 
-16.6377 
