-4.759 
n/a 
n/a 
n/a 
n/a 
-4.759 
n/a 
n/a 
n/a 
n/a 
-4.759 
n/a 
n/a 
n/a 
n/a 
-4.759 
n/a 
n/a 
n/a 
n/a 
-2.9195 -1.934 -3.994 -1.7695 -6.5545 0 
-5.0645 -4.095 -4.3645 -7.688001 -4.979 
-7.5515 -4.418 -11.735 -8.1245 
-7.9115 -11.8875 -11.82 
-15.4986 -11.8875 
-2.645 -3.5195 -2.8845 -5.009 0 
-6.5515 -4.586 -8.6385 -5.009 
-8.216001 -9.9405 -8.6385 
-13.5735 -9.9405 
-13.5735 
-1.756 -3.074 -3.5195 -2.8845 
-4.566 -8 -4.586 
-9.807 -9.9205 
-11.7275 
n/a 
-2.0935 -3.5195 -2.8845 -3.371 0 
-5.9655 -4.586 -6.5185 -3.371 
-7.1625 -8.3315 -6.5185 
-10.7025 -8.3315 
-10.7025 
