-4.759 
n/a 
n/a 
n/a 
n/a 
-4.759 
n/a 
n/a 
n/a 
n/a 
-4.759 
n/a 
n/a 
n/a 
n/a 
-4.759 
n/a 
n/a 
n/a 
n/a 
-2.3615 -4.9225 -2.4945 -3.2615 -5.1095 -4.866 -1.934 -4.628 -4.743 0 -2.3615 -4.0195 -4.9225 -3.6955 -2.5045 -5.084 
-8.6175 -6.9525 -6.2235 -8.8885 -10.688 -6.3475 -5.9605 -4.7515 -4.743 -2.3615 -6.2625 -9.514501 -8.5865 -5.986 -8.5425 
-9.9835 -10.5975 -12.3431 -14.9494 -12.1695 -9.435 -5.9845 -4.7515 -7.6435 -6.2625 -12.2945 -13.3193 -11.2068 -13.0432 
-13.8701 -16.7171 -18.404 -16.4309 -15.257 -9.446 -5.9845 -7.651 -11.8709 -12.2945 -16.0993 -15.9396 -18.264 
-19.9897 -22.778 -19.8855 -19.5184 -15.268 -9.446 -8.052501 -11.8808 -17.9029 -16.0993 -18.7196 -22.9968 
-1.934 -2.3615 -3.17 -1.7565 -1.4985 -3.1385 -2.674 -5.0305 -2.5045 -5.263 -3.2615 -3.769 -2.229 -3.433 -1.7565 -2.985 -4.931 -2.0935 -9.354 -1.756 -3.7555 -4.969 0 
-3.539 -5.9985 -4.179 -2.4195 -4.2575 -4.8995 -6.496 -7.1245 -7.894 -8.851501 -7.4635 -5.444 -5.4025 -4.1845 -3.9355 -7.2545 -6.9895 -12.4385 -11.446 -5.2875 -9.173 -4.969 
-7.07 -7.261 -4.497 -5.013 -6.4605 -8.4665 -9.089001 -12.954 -11.6861 -13.2887 -9.503 -8.490001 -6.4065 -5.4825 -8.350501 -9.2635 -18.0219 -14.5305 -14.9775 -10.163 -9.173 
-9.083501 -7.5475 -6.2035 -7.433001 -9.915001 -11.2701 -15.0119 -16.7461 -16.1233 -15.3282 -12.549 -9.128501 -8.007501 -9.903001 -10.476 -20.5455 -20.1139 -18.062 -19.853 -10.163 
-9.457001 -8.8265 -7.953 -10.374 -12.928 -17.193 -18.804 -21.1833 -18.1628 -18.3742 -13.1875 -10.5755 -12.4832 -12.1595 -21.758 -22.6375 -23.6454 -22.9375 -19.853 
-3.2615 -5.1095 -3.17 -1.7565 -3.277 -2.5195 -5.8555 -4.743 -4.0555 -3.147 -3.5455 -5.1845 -8.146501 -3.8275 -1.756 -3.7555 -4.969 -3.147 0 
-8.8885 -8.136001 -4.179 -4.25 -5.134501 -7.757 -8.564501 -9.0215 -6.0075 -6.747 -9.959001 -14.6254 -12.3882 -5.1855 -5.2875 -9.173 -8.42 -3.147 
-12.3974 -8.824 -5.4445 -6.524001 -11.047 -10.2385 -13.195 -11.2779 -8.658501 -13.5821 -19.5865 -18.8671 -13.7462 -8.672501 -10.163 -12.6738 -8.42 
-13.0854 -9.948001 -7.547501 -12.6275 -13.5285 -14.869 -15.4514 -13.9289 -15.6598 -23.2096 -23.8282 -20.2251 -17.2332 -13.6678 -13.6638 -12.6738 
-14.2094 -12.2494 -13.757 -15.109 -18.159 -17.1254 -18.1024 -20.9302 -25.2873 -27.4513 -25.1862 -23.7121 -22.2285 -17.1686 -13.6638 
-3.9225 -3.277 -4.386 -1.7565 -3.1385 -2.4945 -5.0305 -1.934 -3.769 -2.229 -3.5455 -1.4985 -6.844 -4.866 -1.756 -9.5565 -3.147 -2.5045 -6.844 -5.084 
-5.4525 -7.3005 -4.539 -4.388 -4.588 -6.6 -5.755001 -6.148 -5.444 -6.405 -3.91 -8.304001 -9.479501 -6.2895 -10.985 -12.9733 -5.427 -9.844501 -9.570001 
-9.863 -7.3645 -5.961 -5.892 -9.046501 -7.4835 -10.554 -7.8135 -8.418501 -6.697 -9.826 -10.0405 -10.675 -16.2493 -14.4018 -15.2533 -13.2616 -12.7373 
-9.886001 -8.7335 -7.085001 -10.6465 -9.596001 -12.6777 -12.2195 -10.7335 -8.609 -12.8894 -12.5555 -11.236 -20.6348 -19.6661 -16.6818 -23.0879 -16.1544 
-11.255 -9.6475 -12.1837 -11.196 -14.8498 -14.3432 -15.1395 -10.924 -15.163 -15.6189 -13.751 -21.1958 -24.0516 -21.9461 -24.5164 -25.9807 
