-4.759 
n/a 
n/a 
n/a 
n/a 
-4.759 
n/a 
n/a 
n/a 
n/a 
-4.759 
n/a 
n/a 
n/a 
n/a 
-4.759 
n/a 
n/a 
n/a 
n/a 
-3.8175 -5.2475 -3.397 -3.4095 -2.4945 -3.0365 -3.5005 -3.3715 -3.64 -1.934 -1.4985 -3.8625 -2.9705 -2.8645 -1.4985 -4.232 -3.264 -1.7565 -3.64 0 
-8.97 -9.797501 -5.9405 -5.167 -4.952001 -6.837 -6.158 -6.144501 -5.4425 -2.6125 -5.431 -6.637 -4.6335 -4.3545 -5.198501 -6.2605 -3.6125 -5.468 -3.64 
-13.7026 -12.341 -7.962501 -8.2065 -8.403501 -8.900001 -9.723001 -6.891001 -6.2225 -6.369 -7.6515 -8.665001 -5.946001 -8.001 -7.2635 -6.330501 -5.853001 -5.468 
-16.2461 -14.363 -10.634 -11.9104 -10.6011 -12.631 -10.8223 -8.475 -10.135 -8.8345 -9.204 -10.4425 -9.1385 -9.534 -7.382501 -9.3015 -5.853001 
-18.2681 -17.0345 -14.3379 -14.108 -14.3321 -13.7303 -12.4063 -12.6453 -12.6005 -10.4862 -11.8573 -13.635 -10.354 -9.6595 -10.374 -9.3015 
-4.138 -1.7565 -3.64 -1.7695 -4.267 -1.7565 -7.715 -3.397 
-5.1845 -5.468 -5.5055 -6.4535 -6.9535 -10.4855 -12.3064 
-9.697001 -7.1965 -11.1417 -9.715 -16.3449 -15.0769 
-11.5125 -13.0499 -14.4032 -19.1804 -20.9363 
-17.3659 -16.3114 -23.8686 -23.7718 
-4.426 -1.7565 -1.4985 -3.6115 -4.7285 -4.1555 -6.282001 -1.7565 -3.64 -2.4945 -3.64 -12.16972 -3.991 -2.4945 -3.0365 
-5.47 -2.4195 -4.081 -6.5495 -8.4455 -8.847501 -7.009 -5.468 -5.508 -7.2365 -16.72332 -16.16072 -6.929501 -4.952001 
-5.9535 -5.180501 -6.670501 -9.978001 -12.3295 -9.2895 -12.5305 -7.8875 -8.642 -21.16582 -20.71432 -19.09922 -8.781 
-8.462501 -7.797 -10.054 -13.8404 -13.883 -16.1552 -13.9747 -11.0795 -23.08932 -25.15682 -23.65282 -20.95072 
-10.2375 -11.2985 -13.9528 -15.3939 -20.0295 -17.233 -17.1667 -25.52682 -27.08032 -28.09532 -25.50432 
-4.0945 -2.3335 -2.8645 -3.3715 -3.64 -2.8645 -3.7555 -3.3715 -7.4655 -1.934 -2.8965 -3.64 -3.074 
-6.8045 -4.3785 -5.473001 -6.144501 -7.0245 -5.647 -7.0035 -9.809001 -8.818001 -4.391 -5.858 -6.8855 
-9.449 -7.0305 -8.473001 -9.404001 -10.107 -8.278501 -13.733 -11.2959 -11.5038 -7.589 -8.691 
-12.3206 -9.852501 -11.6235 -12.6817 -12.6981 -15.084 -15.2199 -13.9817 -14.7018 -10.304 
-15.1426 -13.058 -14.9012 -15.2728 -19.5036 -16.5709 -17.9057 -17.1797 -17.4168 
