-4.759 
n/a 
n/a 
n/a 
n/a 
-4.759 
n/a 
n/a 
n/a 
n/a 
-4.759 
n/a 
n/a 
n/a 
n/a 
-4.759 
n/a 
n/a 
n/a 
n/a 
-3.9225 -3.277 -3.914 -2.186 -4.645 0 
-5.4525 -7.2495 -6.3085 -6.196 -4.645 
-8.908501 -9.401 -10.0925 -6.196 
-10.151 -13.4174 -10.0925 
-14.3552 -13.4174 
-2.847 -2.871 -3.147 -2.7415 -4.645 0 
-4.4675 -5.9825 -5.8815 -5.6165 -4.645 
-6.802 -8.373501 -10.0245 -5.6165 
-8.863501 -12.5745 -10.0245 
-13.1747 -12.5745 
-2.925 -2.4945 -2.6165 -4.645 -2.3345 -2.9995 -2.871 
-3.7675 -3.8065 -6.8625 -5.881001 -4.818 -5.056 
-4.933 -7.724501 -7.8855 -8.939501 -6.682 
-8.574 -8.592501 -9.820001 -10.7335 
-9.3915 -10.044 -11.9394 
-1.934 -2.3615 -3.1385 -2.229 -4.674 -2.7415 -3.917 0 
-3.539 -6.399 -4.6125 -6.776 -6.5105 -5.6245 -3.917 
-8.312 -7.894001 -10.5427 -9.463 -10.218 -5.6245 
-8.996 -14.1326 -13.2297 -13.2289 -10.218 
-15.6576 -16.8196 -16.9956 -13.2289 
