-4.759 
n/a 
n/a 
n/a 
n/a 
-4.759 
n/a 
n/a 
n/a 
n/a 
-4.759 
n/a 
n/a 
n/a 
n/a 
-4.759 
n/a 
n/a 
n/a 
n/a 
-5.787 -2.186 -1.4985 -6.651 -1.7565 -5.831 -2.5195 -1.4985 -4.1455 -9.028001 -5.1235 0 -1.756 -2.186 -4.0955 -4.9915 -2.3345 -5.532 
-7.5815 -3.339 -8.203 -9.002001 -6.929 -7.4965 -3.1695 -5.503 -10.293 -9.906001 -5.1235 -1.756 -3.986 -4.968 -7.112 -5.0975 -8.620501 
-8.5915 -10.1765 -9.421 -10.2925 -8.3105 -8.131001 -7.217 -12.1873 -10.478 -9.906001 -6.4875 -3.986 -6.5295 -7.552 -7.161 -10.0645 
-10.3415 -10.3295 -10.305 -10.3915 -8.7045 -9.5495 -14.2425 -12.3723 -10.478 -11.5698 -8.191501 -6.5295 -8.535501 -7.588 -10.2975 
-10.3525 -10.3655 -10.4 -10.464 -9.964001 -16.8022 -14.4275 -12.3723 -12.42 -13.2738 -9.9805 -8.535501 -8.563001 -10.328 
-5.787 -2.186 -4.0225 -2.9905 -1.7565 -5.831 -2.5195 -8.9665 
-7.5815 -5.1295 -5.2715 -3.6185 -6.929 -7.4965 -12.1596 
-10.9666 -6.4065 -5.718 -9.317 -8.3105 -17.5654 
-12.2436 -7.085 -11.8867 -10.9611 -18.6146 
-12.9221 -13.4753 -13.5308 -21.2652 
-5.787 -2.186 -6.044 -1.7565 -5.409 -2.5195 -3.711 -2.229 -4.859 
-7.5815 -9.151 -7.0985 -6.559501 -7.152 -6.5175 -4.225 -6.5935 
-14.9881 -9.902 -10.103 -8.208501 -9.1295 -7.207 -9.426001 
-15.7391 -13.0123 -12.016 -9.9835 -10.3716 -12.8238 
-18.8494 -14.9253 -13.791 -11.5252 -15.9884 
-5.787 -2.186 -4.0225 -3.3255 -4.859 
-7.5815 -5.1295 -6.1475 -9.411501 
-10.9666 -7.4915 -12.8445 
-13.3286 -14.2079 
-20.045 
