-4.759 
n/a 
n/a 
n/a 
n/a 
-4.759 
n/a 
n/a 
n/a 
n/a 
-4.759 
n/a 
n/a 
n/a 
n/a 
-4.759 
n/a 
n/a 
n/a 
n/a 
-1.4985 -4.0375 -3.892 -7.0765 0 -4.8255 -3.9205 -2.5045 -6.4405 0 -2.186 -4.99 -1.934 -1.4985 -3.75 -4.8515 -1.7565 -6.557 0 
-5.0015 -7.960501 -9.8265 -7.0765 -4.8255 -5.7745 -4.449 -9.55 -6.4405 -2.186 -5.502 -5.477 -2.6125 -4.8715 -8.476001 -5.5375 -7.653501 -6.557 
-9.699 -14.4708 -9.8265 -9.714001 -5.7745 -5.783 -10.035 -9.55 -8.547501 -5.502 -5.947001 -5.791 -5.621 -9.052501 -9.494 -12.8435 -7.653501 
-16.5483 -14.4708 -12.9854 -10.705 -5.783 -10.647 -10.035 -10.662 -10.485 -5.947001 -6.245 -8.22 -10.5635 -9.59 -16.3014 -12.8435 
-16.5483 -17.6297 -13.9764 -10.7295 -10.647 -10.647 -11.147 -12.5995 -10.93 -6.245 -8.574 -13.6505 -11.101 -16.4106 -16.3014 
-4.0375 -4.5655 -10.8075 0 -3.849 -2.5045 -6.4405 -3.436 0 -2.186 -4.99 -1.934 -1.4985 -4.2775 -4.197 -1.7565 -6.557 
-7.239 -16.4848 -10.8075 -3.849 -6.305 -9.55 -10.2085 -3.436 -2.186 -5.502 -5.477 -2.6125 -5.1745 -6.8675 -5.405 -7.653501 
-19.8645 -16.4848 -14.6565 -6.305 -13.4541 -13.3998 -10.2085 -6.53 -5.502 -5.947001 -5.791 -5.7755 -7.0595 -7.094 -9.801001 
-19.8645 -20.3338 -17.1125 -13.4541 -17.3039 -13.3998 -13.3025 -10.1806 -5.947001 -6.245 -7.981 -8.7615 -7.206 -12.0922 
-23.7135 -22.7898 -24.2616 -17.3039 -17.3039 -16.4938 -16.9531 -10.6256 -6.245 -8.355 -10.1465 -8.9715 -12.3054 
-4.0375 -4.5655 -9.182 0 -3.849 -2.5045 -6.4405 -3.882 0 -2.186 -4.06 -1.934 -4.1225 -4.197 -1.7565 -5.1845 -5.74 0 
-7.239 -14.8593 -9.182 -3.849 -6.305 -9.55 -10.674 -3.882 -2.186 -4.672 -4.483 -5.261 -6.73 -5.405 -6.580501 -5.7465 -5.74 
-18.239 -14.8593 -13.467 -6.305 -13.4541 -13.8653 -10.674 -6.468 -4.672 -5.13 -6.9575 -9.085 -7.0905 -8.9065 -6.961501 -5.7465 
-18.239 -19.1443 -15.923 -13.4541 -17.7694 -13.8653 -13.26 -9.897 -5.13 -7.673 -10.733 -9.5205 -10.19 -8.91 -6.961501 
-22.524 -21.6003 -23.0721 -17.7694 -17.7694 -16.4513 -16.689 -10.365 -7.673 -11.4355 -11.1685 -12.9016 -10.207 -8.91 
-4.0375 -3.1715 -1.7565 -10.8685 -3.436 -3.849 -9.342 -3.1495 -4.3725 -1.7565 -3.75 -3.7575 -1.934 -5.1845 -5.74 0 
-6.951 -4.207 -13.5742 -14.3045 -8.0695 -13.3516 -12.7651 -8.6545 -7.8325 -5.55 -5.4685 -5.82 -6.564 -5.7465 -5.74 
-7.394001 -17.1729 -17.0102 -18.938 -17.6455 -16.7747 -18.2701 -12.0895 -12.046 -7.9265 -7.6745 -10.9698 -6.819 -5.7465 
-21.7679 -20.6089 -21.6437 -28.514 -21.0686 -22.2797 -21.7051 -16.303 -14.4225 -10.6215 -13.0863 -11.2248 -6.819 
-25.2039 -25.2424 -31.2197 -31.9371 -26.5736 -25.7147 -25.9186 -18.6795 -17.1175 -16.0333 -13.3413 -11.2248 
