-4.759 
n/a 
n/a 
n/a 
n/a 
-4.759 
n/a 
n/a 
n/a 
n/a 
-4.759 
n/a 
n/a 
n/a 
n/a 
-4.759 
n/a 
n/a 
n/a 
n/a 
-2.3335 -3.473 -2.5685 -3.2015 -1.7695 -4.278 0 
-6.9445 -5.674 -6.033 -4.977 -5.35 -4.278 
-9.709001 -10.5135 -8.304001 -9.915501 -5.35 
-14.7567 -13.1181 -13.5033 -9.915501 
-17.3613 -18.3174 -13.5033 
-2.3615 -3.355 -1.7565 -3.522 -2.186 -4.3325 -1.7695 -4.278 -3.098 0 
-5.107 -3.725 -5.4405 -5.033 -6.289001 -6.028 -5.35 -8.376 -3.098 
-5.6095 -7.8275 -8.077001 -10.041 -8.0515 -10.5821 -9.410501 -8.376 
-9.415 -9.9975 -13.4318 -11.9153 -12.8654 -14.6426 -9.410501 
-11.624 -15.3523 -15.3061 -16.7292 -16.9259 -14.6426 
-2.3335 -4.96 -2.5685 -4.168 -2.0935 -10.6925 -3.5025 0 
-7.440001 -7.4055 -6.52 -5.994 -13.777 -14.195 -3.5025 
-8.900001 -11.9506 -9.307501 -18.4357 -17.2795 -14.195 
-13.8235 -14.7381 -21.9724 -21.9382 -17.2795 
-16.611 -27.403 -25.4749 -21.9382 
-2.5685 -3.1495 -4.928 -2.4945 -3.4635 -1.7695 -1.4985 -4.278 -3.4605 0 
-4.8995 -6.987 -6.916 -5.5165 -4.2045 -2.7955 -6.1565 -8.146001 -3.4605 
-8.988 -7.901 -10.281 -5.7235 -4.7965 -7.3325 -8.501 -8.146001 
-9.9755 -11.3586 -10.6435 -6.1745 -9.679501 -9.52 -8.501 
-13.4331 -11.7211 -11.0945 -11.2887 -12.2186 -9.52 
