-4.759 
n/a 
n/a 
n/a 
n/a 
-4.759 
n/a 
n/a 
n/a 
n/a 
-4.759 
n/a 
n/a 
n/a 
n/a 
-4.759 
n/a 
n/a 
n/a 
n/a 
-3.0415 0 -5.058 -1.7565 -4.959 -2.5195 -3.995 -4.392 -2.186 -3.2955 -1.7695 -4.09 -2.0935 -3.995 -3.3435 0 
-3.0415 -5.058 -5.5855 -5.9675 -6.892 -6.152 -7.3205 -5.9905 -4.348001 -3.9425 -7.014 -5.4175 -5.767 -7.265 -3.3435 
-7.4185 -5.5855 -9.577001 -7.626 -9.903501 -9.679001 -9.410001 -9.481501 -4.837 -9.152 -9.5165 -9.4715 -9.0465 -7.265 
-7.4845 -9.577001 -11.4131 -10.3405 -13.5077 -11.8161 -13.208 -10.0355 -10.286 -11.8797 -13.6103 -13.0156 -9.0465 
-11.6694 -11.4131 -14.1276 -14.0983 -15.6448 -15.6141 -13.762 -15.5915 -13.2799 -15.9735 -17.1544 -13.0156 
-4.122 -2.5195 -3.995 -11.0235 -10.2885 -3.3425 -3.6515 -3.757 -3.1435 -3.098 -3.301 -1.7695 -3.995 0 -3.433 -2.3615 -3.098 -4.0845 -3.681 
-7.051001 -6.152 -16.1479 -21.312 -13.8066 -7.912001 -8.915501 -6.989 -6.054 -6.061 -4.933 -5.497 -3.995 -3.433 -5.373 -5.7725 -7.66 -7.381001 
-11.2589 -18.7695 -26.4364 -24.8301 -18.3761 -13.362 -12.2045 -9.069 -8.4645 -7.944 -9.748501 -5.497 -7.102 -5.373 -8.359 -11.3031 -11.2427 
-23.8764 -29.058 -29.9545 -29.3996 -23.8261 -16.651 -14.2845 -11.5689 -9.911 -12.6565 -9.748501 -8.3345 -9.081 -8.359 -14.2384 -14.8858 
-34.1649 -32.5761 -34.524 -34.8496 -27.1151 -18.731 -16.7844 -13.0154 -14.6235 -12.6565 -12.9752 -10.609 -12.28 -14.2384 -17.8211 
-1.4985 -3.3825 -1.7565 -1.4985 -3.995 -5.3055 -2.264 -1.4985 -4.2995 -1.7565 -4.959 -5.1595 
-4.4135 -4.3095 -2.4195 -4.712 -9.332001 -5.435 -2.9195 -5.2815 -5.232 -5.9675 -7.851501 
-4.563 -5.058 -5.2205 -10.0505 -9.467501 -6.046 -6.869 -5.732501 -9.446501 -8.558001 
-5.3365 -8.376 -10.4855 -10.152 -9.9975 -9.5315 -7.109 -9.722501 -12.3118 
-8.7685 -14.072 -10.548 -10.772 -13.483 -9.5785 -11.3184 -12.6958 
-3.0415 -3.995 -1.7565 -3.972 -1.7695 -4.0555 -1.4985 -4.959 -1.7695 -3.3435 -4.293 0 
-8.08 -6.804 -5.8405 -5.8465 -5.902501 -5.818 -6.127 -6.9995 -5.041 -7.425 -4.293 
-11.3826 -10.543 -7.75 -10.8701 -6.809 -10.5035 -8.1755 -10.9936 -9.4635 -7.425 
-15.1216 -12.4525 -12.9752 -11.7766 -11.9265 -12.552 -12.4176 -15.4161 -9.4635 
-17.0311 -17.6777 -13.8817 -16.8941 -13.975 -16.7941 -16.8401 -15.4161 
