-4.759 
n/a 
n/a 
n/a 
n/a 
-4.759 
n/a 
n/a 
n/a 
n/a 
-4.759 
n/a 
n/a 
n/a 
n/a 
-4.759 
n/a 
n/a 
n/a 
n/a 
-3.871 -9.751 -3.972 0 
-12.4155 -13.8886 -3.972 
-18.4581 -14.0086 
-18.4581 
n/a 
-4.3305 -2.356 -4.541 0 -4.02 -3.741 0 
-6.5675 -6.4195 -4.541 -4.02 -7.689 -3.741 
-9.38 -6.4195 -10.598 -7.689 -7.689 
-9.38 -12.9939 -14.267 -7.689 
-17.15 -16.6629 -14.267 
-3.5645 -4.625 -4.1835 -3.972 -4.02 -3.741 
-9.292001 -8.485001 -8.1425 -8.712501 -7.689 
-13.3146 -12.7986 -13.3418 -8.896001 
-17.6282 -17.9979 -13.5253 
-22.8275 -18.1814 
-7.105 -3.972 0 -4.02 -3.741 0 
-11.9792 -3.972 -4.02 -7.689 -3.741 
-11.9792 -8.712501 -7.689 -7.689 
-16.7197 -8.896001 -7.689 
-16.9032 -8.896001 
