-4.759 
n/a 
n/a 
n/a 
n/a 
-4.759 
n/a 
n/a 
n/a 
n/a 
-4.759 
n/a 
n/a 
n/a 
n/a 
-4.759 
n/a 
n/a 
n/a 
n/a 
-2.1715 -4.6815 -2.186 -2.7625 -4.5105 
-6.4075 -6.630501 -5.8105 -6.047 
-8.689 -8.841501 -7.6715 
-9.892 -8.9525 
-9.962501 
-3.1495 -4.3735 -4.4445 -2.4945 -3.849 -2.5045 -4.6815 0 
-6.7885 -7.495501 -6.554501 -5.410501 -6.305 -7.004001 -4.6815 
-10.025 -8.849001 -9.423 -7.648001 -10.9081 -7.004001 
-10.7545 -12.1645 -12.0597 -12.2823 -10.9081 
-14.07 -14.8012 -16.694 -12.2823 
-5.2465 -3.1015 -3.354 -3.1435 -5.1695 -2.264 -5.291 -3.135 -1.7565 -4.582 -2.229 -3.559 -3.4465 0 
-9.085 -6.364 -6.433001 -6.883 -6.221001 -7.1485 -7.631001 -3.9195 -6.887001 -7.6095 -5.411 -5.2615 -3.4465 
-12.5309 -8.622 -7.5415 -7.193 -9.392501 -9.538 -7.9725 -10.333 -10.155 -11.3453 -6.619 -5.2615 
-14.7889 -8.848001 -7.605 -9.833501 -11.9902 -9.847501 -14.852 -13.601 -13.8908 -12.5533 -6.619 
-15.0149 -8.8675 -9.961 -12.5098 -12.2997 -16.7708 -18.12 -17.3368 -15.0988 -12.5533 
-3.1495 -2.7625 -4.5105 -2.4945 -5.298 -2.5045 -2.1715 -4.6815 
-6.995501 -6.047 -6.1435 -8.382501 -7.750501 -5.4595 -6.4075 
-8.9905 -7.908 -12.8541 -11.8232 -10.9467 -8.8695 
-9.4595 -15.1046 -16.2948 -15.0194 -14.3567 
-17.1739 -18.5453 -19.491 -18.4294 
