-4.759 
n/a 
n/a 
n/a 
n/a 
-4.759 
n/a 
n/a 
n/a 
n/a 
-4.759 
n/a 
n/a 
n/a 
n/a 
-4.759 
n/a 
n/a 
n/a 
n/a 
-6.144 -2.229 -6.0885 -4.7005 
-7.4565 -7.8365 -9.637001 
-13.5088 -11.7114 
-17.3837 
n/a 
-4.248 -5.211 -4.6045 
-6.5565 -10.0475 
-11.8378 
n/a 
n/a 
-6.144 -7.54 -5.089 -1.7565 -5.9425 
-14.6838 -13.2566 -5.8135 -8.12 
-20.4004 -13.9811 -12.9064 
-21.1249 -21.074 
-28.2178 
-4.248 -4.891 -2.0935 -4.4275 -3.6835 -1.934 -2.985 -3.288 -2.5045 -1.8085 -4.8555 0 
-10.533 -7.511001 -8.3555 -8.5445 -6.562 -4.111 -5.7945 -5.377501 -3.3625 -6.403501 -4.8555 
-13.153 -14.1804 -12.5905 -12.081 -8.4315 -6.3345 -7.593 -6.1905 -7.894001 -6.403501 
-19.8224 -18.4154 -16.127 -13.9505 -10.8052 -8.0515 -8.200001 -11.5596 -7.894001 
-24.0574 -21.9519 -17.9965 -16.3242 -12.5222 -8.585 -13.6227 -11.5596 
