-4.759 
n/a 
n/a 
n/a 
n/a 
-4.759 
n/a 
n/a 
n/a 
n/a 
-4.759 
n/a 
n/a 
n/a 
n/a 
-4.759 
n/a 
n/a 
n/a 
n/a 
-2.645 -3.1575 -2.3615 -4.152 -3.515 -3.2775 -2.5045 -5.0435 0 -7.3535 -1.756 -5.146 -5.2235 -2.4945 -1.4985 -3.17 -3.9205 -4.152 -3.515 0 
-3.72 -5.4355 -5.901 -5.669001 -6.8165 -3.678 -8.281501 -5.0435 -7.3535 -8.7515 -6.838 -7.290501 -8.349501 -3.9315 -3.7115 -6.863501 -8.587 -5.669001 -3.515 
-6.392 -9.4005 -8.982 -8.519501 -6.827 -8.578 -8.281501 -10.523 -8.7515 -13.9939 -8.873 -10.181 -9.8225 -5.324 -7.402 -11.6636 -9.4095 -5.669001 
-10.6756 -12.5981 -12.3343 -8.524 -9.400001 -8.578 -14.1304 -11.921 -13.9939 -16.0289 -10.341 -11.654 -11.3978 -8.939 -12.1481 -12.4861 -9.4095 
-13.8732 -15.9504 -12.3388 -10.4265 -9.400001 -14.6601 -15.5284 -17.1634 -16.0289 -17.4969 -11.814 -13.2293 -15.0128 -13.8063 -12.9706 -12.4861 
-2.8965 -3.1575 -2.3615 -3.5065 0 -4.152 -3.5065 -3.115 -5.0435 0 -7.3535 0 -5.146 -5.2235 -2.4945 -1.4985 -4.4695 -4.152 -3.5065 
-4.4055 -5.4355 -5.0065 -3.5065 -4.152 -7.966001 -6.294001 -8.231001 -5.0435 -7.3535 -7.3535 -5.146 -7.290501 -8.349501 -3.9315 -5.252501 -8.356 -7.966001 
-6.295 -8.1195 -5.0065 -7.4515 -7.966001 -11.1135 -11.803 -8.231001 -10.523 -7.3535 -12.9341 -7.290501 -10.181 -9.8225 -7.623 -8.861 -12.6026 
-9.575001 -8.1195 -9.932501 -10.375 -11.1135 -16.6225 -11.803 -14.1125 -10.523 -12.9341 -15.0786 -10.181 -11.654 -13.6968 -11.4181 -13.3558 
-9.575001 -13.2349 -13.273 -13.5225 -16.6225 -16.6225 -17.6845 -14.1125 -16.1036 -15.0786 -17.9691 -11.654 -15.5283 -17.4919 -15.9129 
-2.8965 -3.1575 -3.1495 -4.152 -3.4765 -3.115 -5.0435 0 -7.3535 0 -5.146 -5.2235 -3.074 -3.3235 -3.9205 -4.152 -3.4765 
-4.4055 -6.3005 -7.5675 -5.848001 -5.97 -8.231001 -5.0435 -7.3535 -7.3535 -5.146 -7.290501 -8.897 -6.3425 -4.8795 -8.587 -5.848001 
-7.108 -10.9107 -8.5345 -9.5515 -10.7495 -8.231001 -10.523 -7.3535 -12.9341 -7.290501 -11.6768 -12.3433 -6.932 -8.9585 -10.6168 
-12.0922 -11.8777 -12.5584 -14.5622 -10.7495 -14.1125 -10.523 -12.9341 -15.0786 -11.6768 -15.1231 -12.9328 -11.9942 -11.2291 
-13.0592 -15.9016 -17.5691 -14.5622 -16.631 -14.1125 -16.1036 -15.0786 -19.4649 -15.1231 -15.7126 -17.995 -14.2648 
-5.0435 0 -7.3535 0 -5.146 -5.2235 0 -2.4945 -4.152 -3.4765 0 
-5.0435 -7.3535 -7.3535 -5.146 -7.290501 -5.2235 -2.4945 -7.663001 -5.848001 -3.4765 
-10.523 -7.3535 -12.9341 -7.290501 -7.290501 -8.349501 -7.663001 -9.84 -5.848001 
-10.523 -12.9341 -15.0786 -7.290501 -10.181 -13.7786 -9.84 -9.84 
-16.1036 -15.0786 -15.0786 -10.181 -15.6101 -15.9556 -9.84 
