-4.759 
n/a 
n/a 
n/a 
n/a 
-4.759 
n/a 
n/a 
n/a 
n/a 
-4.759 
n/a 
n/a 
n/a 
n/a 
-4.759 
n/a 
n/a 
n/a 
n/a 
-4.161 -2.4945 -3.333 -1.934 -3.6065 -4.008 0 
-6.052 -4.3655 -4.374 -4.9755 -6.296 -4.008 
-7.535501 -5.2835 -6.745 -7.901 -6.296 
-8.360001 -7.252501 -8.778 -7.901 
-10.2085 -9.1295 -8.778 
-4.161 -2.4945 -3.333 -1.934 -12.16972 
-6.052 -4.3655 -4.374 -15.11012 
-7.535501 -5.2835 -18.19832 
-8.360001 -19.43742 
-22.95892 
-4.161 -2.4945 -3.333 -1.934 -3.6065 -5.131 0 
-6.052 -4.3655 -4.374 -4.9755 -6.7445 -5.131 
-7.535501 -5.2835 -6.745 -7.745 -6.7445 
-8.360001 -7.252501 -8.728001 -7.745 
-10.2085 -9.1715 -8.728001 
-4.426 -1.7565 -1.4985 -3.0835 -4.7285 -4.1555 -3.147 -4.161 -2.4945 -3.333 -1.934 -3.6885 -5.1305 0 
-5.47 -2.4195 -3.535 -6.042 -8.4455 -5.77 -8.3735 -6.052 -4.3655 -4.374 -5.257 -8.144501 -5.1305 
-5.9535 -4.6785 -6.335501 -9.523001 -9.541501 -11.1375 -9.5775 -7.535501 -5.2835 -7.097 -9.649 -8.144501 
-8.021 -7.476501 -10.0095 -10.7035 -14.909 -12.3415 -11.0862 -8.360001 -8.106001 -10.459 -9.649 
-9.983001 -11.3061 -11.3 -16.071 -16.113 -13.8502 -11.9107 -11.6275 -10.6595 -10.459 
