-4.759 
n/a 
n/a 
n/a 
n/a 
-4.759 
n/a 
n/a 
n/a 
n/a 
-4.759 
n/a 
n/a 
n/a 
n/a 
-4.759 
n/a 
n/a 
n/a 
n/a 
-2.985 -4.4525 -4.4755 -3.2295 -4.628 -4.743 
-6.288 -8.177 -6.05 -7.953 -4.7515 
-9.169001 -9.772 -11.5655 -7.9985 
-10.951 -15.3987 -11.611 
-16.5777 -15.4442 
-2.4265 -2.186 -4.1205 -2.3335 -2.985 -4.7155 -4.4755 -5.7865 -6.6585 
-3.292 -5.007 -5.9915 -4.917 -7.292 -7.995001 -10.048 -13.4288 
-6.0455 -6.851 -8.179 -9.144501 -9.33 -14.2689 -17.6903 
-6.87 -9.321501 -12.5175 -10.554 -15.6265 -21.9112 
-9.3275 -13.7326 -13.927 -16.8505 -23.2688 
-2.925 -2.674 -4.4695 -4.6945 -6.6585 
-4.1785 -8.242001 -9.649 -10.576 
-9.411501 -13.8368 -17.3817 
-15.1505 -21.5178 
-22.8315 
-6.6585 
n/a 
n/a 
n/a 
n/a 
