-4.759 
n/a 
n/a 
n/a 
n/a 
-4.759 
n/a 
n/a 
n/a 
n/a 
-4.759 
n/a 
n/a 
n/a 
n/a 
-4.759 
n/a 
n/a 
n/a 
n/a 
-3.9035 -1.934 -3.3155 -3.6085 -2.186 -4.4615 -1.934 -1.4985 -3.188 0 
-5.7625 -6.1365 -7.1035 -5.869 -6.3075 -5.9665 -2.6125 -3.619 -3.188 
-10.2585 -9.938001 -7.302001 -10.1115 -7.6335 -6.9395 -4.377 -3.619 
-14.06 -10.6585 -12.5849 -11.5243 -8.438001 -9.3655 -4.377 
-14.7805 -15.9414 -13.9977 -12.3288 -10.9996 -9.3655 
-3.6085 -4.4615 -3.8195 
-5.7305 -7.6405 
-8.656501 
n/a 
n/a 
-11.906 -4.418 -3.3155 -3.6085 -3.1125 -4.899 0 
-15.7705 -6.3585 -7.1035 -8.967001 -7.0225 -4.899 
-19.386 -8.676001 -13.524 -13.0338 -7.0225 
-21.7035 -16.1609 -17.5908 -13.0338 
-29.1884 -20.2277 -17.5908 
-4.915 0 -4.4685 0 -3.6085 -8.1625 -3.59 -2.229 0 
-4.915 -4.4685 -4.4685 -3.6085 -12.555 -12.4385 -4.966 -2.229 
-10.5135 -4.4685 -8.6295 -12.8192 -16.3639 -15.2965 -4.966 
-10.5135 -8.6295 -18.0762 -16.3639 -19.0577 -15.2965 
-14.6745 -18.0762 -21.6209 -19.0577 -19.0577 
