-4.759 
n/a 
n/a 
n/a 
n/a 
-4.759 
n/a 
n/a 
n/a 
n/a 
-4.759 
n/a 
n/a 
n/a 
n/a 
-4.759 
n/a 
n/a 
n/a 
n/a 
-2.9805 -4.3195 -3.757 -1.7565 -3.535 -3.9515 -3.774 -5.242 -1.7695 -3.875 -3.371 
-5.4865 -6.517 -4.5665 -5.105 -8.111 -5.299 -8.886001 -5.2555 -5.567 -7.0435 
-7.126 -6.929 -8.366 -10.1765 -9.175501 -10.3345 -8.894001 -9.271 -9.889501 
-7.525 -11.0333 -14.2317 -11.4054 -14.4064 -10.3645 -13.0657 -13.9687 
-11.7477 -16.899 -15.4606 -16.6363 -14.4364 -14.5362 -17.7634 
-2.9805 -2.186 -1.8085 -3.4185 -1.7565 -3.982 -3.7575 0 
-4.1635 -3.164 -4.1435 -4.2475 -5.407 -6.427 -3.7575 
-5.078001 -5.1045 -4.5105 -7.6835 -8.416 -6.427 
-6.1165 -5.159 -8.297501 -9.212001 -8.416 
-6.139501 -8.793501 -9.5425 -9.212001 
-3.074 -2.9805 -4.3195 -1.4985 -4.2245 -1.7565 -2.664 -3.8465 -3.515 -2.9705 -4.779 -1.934 -3.982 -3.371 0 
-6.274 -5.4865 -5.1515 -5.2345 -5.277 -3.9595 -5.6595 -7.787001 -6.1235 -6.064 -7.2655 -5.7915 -7.554501 -3.371 
-9.0155 -6.313 -7.52 -5.753 -7.2955 -6.726501 -9.826 -10.564 -9.139501 -8.637501 -11.5734 -9.4095 -7.554501 
-10.0015 -8.191 -7.6255 -7.586 -9.9665 -11.2102 -12.7664 -13.58 -11.8156 -13.1312 -15.1914 -9.4095 
-11.8733 -8.238001 -9.5345 -10.512 -14.5144 -14.1506 -15.7824 -16.2561 -16.3093 -16.7492 -15.1914 
-2.9805 -2.186 -1.4985 -4.2245 -1.7565 -1.4985 -12.16972 -2.229 -3.875 -2.229 -4.5785 0 
-4.1635 -3.339 -5.2345 -5.277 -2.4195 -14.76202 -14.39872 -6.555 -5.3405 -6.303 -4.5785 
-5.312 -6.2205 -5.753 -5.484 -15.87382 -16.99102 -18.72472 -8.283501 -10.5739 -6.303 
-7.622001 -6.864 -5.9345 -19.63672 -18.10282 -21.31702 -20.45322 -13.7427 -10.5739 
-7.742001 -7.099 -20.22622 -21.86572 -22.42882 -23.04552 -25.91242 -13.7427 
