-4.759 
n/a 
n/a 
n/a 
n/a 
-4.759 
n/a 
n/a 
n/a 
n/a 
-4.759 
n/a 
n/a 
n/a 
n/a 
-4.759 
n/a 
n/a 
n/a 
n/a 
-3.0835 -3.473 0 -6.6585 -4.8775 
-6.9355 -3.473 -6.6585 -12.2946 
-6.9355 -11.0655 -12.2946 
-15.3148 -16.7016 
-20.9509 
-4.0105 -4.867 0 -4.628 -5.939 -3.9675 
-9.665001 -4.867 -4.628 -5.9615 -8.6765 
-9.665001 -10.0225 -5.9615 -8.6905 
-15.0001 -11.4118 -8.6905 
-16.3894 -14.1408 
-3.0835 -4.867 0 -4.628 -5.939 -3.9675 
-7.389 -4.867 -4.628 -5.9615 -8.6765 
-7.389 -10.0225 -5.9615 -8.6905 
-12.9761 -11.4118 -8.6905 
-14.3654 -14.1408 
-3.0835 -4.867 0 -6.899 -3.9675 
-7.389 -4.867 -6.899 -10.389 
-7.389 -12.7618 -10.389 
-15.7154 -16.2518 
-19.2054 
