-4.759 
n/a 
n/a 
n/a 
n/a 
-4.759 
n/a 
n/a 
n/a 
n/a 
-4.759 
n/a 
n/a 
n/a 
n/a 
-4.759 
n/a 
n/a 
n/a 
n/a 
-2.7835 -1.4985 -3.4155 -3.5495 -2.186 -1.934 -3.6065 -3.5135 0 -2.0935 -2.664 -3.668 0 -1.4985 -3.4155 -3.5495 -2.186 -1.934 -3.4225 -4.0965 0 -3.321 -3.423 -3.1425 -2.489 -18.39 
-3.7575 -5.219 -5.671 -5.292 -4.0835 -4.9755 -6.371 -3.5135 -2.0935 -4.189 -4.7495 -3.668 -1.4985 -5.219 -5.671 -5.292 -4.0835 -5.4655 -4.2 -4.0965 -3.321 -7.395 -6.929501 -3.7875 -16.397 
-7.4255 -6.616 -7.150001 -7.128 -7.796 -8.268001 -6.371 -5.4075 -4.189 -6.1515 -4.7495 -4.834 -5.219 -6.616 -7.150001 -7.128 -8.502001 -6.2465 -4.2 -7.806001 -7.395 -11.4737 -7.439 -14.749 
-8.3175 -8.003 -8.910001 -10.1945 -9.878 -8.268001 -7.814 -7.263 -6.1515 -6.1515 -6.366 -8.609 -6.616 -8.003 -8.910001 -12.1441 -9.3535 -6.2465 -8.398001 -12.2148 -11.4737 -11.9832 -17.4124 
-8.917001 -9.653501 -12.5539 -12.2765 -9.878 -10.2485 -9.526501 -9.953501 -6.1515 -7.768 -10.2695 -9.694 -8.003 -9.653501 -14.5035 -12.9956 -9.3535 -10.243 -12.9058 -16.2935 -11.9832 -21.5005 
-3.4155 -4.899 -3.571 -2.871 -3.5015 -1.7565 -4.224 -12.16972 -14.8855 -3.5045 
-9.388 -9.1425 -5.3415 -5.183 -4.783 -6.023 -17.29592 -24.35072 -12.907 
-13.8531 -11.0552 -9.5425 -7.6335 -10.264 -19.71652 -27.51742 -22.61322 
-15.7658 -15.2562 -12.1468 -13.5363 -23.95752 -29.05502 -26.96192 
-19.9668 -17.8605 -18.0496 -27.22982 -33.29602 -29.14302 
-3.4155 -3.5495 -2.186 -1.934 -3.571 -3.5015 -2.0935 -3.668 -2.7835 -2.4265 -2.186 -1.934 -8.0115 -3.0415 -2.4265 -4.066 -3.115 -18.39 
-5.671 -5.292 -4.0835 -4.9705 -6.194 -4.7905 -3.995 -5.048 -4.1745 -3.292 -4.0835 -10.348 -11.3816 -4.551 -4.728 -7.7035 -15.975 
-7.150001 -7.128 -7.040501 -6.873 -7.6425 -7.0725 -5.087 -7.035 -4.7885 -5.206 -13.1241 -13.7181 -12.8911 -7.16 -8.4725 -18.8503 
-8.910001 -9.3395 -8.9335 -8.690001 -9.339001 -8.0775 -7.0815 -7.442 -6.546 -14.4744 -16.4942 -15.2276 -15.5001 -10.609 -18.931 
-11.6989 -11.3557 -10.7993 -9.691501 -10.265 -9.925 -7.477 -9.290001 -16.1402 -17.8445 -18.0037 -17.8366 -18.9491 -20.828 
-3.4155 -3.5495 -2.186 -3.571 -3.355 -2.0935 -3.668 -18.39 
-5.671 -5.292 -5.0315 -6.1225 -5.900001 -3.995 -17.177 
-7.150001 -8.6245 -7.568001 -8.499001 -7.515 -14.224 
-10.3675 -11.3994 -10.2865 -9.426001 -17.0894 
-13.1424 -14.1179 -11.3473 -18.9441 
