-4.759 
n/a 
n/a 
n/a 
n/a 
-4.759 
n/a 
n/a 
n/a 
n/a 
-4.759 
n/a 
n/a 
n/a 
n/a 
-4.759 
n/a 
n/a 
n/a 
n/a 
-4.099 -4.388 -3.5865 -3.6845 -8.466001 -2.0935 -3.2875 0 
-9.918501 -7.5565 -8.083 -13.4273 -10.8081 -5.8425 -3.2875 
-13.171 -12.7294 -18.189 -15.7694 -14.5571 -5.8425 
-18.3439 -22.8354 -20.5311 -19.5184 -14.5571 
-28.4499 -25.1775 -24.2801 -19.5184 
-4.1485 -2.3335 -4.5085 -3.5865 -2.4945 -3.074 -3.1715 -4.6085 -1.7695 -2.3615 -3.2875 
-5.245 -7.215501 -6.6155 -6.639 -4.4205 -5.856 -9.4025 -5.0895 -3.736 -5.6385 
-9.9505 -9.642701 -9.517 -8.314501 -9.151001 -12.3312 -9.979001 -9.368 -6.8605 
-12.3777 -12.5442 -11.3161 -13.3314 -16.22 -12.9077 -14.6965 -12.8713 
-15.2792 -14.3433 -16.333 -20.4004 -16.7965 -17.6252 -18.1998 
-3.074 -7.472 -3.5865 -2.186 -1.8085 -4.75 -2.0935 -1.4985 -3.2875 0 
-11.5464 -11.6293 -5.7395 -3.164 -6.944 -6.735 -2.9725 -4.127 -3.2875 
-15.7037 -13.7823 -6.4525 -8.2215 -8.5965 -7.433 -5.664001 -4.127 
-17.8567 -14.4953 -12.4402 -9.442 -9.455001 -9.0505 -5.664001 
-18.5697 -20.483 -13.6607 -10.2495 -11.1159 -9.0505 
-4.5085 -3.5865 -3.074 -4.174 -4.7155 -1.7695 -2.791 -4.685 -2.5195 -3.45 0 
-6.6155 -6.8655 -5.9385 -9.68 -6.859 -4.385 -6.336 -5.093 -5.1315 -3.45 
-9.826 -9.661501 -11.7481 -10.337 -10.0745 -8.960001 -6.8805 -7.0695 -5.1315 
-12.6768 -15.5131 -12.4051 -13.7141 -14.6495 -8.9715 -9.358001 -7.0695 
-18.5284 -16.1701 -15.7822 -18.2891 -14.661 -11.495 -9.358001 
