-4.759 
n/a 
n/a 
n/a 
n/a 
-4.759 
n/a 
n/a 
n/a 
n/a 
-4.759 
n/a 
n/a 
n/a 
n/a 
-4.759 
n/a 
n/a 
n/a 
n/a 
-5.891 -9.4115 0 -3.402 -2.264 -6.899 -3.8475 -4.0395 0 -5.891 -3.531 -4.3185 -1.934 -2.95 -1.7565 -4.2705 
-16.2129 -9.4115 -3.402 -3.793 -8.821501 -10.543 -8.309501 -4.0395 -5.891 -10.2985 -8.854 -5.706 -4.784 -4.3785 -5.023 
-16.2129 -13.1529 -3.793 -10.9615 -12.7285 -15.005 -8.309501 -9.962 -10.2985 -15.6215 -10.1595 -8.971001 -6.272 -7.03 
-19.9543 -13.5439 -10.9615 -14.8685 -17.1905 -15.005 -14.3884 -14.5187 -15.6215 -16.927 -13.6449 -10.5456 -10.3035 
-20.3453 -20.7124 -14.8685 -19.3305 -17.1905 -21.0839 -18.9451 -19.8417 -16.927 -20.4124 -15.2195 -14.5771 
-5.891 -4.0395 0 -6.6585 -3.918 -3.564 -4.456 -2.186 -3.402 -2.264 -1.4985 -4.2705 -3.402 -5.891 0 
-8.547501 -4.0395 -6.6585 -11.3351 -8.109501 -6.6755 -6.613 -4.6135 -3.793 -2.9195 -5.383 -8.2135 -9.1805 -5.891 
-8.547501 -11.5466 -11.3351 -15.5266 -11.509 -8.912001 -8.813001 -4.731 -4.34 -6.8005 -9.6955 -9.948 -9.1805 
-16.3012 -16.2232 -15.5266 -18.9261 -13.7455 -11.1574 -8.866501 -5.172 -8.51 -11.6758 -10.515 -9.948 
-20.9778 -20.4147 -18.9261 -21.1626 -15.9909 -11.2109 -9.2845 -9.446501 -13.4465 -12.4953 -10.515 
-4.273 -4.0395 0 -1.934 -4.628 -8.092501 -3.564 -4.4775 -3.918 -2.186 -1.4985 -3.918 -1.7565 -4.2705 -4.273 -5.399 0 
-8.657001 -4.0395 -1.934 -5.9605 -8.309501 -12.0743 -9.388 -8.7425 -5.801001 -3.339 -4.8715 -5.2315 -5.023 -9.5755 -10.1075 -5.399 
-8.657001 -5.5995 -5.9605 -9.4925 -12.4337 -17.8983 -13.765 -11.0775 -7.1415 -6.5325 -5.5475 -10.3475 -10.5846 -15.5082 -10.1075 
-10.2595 -9.797501 -9.4925 -13.7155 -18.2577 -22.2753 -16.1 -12.418 -8.745501 -7.3775 -11.1809 -15.9091 -16.5173 -15.5082 
-14.4857 -13.1867 -13.7155 -19.5395 -22.6347 -24.6103 -17.4405 -14.022 -9.734 -13.0435 -16.7425 -21.8418 -16.5173 
-5.891 0 -4.628 -4.743 -2.186 -5.891 -6.113 -3.1385 -3.59 0 -3.5435 -4.7925 -1.934 -2.5685 -3.3825 -2.186 -4.7175 -1.7695 -5.891 -4.9225 
-5.891 -4.628 -4.7515 -7.074 -8.6295 -12.9144 -10.5135 -7.648 -3.59 -3.5435 -8.4305 -6.33 -4.244 -6.6835 -5.5005 -5.732 -6.0405 -7.943 -9.614 
-9.915501 -4.7515 -7.087 -13.8961 -15.8645 -17.3149 -15.023 -7.648 -7.3715 -8.4305 -10.543 -9.3815 -8.0485 -8.153 -8.628 -7.423 -12.5378 -11.9248 
-10.089 -7.087 -13.9157 -21.1311 -20.265 -21.8244 -15.023 -11.8093 -12.5795 -10.543 -13.5945 -13.2998 -10.5325 -11.7033 -10.688 -14.3877 -16.5196 
-12.7049 -13.9157 -21.1507 -25.5316 -24.7745 -21.8244 -19.1843 -17.0173 -14.692 -13.5945 -17.5128 -15.7838 -14.0828 -13.7633 -17.6527 -18.3695 
