-4.759 
n/a 
n/a 
n/a 
n/a 
-4.759 
n/a 
n/a 
n/a 
n/a 
-4.759 
n/a 
n/a 
n/a 
n/a 
-4.759 
n/a 
n/a 
n/a 
n/a 
-3.995 -5.3815 -1.756 -3.995 -3.473 -3.9335 -1.7565 -2.9645 
-9.181001 -6.456 -5.736 -8.351501 -8.7685 -5.68 -3.7085 
-10.311 -11.1346 -10.6499 -14.145 -11.3838 -9.801001 
-14.9896 -16.0485 -16.4434 -16.7603 -15.5048 
-19.9035 -21.842 -19.0587 -20.8813 
-3.995 -5.2425 -2.186 -3.2955 -2.264 -3.995 -4.622 -4.4385 
-7.2275 -7.5695 -4.348001 -5.16 -4.972 -8.482 -8.039001 
-9.413 -10.76 -6.309 -8.469 -8.7925 -12.7036 
-12.5589 -12.721 -9.800501 -12.5843 -13.9731 
-14.5199 -16.2125 -13.9776 -17.7649 
-5.101 -3.873 -5.4785 -2.186 -3.2955 -1.7695 -3.6645 -1.4985 -3.4905 -1.7565 -1.4985 -3.995 
-8.933001 -9.772501 -7.8135 -4.348001 -3.9425 -4.9955 -5.097 -4.7085 -4.601 -2.4195 -4.712 
-15.1801 -12.1413 -9.923 -4.837 -6.533 -5.5985 -8.394001 -4.841 -4.9845 -5.2205 
-17.5489 -14.2508 -10.722 -7.6625 -6.9415 -8.915501 -8.625501 -5.1115 -7.821001 
-19.6584 -15.0498 -13.5475 -7.948 -9.992001 -9.38 -8.816001 -7.8965 
-3.995 -6.1115 -4.2705 -1.7695 -4.0585 -1.4985 -4.622 -4.0395 -1.7565 -1.4985 -3.995 
-7.661 -11.3318 -5.3315 -4.6165 -4.7185 -5.221 -7.4425 -4.862 -2.4195 -4.712 
-13.3887 -12.3928 -7.3005 -5.2205 -7.817501 -7.754001 -7.795001 -5.2685 -5.2205 
-14.4497 -14.3618 -7.734 -8.182501 -9.84 -7.9005 -8.1355 -7.5495 
-16.4187 -14.7953 -10.759 -9.945001 -9.886001 -8.208 -9.675501 
