-4.759 
n/a 
n/a 
n/a 
n/a 
-4.759 
n/a 
n/a 
n/a 
n/a 
-4.759 
n/a 
n/a 
n/a 
n/a 
-4.759 
n/a 
n/a 
n/a 
n/a 
-3.091 -4.121 -4.9665 -1.934 -3.9985 0 -3.851 -1.7695 -3.9475 
-5.304 -9.400501 -6.6995 -5.277 -3.9985 -3.851 -4.0015 -5.9525 
-10.3095 -10.4125 -8.787001 -5.277 -7.802 -4.0015 -7.314 
-11.3215 -12.5 -8.787001 -8.306001 -7.891 -7.314 
-13.409 -12.5 -11.9682 -8.349501 -11.4359 
-3.091 -4.121 -3.074 -4.424 -1.934 -3.9985 -2.0935 -3.9475 
-5.304 -7.193 -6.9425 -5.195 -5.277 -6.556 -5.601 
-8.107 -8.867001 -7.4525 -7.748001 -7.2635 -10.4669 
-9.4835 -9.755 -10.6095 -9.908001 -11.3182 
-10.5045 -12.9634 -12.7695 -14.2811 
-3.091 -4.121 -4.4025 -9.5895 -3.074 -4.424 -1.934 -3.9985 -2.5045 -3.777 -1.7565 -4.8425 -3.9475 
-5.304 -7.368001 -14.6606 -12.8793 -6.9425 -5.195 -5.277 -6.4575 -6.516001 -4.411 -6.0515 -5.3185 
-8.415 -17.8113 -17.9504 -16.7478 -7.4525 -7.748001 -6.969 -10.5225 -6.757 -8.988 -6.3195 
-19.1117 -21.1011 -21.8189 -17.2578 -10.6095 -9.85 -11.4222 -10.663 -11.3858 -9.295501 
-22.4015 -24.9696 -22.3289 -20.4148 -12.7115 -14.3878 -11.5627 -15.2918 -11.6933 
-4.121 -4.4025 -12.16972 -4.424 -3.433 -1.7565 -12.16972 -12.16972 -1.934 -1.4985 -3.158 -3.9985 
-7.368001 -17.24082 -16.59372 -6.81 -4.1845 -14.87542 -24.33944 -14.10372 -2.6125 -4.178 -6.1875 
-20.39152 -21.66482 -18.97972 -7.16 -18.19282 -27.04514 -26.27344 -14.78222 -5.265 -7.4375 
-24.81552 -24.05082 -19.32972 -21.31892 -30.36254 -28.97914 -26.95194 -17.43472 -8.022 
-27.20152 -24.40082 -33.48864 -33.48864 -32.29654 -29.65764 -29.60444 -20.19172 
