-4.759 
n/a 
n/a 
n/a 
n/a 
-4.759 
n/a 
n/a 
n/a 
n/a 
-4.759 
n/a 
n/a 
n/a 
n/a 
-4.759 
n/a 
n/a 
n/a 
n/a 
-1.8085 -3.326 -2.356 -4.1145 0 -3.8225 -7.603 -2.229 -4.1595 -2.356 -4.688 -5.3155 0 
-5.233 -5.8645 -7.047501 -4.1145 -3.8225 -7.743001 -9.4995 -6.084001 -4.8115 -7.351001 -7.5195 -5.3155 
-8.7115 -11.1432 -7.047501 -8.115 -7.743001 -9.959001 -13.6649 -6.5325 -8.788501 -9.045001 -7.5195 
-14.1764 -11.1432 -12.0396 -12.1767 -9.959001 -14.1244 -14.1134 -10.7675 -9.7925 -9.045001 
-14.1764 -16.1353 -16.1013 -14.3927 -14.1244 -14.5729 -18.3484 -11.7715 -9.7925 
-7.9275 -1.934 -4.3655 
-9.745501 -6.5045 
-14.4658 
n/a 
n/a 
-9.087001 -2.264 -4.688 -6.2935 -7.215 -3.42 
-11.6496 -7.369 -11.7235 -14.1195 -8.8345 
-16.7546 -14.8887 -19.5495 -15.739 
-24.2743 -22.7147 -21.169 
-32.1003 -24.3342 
-9.630501 -1.8085 -3.326 -12.16972 -3.8225 -8.1145 0 -3.013 -1.4985 -4.1595 
-11.782 -5.233 -16.80112 -15.99222 -12.9846 -8.1145 -3.013 -4.488 -5.371 
-15.2065 -20.07032 -20.62362 -25.15432 -12.9846 -11.4835 -4.488 -7.714 
-30.04382 -23.89282 -29.78572 -25.15432 -16.3536 -12.9585 -7.714 
-33.86632 -33.05492 -29.78572 -28.52332 -17.8286 -16.1845 
