-4.759 
n/a 
n/a 
n/a 
n/a 
-4.759 
n/a 
n/a 
n/a 
n/a 
-4.759 
n/a 
n/a 
n/a 
n/a 
-4.759 
n/a 
n/a 
n/a 
n/a 
-1.4985 -5.965 -3.2875 -2.229 -3.098 -4.164 -2.5045 -5.3885 -1.934 -3.9415 
-7.2945 -8.384501 -4.958 -4.8015 -6.175 -6.231 -8.4805 -7.4995 -5.2535 
-9.676001 -10.4302 -7.63 -7.738 -9.039001 -12.922 -10.119 -9.975 
-11.8413 -13.1022 -9.9145 -9.783001 -15.7878 -14.5605 -12.7387 
-14.5133 -15.3867 -12.2133 -16.9084 -17.4263 -17.1802 
-1.934 -3.9415 0 -1.4985 -3.2875 -1.7565 -5.965 -2.7415 -5.369 -2.5045 -5.3885 0 
-5.2535 -3.9415 -1.4985 -4.127 -4.3315 -7.106 -8.5935 -6.3245 -6.956 -8.4805 -5.3885 
-5.2535 -5.4665 -4.127 -4.75 -8.2825 -9.2985 -10.348 -7.699501 -10.4945 -8.4805 
-6.2755 -8.064501 -4.75 -8.833501 -10.513 -11.0646 -12.0538 -11.3788 -10.4945 
-8.4425 -8.5505 -8.833501 -10.6875 -12.2791 -12.7704 -15.7331 -11.3788 
-1.4985 -3.2875 -3.098 -5.965 -3.7555 -4.164 -3.222 -5.3885 -1.934 -3.9415 
-4.127 -5.8975 -9.337501 -10.368 -7.395 -6.4655 -9.0765 -7.4995 -5.2535 
-6.985001 -13.1408 -13.9179 -14.0075 -8.838 -12.5694 -10.703 -9.975 
-14.7699 -17.7212 -17.5574 -15.4505 -15.1751 -14.1959 -13.1785 
-19.3503 -21.3607 -19.0004 -21.7876 -16.8016 -16.6714 
-1.4985 -3.098 -1.7565 -1.4985 -3.2875 -5.965 -3.251 -3.1125 -4.164 -1.934 -3.9415 0 
-4.3095 -4.3615 -2.4195 -4.127 -8.367001 -9.166 -4.28 -5.73 -5.572 -5.2535 -3.9415 
-4.5915 -4.731 -4.8825 -10.494 -12.583 -9.9875 -7.1225 -7.038 -8.58 -5.2535 
-4.858 -6.9945 -11.5165 -14.71 -13.4045 -12.909 -8.314 -10.586 -8.58 
-7.046 -14.1635 -15.7325 -15.5315 -16.326 -14.1005 -12.0358 -10.586 
