-4.759 
n/a 
n/a 
n/a 
n/a 
-4.759 
n/a 
n/a 
n/a 
n/a 
-4.759 
n/a 
n/a 
n/a 
n/a 
-4.759 
n/a 
n/a 
n/a 
n/a 
-3.564 -4.175 -4.6195 -3.2795 -3.251 -2.664 -4.156 -2.264 -1.4985 -3.6605 -4.7425 
-8.543501 -7.927 -8.381001 -6.076 -5.003 -5.2155 -5.1655 -2.9195 -4.6365 -4.8735 
-13.3221 -12.2623 -11.4939 -7.692 -7.3885 -5.5985 -5.8495 -6.0045 -6.350501 
-17.6574 -15.3752 -13.1099 -10.3887 -8.187 -6.3 -9.047001 -7.818 
-20.7703 -16.9912 -15.8066 -11.1872 -8.7045 -9.31 -11.1109 
-4.9535 -3.6765 -1.7565 -4.6195 -3.7575 -4.2485 
-7.094 -5.5875 -5.900001 -9.067 -8.278 
-9.5115 -10.714 -10.8833 -14.1865 
-14.8774 -15.6973 -16.0028 
-19.8607 -20.8168 
-1.4985 -2.9775 -1.7565 -4.6195 -3.0695 -3.456 -2.0935 -1.4985 -3.6605 -4.7425 
-4.4135 -4.9315 -5.900001 -6.192 -5.975 -4.9175 -2.9725 -4.6365 -4.8735 
-6.581 -9.295601 -7.257501 -9.2375 -6.6965 -5.7705 -6.0115 -6.350501 
-11.5473 -10.6531 -10.421 -9.486501 -7.759 -9.599501 -8.0365 
-12.9048 -13.8166 -10.67 -10.453 -11.8498 -11.9445 
-4.873 -2.229 -2.9775 -2.0935 -3.6605 -4.7425 0 
-6.5005 -5.003 -4.7585 -5.4635 -4.8735 -4.7425 
-10.1675 -5.953 -8.584001 -6.718 -4.8735 
-11.1175 -11.0293 -10.31 -6.718 
-16.1938 -12.7553 -10.31 
