-4.759 
n/a 
n/a 
n/a 
n/a 
-4.759 
n/a 
n/a 
n/a 
n/a 
-4.759 
n/a 
n/a 
n/a 
n/a 
-4.759 
n/a 
n/a 
n/a 
n/a 
-5.2545 -1.934 -3.0835 -3.188 -3.8275 
-7.0515 -5.331 -5.7815 -4.801 
-11.1025 -7.8675 -5.963 
-13.639 -8.5675 
-14.339 
-5.2545 -1.934 -1.4985 -3.0835 -3.188 -8.2535 -1.7565 -1.4985 -3.6115 -4.7285 -4.1555 -3.147 0 
-7.0515 -2.6125 -3.535 -5.7815 -9.9665 -10.037 -2.4195 -4.081 -6.5495 -8.4455 -5.77 -3.147 
-7.745501 -4.5575 -6.070001 -11.836 -11.8405 -10.643 -5.180501 -6.670501 -9.978001 -9.541501 -5.77 
-9.428 -6.974 -11.9589 -12.8979 -12.324 -13.152 -7.797 -10.054 -11.0524 -9.541501 
-10.486 -13.3067 -13.5602 -13.3814 -14.833 -14.927 -11.2985 -11.1648 -11.0524 
-5.2545 -1.934 -3.0835 -3.188 -3.8275 
-7.0515 -5.331 -5.7815 -4.801 
-11.1025 -7.8675 -5.963 
-13.639 -8.5675 
-14.339 
-1.934 -3.0835 -3.188 -3.8275 
-5.331 -5.7815 -4.801 
-7.8675 -5.963 
-8.5675 
n/a 
