-4.759 
n/a 
n/a 
n/a 
n/a 
-4.759 
n/a 
n/a 
n/a 
n/a 
-4.759 
n/a 
n/a 
n/a 
n/a 
-4.759 
n/a 
n/a 
n/a 
n/a 
-9.2615 -2.7415 -4.1205 -2.5045 -1.4985 -3.42 -1.7565 -6.946 
-10.762 -5.631001 -5.3175 -3.583 -4.6695 -4.703 -8.436 
-13.6985 -6.993001 -6.431 -7.0495 -5.672501 -11.9195 
-15.5513 -7.827001 -10.2375 -7.989501 -13.3648 
-16.3853 -11.7521 -10.6815 -15.6906 
-7.245501 -3.0695 -3.251 -4.253 -5.9445 -3.091 -5.246 -2.5195 -6.946 
-10.6476 -4.7295 -6.4595 -9.918001 -7.495 -7.1505 -7.085001 -9.1545 
-12.3076 -7.4685 -12.8167 -11.6331 -10.287 -8.7285 -14.291 
-15.0466 -13.9527 -14.5318 -14.4251 -11.865 -16.2169 
-21.5308 -15.6678 -17.3238 -16.0031 -19.3534 
-6.946 -2.229 -5.73 -2.186 -9.2615 0 
-8.8615 -7.1705 -7.7145 -10.5415 -7.1665 
-14.0016 -9.101001 -16.2697 -10.459 
-15.9321 -17.7279 -16.2292 
-24.559 -17.7279 
-9.2615 -3.0695 -2.7415 -4.1205 -2.5045 -9.4405 0 -2.229 -5.8245 
-11.269 -4.6395 -5.631001 -5.3175 -12.8624 -9.4405 -2.229 -7.308001 
-13.2 -7.5465 -6.993001 -16.2346 -12.8624 -11.117 -7.308001 
-16.44 -9.195001 -18.2151 -16.2346 -14.5389 -16.196 
-18.0885 -20.5693 -18.2151 -17.9111 -19.6179 
