-4.759 
n/a 
n/a 
n/a 
n/a 
-4.759 
n/a 
n/a 
n/a 
n/a 
-4.759 
n/a 
n/a 
n/a 
n/a 
-4.759 
n/a 
n/a 
n/a 
n/a 
-2.9805 -5.3075 -4.4655 -3.586 -3.8745 -4.675 -1.934 -5.8 
-6.816501 -10.733 -6.8085 -8.296 -7.775001 -6.7635 -7.6785 
-12.6268 -13.076 -12.4085 -12.9583 -10.523 -12.9222 
-14.9698 -18.676 -17.0708 -15.7063 -17.9883 
-20.5698 -23.3383 -19.8188 -23.1716 
-1.934 -5.8 -9.324 -7.568501 -4.675 
-7.6785 -15.7078 -17.2947 -12.8801 
-17.9481 -23.6785 -22.6063 
-25.9188 -28.9901 
-31.2304 
-2.9805 -3.557 -1.4985 -3.8325 -1.7565 -1.4985 0 -4.303 -3.586 0 -3.8375 -1.934 -5.8 0 
-5.566 -4.757 -4.779 -4.732 -2.4195 -1.4985 -4.303 -9.1495 -3.586 -3.8375 -5.7375 -7.6785 -5.8 
-6.537001 -8.2355 -5.6225 -5.8965 -2.4195 -5.68 -9.1495 -9.1495 -7.771001 -5.7375 -10.586 -7.6785 
-10.1545 -8.4755 -6.7145 -5.8965 -6.5445 -11.2939 -9.1495 -13.8253 -9.876 -10.586 -10.586 
-10.3945 -10.5975 -6.7145 -11.0127 -12.2984 -11.2939 -13.8253 -15.9303 -14.6743 -10.586 
-1.934 -5.8 -2.9805 -4.663 -4.4655 -3.586 -5.0465 0 
-7.6785 -8.6175 -6.4115 -8.331 -6.8085 -7.341001 -5.0465 
-8.882501 -12.3715 -9.852501 -10.4675 -7.473501 -7.341001 
-12.6651 -15.8125 -12.0418 -11.1325 -7.473501 
-16.1061 -18.0018 -12.7068 -11.1325 
