-4.759 
n/a 
n/a 
n/a 
n/a 
-4.759 
n/a 
n/a 
n/a 
n/a 
-4.759 
n/a 
n/a 
n/a 
n/a 
-4.759 
n/a 
n/a 
n/a 
n/a 

n/a 
n/a 
n/a 
n/a 
-2.3615 -3.7075 -3.3425 -3.6845 -1.4985 -3.645 
-5.029 -6.2095 -8.0425 -4.7485 -5.410501 
-8.094 -11.3555 -9.535501 -9.0815 
-13.4776 -12.8485 -14.1191 
-14.9706 -17.4321 
-2.3615 -3.319 -4.078 -1.4985 -3.4635 -4.2915 0 
-4.9575 -7.256001 -4.947 -3.6265 -6.502501 -4.2915 
-8.674001 -7.923 -6.5265 -6.5065 -6.502501 
-9.0205 -9.519001 -10.361 -6.5065 
-11.2455 -13.8407 -10.361 
-2.4265 -2.186 -3.402 -2.264 -1.4985 -3.4635 -4.2915 0 
-3.292 -4.6135 -3.793 -2.9195 -3.6265 -6.502501 -4.2915 
-5.853 -4.731 -4.34 -5.317 -6.5065 -6.502501 
-5.9535 -5.172 -6.145 -8.948501 -6.5065 
-6.4615 -6.846 -10.2975 -8.948501 
