-4.759 
n/a 
n/a 
n/a 
n/a 
-4.759 
n/a 
n/a 
n/a 
n/a 
-4.759 
n/a 
n/a 
n/a 
n/a 
-4.759 
n/a 
n/a 
n/a 
n/a 
-9.691 -2.229 -4.138 -1.7565 -3.9035 -1.7695 -6.184 -3.2015 -1.756 -4.315 -4.126 0 
-12.1438 -6.438 -5.1845 -5.809 -5.916 -8.6295 -10.7025 -4.741 -6.767 -8.577 -4.126 
-16.3528 -8.471001 -10.328 -7.441501 -13.3034 -13.3178 -12.242 -10.2135 -11.5626 -8.577 
-18.3858 -13.6453 -11.9605 -15.0979 -17.9917 -14.8573 -17.7145 -15.2189 -11.5626 
-23.5601 -15.2778 -19.6169 -19.7862 -19.5312 -20.3298 -22.7199 -15.2189 
-1.934 -4.3185 -4.4715 -4.0995 -7.8855 
-5.6425 -9.314 -8.407001 -8.790501 
-9.7605 -13.3703 -13.6694 
-13.9116 -18.6327 
-19.174 
-3.17 -1.7565 -1.4985 -3.355 -1.934 -4.3185 -1.756 -6.184 -4.0995 -4.418 -2.4945 -5.2415 0 
-4.179 -2.4195 -4.951 -4.8475 -5.6425 -5.958 -8.139 -10.382 -6.815001 -5.929 -7.9715 -5.2415 
-4.497 -6.329 -6.9215 -9.848001 -6.668 -10.66 -12.6656 -13.0975 -8.4685 -12.0544 -7.9715 
-8.546 -8.023001 -12.257 -11.0475 -11.5194 -15.1866 -15.3811 -14.751 -14.7329 -12.0544 
-10.218 -13.6565 -13.4565 -15.8989 -16.046 -17.9021 -17.0346 -21.0154 -14.7329 
-3.3715 -3.9035 -1.7565 -4.3185 -2.4945 -4.918 -3.4425 
-5.995 -4.616 -5.496 -7.315001 -8.6075 -8.43 
-6.0855 -7.8795 -8.170501 -13.6632 -12.4301 
-9.319 -9.628 -14.5853 -17.4858 
-10.554 -16.0428 -18.4079 
