-4.759 
n/a 
n/a 
n/a 
n/a 
-4.759 
n/a 
n/a 
n/a 
n/a 
-4.759 
n/a 
n/a 
n/a 
n/a 
-4.759 
n/a 
n/a 
n/a 
n/a 
-4.8085 -3.8195 -2.264 -5.4425 -6.5625 
-6.085001 -6.0815 -8.51 -7.282 
-7.5565 -12.8391 -10.281 
-14.5801 -14.6101 
-16.3511 
-4.8085 -3.8195 -2.7455 -5.4425 -6.5625 
-6.085001 -6.007 -8.507 -7.282 
-7.313001 -12.3725 -10.533 
-13.8861 -14.3985 
-15.9121 
-4.8085 -3.8195 -2.264 -5.4425 -6.5625 
-6.085001 -6.0815 -8.51 -7.282 
-7.5565 -12.8391 -10.281 
-14.5801 -14.6101 
-16.3511 
-3.815 -3.8195 -2.7455 -9.1835 -6.5625 0 -3.098 0 
-5.729 -6.007 -10.0845 -9.251 -6.5625 -3.098 -3.098 
-7.217 -13.583 -12.6745 -9.601001 -10.6605 -3.098 
-14.7056 -15.7981 -12.6745 -14.3258 -10.6605 
-17.3795 -15.7981 -17.3993 -14.3258 
