-4.759 
n/a 
n/a 
n/a 
n/a 
-4.759 
n/a 
n/a 
n/a 
n/a 
-4.759 
n/a 
n/a 
n/a 
n/a 
-4.759 
n/a 
n/a 
n/a 
n/a 
-5.1845 -3.1385 -2.4945 -4.7155 -3.9655 0 -4.1975 -1.756 -2.8965 -4.4 -2.356 -7.252 -3.994 -1.756 -4.3455 -3.45 -4.282 0 
-7.4095 -4.588 -6.996 -8.125 -3.9655 -4.1975 -5.773 -3.751 -6.965 -5.9475 -7.850501 -6.6055 -5.313 -5.1205 -7.1615 -6.865 -4.282 
-8.7805 -9.1835 -10.7025 -8.125 -9.092 -5.773 -7.558001 -7.974501 -8.704 -10.771 -8.3695 -6.797 -9.938 -7.936501 -8.6665 -6.865 
-13.5934 -12.9872 -10.7025 -14.1027 -10.209 -7.558001 -12.4551 -9.515 -13.3433 -10.642 -9.0865 -11.8943 -12.873 -9.149 -8.6665 
-17.3971 -12.9872 -16.6802 -15.2197 -11.994 -12.4551 -13.9956 -14.1793 -13.4623 -11.8795 -14.0477 -14.7597 -14.0855 -9.149 
-1.4985 -6.4735 -2.4945 -3.8245 -1.934 -1.4985 -3.502 -3.75 -3.994 -2.0935 -3.8355 0 -3.9675 -1.756 -3.9655 -4.4 0 
-7.190001 -7.8895 -5.751 -4.7245 -2.6125 -4.5955 -5.0795 -5.276 -6.486 -5.78 -3.8355 -3.9675 -4.9775 -5.0755 -6.5085 -4.4 
-8.530001 -9.504001 -6.158 -5.4215 -5.258 -5.9935 -5.751 -7.8005 -9.318001 -5.78 -8.012001 -4.9775 -7.773 -8.1335 -6.5085 
-10.5325 -9.7075 -6.855 -7.514 -6.441501 -7.37 -8.092 -10.7595 -9.318001 -9.7065 -8.643001 -7.773 -10.586 -8.1335 
-10.736 -10.7535 -9.570001 -8.776501 -7.7375 -10.3605 -11.123 -10.7595 -13.7011 -10.236 -11.7115 -10.586 -10.586 
-3.3715 -6.4735 -2.4945 -5.5495 -1.934 -7.252 -4.317 -3.959 -1.756 -2.4945 -3.074 -4.7155 -1.8085 -6.2085 -4.177 -2.356 -3.277 -4.154 -3.8355 0 -3.97 -1.756 -3.9675 0 
-8.4685 -7.8895 -7.365 -5.777 -6.393001 -7.1755 -6.091001 -5.173 -4.2725 -4.4205 -7.3915 -5.5245 -7.165 -7.889501 -4.944 -4.76 -7.0535 -7.729501 -3.8355 -3.97 -5.137 -4.942 -3.9675 
-9.5775 -13.0362 -7.6785 -9.754001 -7.745501 -7.8605 -7.3005 -7.266 -6.327001 -8.7465 -8.007 -9.5035 -8.253 -8.219001 -6.862 -8.0585 -11.0482 -7.729501 -7.650001 -5.137 -6.5465 -4.942 
-14.758 -13.3497 -11.507 -11.52 -9.062 -8.814 -9.535501 -9.295501 -10.609 -9.379001 -12.1576 -9.842001 -8.532001 -9.3815 -10.4855 -12.3254 -11.0482 -12.0516 -8.3785 -6.5465 -6.5465 
-15.0715 -17.2074 -13.7688 -12.4601 -9.85 -11.1615 -11.565 -13.6463 -11.2415 -13.5988 -12.4961 -9.972 -10.2645 -13.5576 -14.7524 -12.3254 -15.3703 -12.7801 -8.972501 -6.5465 
-6.4735 -3.251 -3.301 -5.752 -2.356 -3.502 -3.75 -4.317 -3.1385 -1.934 -1.4985 -4.146 -1.7565 -3.8355 -1.756 -4.2785 0 
-8.791 -6.1315 -7.31 -6.535 -6.273001 -5.0795 -5.846001 -7.0565 -4.522 -2.6125 -6.910501 -7.421 -5.261 -5.1405 -5.7985 -4.2785 
-11.7231 -9.191501 -7.522 -10.717 -7.698 -6.633 -8.814001 -8.344501 -5.087501 -7.5595 -7.807 -11.2271 -6.127501 -6.7805 -5.7985 
-14.7831 -9.3125 -11.8228 -12.142 -8.885 -9.7135 -10.361 -8.927501 -10.2335 -7.889 -11.7413 -12.0936 -7.4875 -6.7805 
-14.9041 -13.7701 -13.2478 -13.329 -12.1387 -11.2605 -10.944 -14.2811 -10.6065 -11.8365 -12.6078 -13.4536 -7.4875 
