-4.759 
n/a 
n/a 
n/a 
n/a 
-4.759 
n/a 
n/a 
n/a 
n/a 
-4.759 
n/a 
n/a 
n/a 
n/a 
-4.759 
n/a 
n/a 
n/a 
n/a 
-18.465 -3.3155 -3.599 -4.625 -1.934 -3.299 0 
-22.0328 -7.200001 -7.273001 -6.2 -4.976501 -3.299 
-25.6668 -9.797001 -8.943001 -8.9725 -4.976501 
-28.617 -11.8708 -11.9213 -8.9725 
-30.6908 -14.8491 -11.9213 
-2.645 -3.599 -4.625 -3.892 
-6.21 -7.273001 -7.9665 
-10.7335 -11.0647 
-14.5252 
n/a 
-3.5515 -1.7565 -4.088 -3.3155 -1.4985 -4.625 -1.7565 -3.599 -2.186 -3.299 0 
-5.0325 -5.737 -5.6105 -4.1745 -5.8145 -5.575 -5.282 -5.8475 -5.5155 -3.299 
-9.883 -7.013 -6.4285 -7.785 -6.12 -7.8915 -7.405 -9.061001 -5.5155 
-11.21 -8.012 -9.9375 -8.113501 -8.1545 -8.999001 -10.4265 -9.061001 
-12.209 -11.6588 -10.1545 -10.3155 -9.072001 -12.3077 -10.4265 
-17.911 -4.418 -1.7565 -3.6605 -3.599 -5.21 
-22.8705 -5.347 -5.1155 -7.177501 -6.989 
-24.3266 -9.288 -8.3555 -9.967001 
-26.4391 -10.397 -10.1385 
-26.4656 -10.4095 
