-4.759 
n/a 
n/a 
n/a 
n/a 
-4.759 
n/a 
n/a 
n/a 
n/a 
-4.759 
n/a 
n/a 
n/a 
n/a 
-4.759 
n/a 
n/a 
n/a 
n/a 
-2.264 -2.1715 -2.882 -5.793 0 -1.4985 -3.4225 -4.0965 -1.7565 -3.4155 -4.559 -2.7415 -3.8755 -2.3345 -1.4985 -3.9655 -4.0375 -1.7565 -1.4985 -4.0965 -1.7565 -4.088 0 -2.9705 -3.9285 -4.4925 -2.5045 -3.502 -4.559 0 -1.756 -1.4985 -4.0965 -1.7565 -4.4755 -2.5045 -3.5455 -4.559 
-4.9135 -5.198 -8.3345 -5.793 -1.4985 -3.9655 -4.2 -5.308001 -5.0175 -5.0845 -6.7625 -5.065001 -4.4955 -3.233 -4.9875 -7.1755 -5.415501 -2.4195 -5.3165 -5.308001 -5.0835 -4.088 -2.9705 -5.636001 -9.405001 -6.948501 -6.596001 -7.967501 -4.559 -1.756 -3.0405 -5.3165 -5.308001 -5.463 -6.870501 -6.634501 -8.0315 
-6.8385 -9.004001 -8.3345 -7.948501 -3.9655 -5.179 -6.4155 -6.442501 -5.8855 -7.5375 -9.535501 -5.7145 -5.454 -6.78 -8.42 -8.2725 -6.3465 -6.0115 -5.565 -7.708001 -5.0835 -6.903501 -5.636001 -9.9455 -12.0932 -11.6252 -11.5549 -7.967501 -5.633 -3.0405 -6.489 -5.565 -8.038 -7.707001 -10.3105 -10.0225 
-9.445001 -9.004001 -9.726501 -10.164 -5.179 -6.814 -6.4625 -6.447001 -8.153501 -9.781 -10.0835 -6.4495 -8.837501 -9.8175 -8.8475 -8.99 -9.401501 -6.295001 -7.951 -7.708001 -7.541501 -9.177 -9.9455 -13.0009 -16.7699 -16.5841 -11.5549 -9.633 -6.4775 -6.489 -6.55 -8.198501 -9.93 -11.1838 -10.453 
-9.445001 -9.885501 -12.231 -10.251 -6.814 -6.9035 -6.466 -9.450001 -9.961 -10.231 -10.2615 -9.7545 -10.0035 -9.908501 -9.349 -10.172 -9.477 -8.5255 -7.951 -9.598001 -9.724501 -10.029 -13.0009 -17.6776 -21.7288 -16.5841 -13.2204 -10.6251 -9.5445 -6.55 -9.278501 -10.099 -13.4412 -11.3263 
-7.036 -6.602 -4.0375 -5.2875 -2.229 -2.7415 -3.321 -3.849 -1.4985 -4.4755 -2.5045 -3.5455 -4.559 -1.756 -1.4985 -4.088 -2.5045 -3.502 -4.559 -2.5195 -1.4985 -4.1 -1.7565 -5.793 
-14.4142 -10.404 -10.586 -7.497001 -5.767 -5.3435 -6.433001 -4.7705 -6.7445 -6.870501 -6.634501 -8.0315 -5.633 -3.0405 -6.322001 -6.4635 -6.596001 -7.967501 -6.779 -3.1695 -5.0695 -5.164001 -8.169001 
-18.2162 -16.9525 -12.7955 -11.3482 -8.7235 -7.147 -7.163 -9.755501 -10.275 -10.3105 -10.0225 -9.186501 -6.4775 -7.935501 -9.802501 -10.27 -11.5549 -10.6215 -7.5075 -7.1115 -5.5715 -12.6353 
-24.7647 -19.162 -16.6467 -14.3047 -10.7335 -7.727 -12.3892 -13.8506 -13.715 -10.453 -11.1775 -10.2595 -12.2333 -11.5788 -13.517 -15.6831 -14.2089 -11.35 -11.9877 -7.681 -13.3416 
-26.9742 -23.0132 -19.6032 -16.3147 -11.3135 -13.0912 -16.4843 -17.2906 -13.8575 -11.608 -12.2505 -16.0153 -15.8766 -15.2933 -18.9301 -18.3371 -14.9374 -15.8302 -12.5572 -15.3357 
-4.426 -1.7565 -1.4985 -3.6115 -4.7285 -4.1555 -3.147 0 -7.920001 -10.1965 -3.699 -4.838 0 -2.871 -8.486501 -5.793 -4.9475 -3.135 -3.277 0 -5.8505 0 -7.385 -9.409 0 -1.7565 -4.088 -1.756 -10.225 0 -7.3495 -7.315001 0 -2.264 -3.849 -10.678 
-5.47 -2.4195 -4.081 -6.5495 -8.4455 -5.77 -3.147 -7.920001 -18.6237 -13.9483 -9.1485 -4.838 -2.871 -12.5555 -14.5487 -11.3271 -7.8925 -5.790501 -3.277 -5.8505 -5.8505 -7.385 -17.5866 -9.409 -1.7565 -5.0835 -5.1965 -12.9896 -10.225 -7.3495 -15.3799 -7.315001 -2.264 -6.763 -14.6876 
-5.9535 -5.180501 -6.670501 -9.978001 -9.541501 -5.77 -11.9152 -18.6237 -22.3755 -19.3978 -9.1485 -7.640501 -12.5555 -18.6177 -20.0828 -14.2721 -10.8172 -5.790501 -9.6975 -5.8505 -14.3799 -17.5866 -17.5866 -11.2415 -5.0835 -6.123 -17.7177 -12.9896 -17.6691 -15.3799 -15.3799 -9.9645 -6.763 -18.3104 
-8.462501 -7.797 -10.054 -11.0524 -9.541501 -14.6792 -22.6189 -22.3755 -27.825 -19.3978 -12.3468 -17.9206 -18.6177 -24.1518 -23.0278 -17.1968 -10.8172 -12.836 -9.6975 -14.3799 -24.5815 -17.5866 -19.4191 -14.5685 -6.123 -18.7456 -17.7177 -20.4337 -25.6995 -15.3799 -18.0294 -14.6527 -18.3104 
-10.2375 -11.2985 -11.1648 -11.0524 -18.4507 -25.3829 -26.3707 -27.825 -27.825 -22.5961 -22.6269 -23.9828 -24.1518 -27.0968 -25.9525 -17.1968 -17.8627 -12.836 -18.2185 -24.5815 -24.5815 -19.4191 -22.7461 -15.608 -18.7456 -18.7456 -25.1618 -28.4641 -25.6995 -18.0294 -22.7176 -26.2001 
-8.590501 -6.2365 -3.875 -10.488 -1.756 -3.5035 -5.793 -3.3255 -1.4985 -3.5035 -1.756 -4.353 -3.135 -3.436 -3.158 0 -4.4755 -3.5455 -6.982501 -1.7695 -4.088 -1.756 -8.226501 -3.502 -6.2365 -3.849 -4.0955 
-15.1818 -10.9953 -15.3626 -12.244 -5.3985 -10.2235 -9.7605 -3.8945 -4.4895 -4.74 -6.036 -7.754001 -7.308001 -7.074 -3.158 -4.4755 -6.781 -11.117 -9.374001 -5.860001 -5.1965 -10.9575 -11.136 -11.117 -10.3545 -8.4775 
-19.9406 -22.4829 -17.1186 -15.8865 -12.7711 -14.191 -10.3919 -7.317 -5.6635 -8.8815 -9.309501 -12.2418 -11.408 -7.074 -8.314 -6.781 -15.6677 -13.5085 -13.5389 -6.7355 -15.6856 -13.867 -18.751 -15.235 -14.983 
-31.4282 -24.2389 -20.7611 -23.2591 -16.7386 -14.8224 -13.8144 -8.573 -9.321501 -12.8322 -13.8607 -16.3418 -11.408 -13.5618 -10.9525 -15.6677 -18.0592 -17.6734 -14.4144 -17.2076 -18.5951 -21.482 -22.869 -19.8635 
-33.1842 -27.8814 -28.1337 -27.2266 -17.37 -18.2449 -15.0704 -12.4618 -13.14 -17.3834 -17.9607 -16.3418 -17.8958 -16.2003 -19.8392 -18.0592 -22.2241 -18.5489 -24.8865 -20.1171 -26.2101 -25.6 -27.4975 
