-4.759 
n/a 
n/a 
n/a 
n/a 
-4.759 
n/a 
n/a 
n/a 
n/a 
-4.759 
n/a 
n/a 
n/a 
n/a 
-4.759 
n/a 
n/a 
n/a 
n/a 
-3.2615 -3.8275 -2.925 -3.6845 -3.4865 -3.2895 
-7.115 -6.4895 -5.672 -6.804501 -6.9145 
-9.779 -9.7755 -8.899501 -9.058001 
-13.1096 -13.053 -11.1894 
-16.3871 -15.3429 
-3.2615 -4.5165 -4.065 -4.0645 -2.985 -4.1645 
-8.0205 -8.393 -10.3045 -7.0245 -6.634501 
-12.6254 -15.1049 -13.2645 -11.268 
-19.3373 -18.0649 -17.508 
-22.2973 -22.3084 
-3.436 -1.4985 -3.8275 -5.1605 -1.7695 -1.4985 -6.009 
-4.213 -4.726 -9.4735 -7.394 -2.7955 -7.1975 
-6.4625 -10.2925 -11.7508 -8.824 -8.436501 
-12.1968 -12.5698 -13.1808 -14.9346 
-14.4741 -13.9998 -19.2914 
-3.2615 -1.4985 -3.8275 -3.693 -7.378 -4.0555 -1.7695 -1.4985 -4.1 0 
-4.032 -4.726 -7.3325 -11.8518 -11.117 -4.7475 -2.7955 -5.0695 -4.1 
-6.0085 -8.363501 -15.7131 -15.5908 -11.809 -5.5315 -6.227 -5.0695 
-9.788 -16.8397 -19.4521 -16.2828 -12.593 -9.896501 -6.227 
-18.2642 -20.5787 -20.1441 -17.0668 -16.958 -9.896501 
