-4.759 
n/a 
n/a 
n/a 
n/a 
-4.759 
n/a 
n/a 
n/a 
n/a 
-4.759 
n/a 
n/a 
n/a 
n/a 
-4.759 
n/a 
n/a 
n/a 
n/a 
-6.341 -5.585 -2.0935 -3.8445 -3.7575 
-9.0455 -7.5715 -5.45 -8.789001 
-11.0662 -11.3888 -11.0979 
-14.8835 -17.0367 
-20.5314 
-3.8445 -4.285 -1.7565 -11.0235 0 
-7.851 -5.759 -13.7292 -11.0235 
-8.516001 -18.6231 -13.7292 
-22.0335 -18.6231 
-22.0335 
-3.8445 -8.0255 -1.7565 -4.3055 -6.341 
-13.043 -9.6975 -6.1225 -7.64 
-14.715 -14.1927 -8.248 
-19.2102 -16.3182 
-21.3357 
-3.8445 -8.0255 -1.7565 -4.3055 -5.923 
-13.043 -9.6975 -6.1225 -7.0665 
-14.715 -14.1927 -7.6175 
-19.2102 -15.6877 
-20.7052 
