-4.759 
n/a 
n/a 
n/a 
n/a 
-4.759 
n/a 
n/a 
n/a 
n/a 
-4.759 
n/a 
n/a 
n/a 
n/a 
-4.759 
n/a 
n/a 
n/a 
n/a 
-1.934 -3.2875 -3.133 -3.868 -1.7565 -3.1385 -3.511 -1.934 -6.011 -3.4425 
-5.724 -6.934 -5.5815 -4.3875 -4.388 -5.979 -4.582 -7.627 -7.779 
-9.610001 -9.745001 -6.055 -6.494 -7.409501 -6.5055 -8.6 -9.326 
-12.4954 -10.1925 -8.291 -8.883501 -7.862 -9.812501 -10.8594 
-12.9429 -12.5065 -10.8687 -9.416 -11.3196 -12.0503 
-3.133 0 -1.7565 -1.4985 -4.9225 -3.511 -1.934 -1.4985 -5.327 
-3.133 -1.7565 -2.4195 -6.040501 -8.092 -4.582 -2.6125 -6.504001 
-5.153501 -2.4195 -6.704 -9.918001 -8.541 -5.3785 -7.557001 
-5.864501 -6.704 -10.8909 -10.527 -9.284 -9.9055 
-10.7414 -10.8909 -11.4999 -11.27 -13.8654 
-1.934 -1.8085 -3.2875 -3.133 -4.4345 -1.7565 -3.1385 -3.152 -3.8245 -1.934 -1.4985 -6.104 
-3.2685 -5.0185 -6.934 -7.3765 -4.719 -4.388 -5.219 -6.242001 -4.7245 -2.6125 -7.1855 
-6.052001 -9.4835 -11.6503 -8.0465 -6.56 -6.524001 -7.489 -6.595 -5.4215 -8.2295 
-10.4505 -14.342 -12.3203 -10.0605 -9.168 -9.080501 -7.908501 -7.3165 -10.067 
-15.309 -15.012 -14.3343 -12.7449 -11.7847 -9.443501 -8.635501 -12.0996 
-3.133 0 -1.7565 -1.4985 -4.9225 -3.511 -1.934 -1.4985 -5.327 
-3.133 -1.7565 -2.4195 -6.040501 -8.092 -4.582 -2.6125 -6.504001 
-5.153501 -2.4195 -6.704 -9.918001 -8.541 -5.3785 -7.557001 
-5.864501 -6.704 -10.8909 -10.527 -9.284 -9.9055 
-10.7414 -10.8909 -11.4999 -11.27 -13.8654 
