-4.759 
n/a 
n/a 
n/a 
n/a 
-4.759 
n/a 
n/a 
n/a 
n/a 
-4.759 
n/a 
n/a 
n/a 
n/a 
-4.759 
n/a 
n/a 
n/a 
n/a 
-2.3615 -6.055501 -3.4515 -2.5195 -1.4985 -4.9375 -1.7565 -1.4985 -3.995 0 -1.756 -4.4125 -1.4985 -4.783 -2.5045 -1.4985 -5.936 -1.7695 -2.489 -3.7145 -4.323 -4.232 -3.1575 -1.4985 -4.918 
-8.3765 -9.591501 -4.9135 -3.1695 -5.8885 -5.944 -2.4195 -4.712 -3.995 -1.756 -5.9145 -5.4735 -5.9665 -6.8085 -3.1915 -6.1495 -7.455501 -3.1405 -7.429 -7.1215 -9.189501 -5.202001 -4.1355 -6.002501 
-10.6215 -9.810501 -5.5095 -7.6685 -6.566501 -6.2175 -5.2205 -4.712 -5.3025 -5.9145 -6.929 -9.791501 -8.136001 -7.322 -7.1235 -7.5695 -9.460001 -8.115001 -10.451 -10.523 -9.436501 -5.787001 -8.781501 
-10.642 -9.908501 -9.6 -8.406 -6.744501 -7.3685 -5.2205 -5.7925 -9.124001 -6.929 -10.6465 -10.736 -8.490001 -9.3175 -8.6595 -9.541 -10.735 -10.5975 -13.8525 -10.5595 -9.958001 -10.1265 
-10.701 -10.742 -9.732 -8.597 -7.508 -7.3685 -6.3135 -9.319 -9.803 -10.6465 -10.7545 -10.7625 -9.953001 -10.6225 -10.2585 -10.7345 -10.7615 -13.999 -13.889 -10.587 -10.5925 
-3.995 -1.7565 -4.4695 -1.7695 -3.458 -3.922 -1.7695 -4.4295 -1.4985 -4.1165 -1.7695 -3.7145 -6.116 -4.653 -3.922 0 
-6.804 -6.786 -6.528 -6.380001 -8.5415 -5.883 -4.984 -5.163 -5.585 -6.5295 -6.1425 -9.863001 -8.762 -8.692501 -3.922 
-12.3763 -8.916 -11.5607 -12.1961 -10.6345 -10.064 -5.639 -9.894001 -7.4915 -11.6413 -13.059 -12.642 -12.9611 -8.692501 
-14.5063 -14.0175 -17.3768 -14.2891 -14.8155 -10.473 -10.253 -11.7493 -13.0029 -18.5578 -15.838 -16.8411 -12.9611 
-19.6078 -19.8336 -19.4698 -18.4701 -15.2245 -15.087 -12.1969 -17.2607 -19.9194 -21.3368 -20.0371 -16.8411 
-3.995 -4.07 -1.934 -1.4985 -5.936 -1.934 -3.7145 -6.142 0 
-8.1785 -6.0205 -2.6125 -6.1495 -7.4785 -6.526 -9.202001 -5.1775 
-10.348 -6.7575 -8.52 -7.5615 -12.6539 -12.857 -9.410501 
-10.6715 -12.999 -10.1544 -12.8439 -18.9849 -12.857 
-16.913 -14.6334 -15.4368 -19.1749 -18.9849 
-3.995 -2.229 -4.9375 -3.5185 -3.818 -3.7345 0 -5.936 -5.1945 -3.7145 -5.513 -2.645 -3.034 -4.913 -1.7695 -5.2415 
-5.324 -6.736001 -8.919001 -7.395 -8.0575 -3.7345 -5.936 -10.3045 -10.5435 -8.783 -8.1145 -5.941501 -6.1455 -6.391 -7.646501 
-7.0505 -10.533 -13.0911 -10.27 -8.0575 -10.259 -10.3045 -15.6535 -15.612 -11.5635 -12.0728 -9.342501 -7.7345 -13.063 
-10.5425 -14.7051 -15.9661 -10.27 -15.0842 -14.7879 -15.6535 -20.722 -18.3925 -15.5218 -15.4738 -10.9915 -14.6373 
-14.7146 -17.5801 -15.9661 -17.5917 -19.6131 -20.1369 -20.722 -23.5025 -22.3508 -18.9228 -17.1228 -17.8943 
