-4.759 
n/a 
n/a 
n/a 
n/a 
-4.759 
n/a 
n/a 
n/a 
n/a 
-4.759 
n/a 
n/a 
n/a 
n/a 
-4.759 
n/a 
n/a 
n/a 
n/a 
-3.4075 -4.235 -3.213 -4.3315 -4.397 
-8.296501 -8.338 -7.5345 -7.7675 
-12.9699 -12.7699 -11.9537 
-17.4018 -17.1891 
-21.821 
-3.4075 -4.235 -3.213 -3.8675 -3.4105 
-8.296501 -8.338 -7.577001 -7.8665 
-12.9699 -12.8124 -10.4505 
-17.4443 -15.6859 
-20.3178 
-3.4075 -4.4015 -3.972 -4.35 -4.397 
-6.672 -7.217501 -7.3815 -6.8395 
-7.7095 -7.675001 -7.836 
-7.7415 -8.029 
-8.1215 
-3.4075 -4.4015 -6.453 -3.213 -3.6205 
-6.672 -12.2125 -10.985 -5.9355 
-15.6944 -16.7445 -13.7075 
-20.2264 -19.467 
-22.9489 
