-4.759 
n/a 
n/a 
n/a 
n/a 
-4.759 
n/a 
n/a 
n/a 
n/a 
-4.759 
n/a 
n/a 
n/a 
n/a 
-4.759 
n/a 
n/a 
n/a 
n/a 
-2.7835 -1.7695 -2.489 -4.289 -3.5025 -1.756 -2.645 -1.7695 -4.3665 -4.673 0 
-6.0375 -3.1405 -5.9645 -8.538 -5.073 -3.898 -4.9005 -6.465001 -8.9905 -4.673 
-7.548 -6.381001 -10.76 -10.434 -7.4465 -6.002 -9.385 -11.6252 -8.9905 
-10.304 -11.0599 -12.656 -12.8075 -9.6635 -10.9173 -14.7876 -11.6252 
-14.9829 -12.9559 -15.0295 -15.0245 -14.6818 -16.3199 -14.7876 
-3.676 -5.3075 -6.5375 -1.756 -4.289 -2.356 -3.5025 -1.7695 -1.8085 -3.6885 -4.4495 0 
-8.641001 -10.533 -7.7995 -5.6485 -6.244 -5.519 -5.609 -3.41 -4.3555 -6.208 -4.4495 
-14.1263 -11.795 -12.4456 -7.2695 -10.6875 -8.8765 -7.2515 -5.715 -6.249001 -6.208 
-15.3883 -16.4411 -14.0666 -11.7728 -14.045 -10.7754 -9.1685 -6.259501 -6.249001 
-20.0344 -18.0621 -18.5699 -15.1303 -15.9439 -12.6924 -9.762 -6.259501 
-3.676 -2.7415 -4.4715 -3.8755 -6.5375 -1.756 -3.5025 -6.9805 0 
-6.2495 -6.1835 -8.1455 -9.631001 -7.7995 -5.1565 -10.8025 -6.9805 
-9.448 -9.2445 -14.4266 -10.662 -9.037001 -13.1351 -10.8025 
-12.6106 -15.639 -15.4576 -11.8995 -17.5024 -13.1351 
-19.0051 -16.67 -16.6951 -20.3649 -17.5024 
-6.5375 -1.756 -4.416 -1.7565 -3.5025 -2.4945 -4.09 -2.3345 -3.676 
-7.7995 -5.6355 -7.967501 -5.2375 -6.489 -5.816 -4.8155 -6.6285 
-12.4326 -9.812 -11.8109 -8.870501 -9.959001 -6.877501 -9.1225 
-16.6091 -13.7222 -15.4439 -12.4271 -10.738 -11.7101 
-20.5193 -17.3552 -19.0005 -13.2061 -15.5706 
