-4.759 
n/a 
n/a 
n/a 
n/a 
-4.759 
n/a 
n/a 
n/a 
n/a 
-4.759 
n/a 
n/a 
n/a 
n/a 
-4.759 
n/a 
n/a 
n/a 
n/a 
-3.7375 -3.4795 -3.436 -9.77 -3.972 -1.4985 -5.166 -1.7565 -1.4985 -4.759 -8.303 
-4.985 -5.312 -14.2958 -13.9616 -5.77 -6.127501 -6.4205 -2.4195 -5.8915 -14.1252 
-6.366 -16.645 -18.4874 -15.7596 -10.8852 -6.7365 -7.175 -6.911001 -15.9043 
-17.9286 -20.8366 -20.2854 -20.8748 -11.4942 -7.454 -12.1155 -17.0062 
-22.1202 -22.6346 -25.4006 -21.4838 -12.2117 -12.5385 -22.2107 
-1.4985 -7.190001 -4.179 -2.186 -3.383 -4.3185 0 
-8.786501 -8.514001 -5.982 -4.438 -7.396 -4.3185 
-9.376501 -10.0645 -8.557501 -8.2225 -7.396 
-10.6615 -12.7774 -12.704 -8.2225 
-13.3744 -16.9239 -12.704 
-2.4265 -4.425 -1.7695 -8.863001 -7.190001 -3.436 -3.135 -3.4795 -5.0305 0 
-5.2995 -7.120501 -11.6147 -16.2602 -10.7335 -6.656 -6.0235 -8.51 -5.0305 
-7.4845 -17.2719 -19.0119 -19.8037 -13.9535 -9.0835 -11.7076 -8.51 
-17.7689 -24.6691 -22.5554 -23.0237 -16.381 -14.9964 -11.7076 
-25.1661 -28.2126 -25.7754 -25.4512 -22.2939 -14.9964 
-4.426 -1.7565 -1.4985 -3.0835 -4.7285 -4.1555 -3.147 0 
-5.47 -2.4195 -3.535 -6.042 -8.4455 -5.77 -3.147 
-5.9535 -4.6785 -6.335501 -9.523001 -9.541501 -5.77 
-8.021 -7.476501 -10.0095 -10.7035 -9.541501 
-9.983001 -11.3061 -11.3 -10.7035 
