-4.759 
n/a 
n/a 
n/a 
n/a 
-4.759 
n/a 
n/a 
n/a 
n/a 
-4.759 
n/a 
n/a 
n/a 
n/a 
-4.759 
n/a 
n/a 
n/a 
n/a 
-5.1845 -3.432 -1.756 -4.474 -4.003 -4.4495 -2.0935 -2.5685 -3.959 0 
-7.6925 -5.5865 -6.7375 -9.705 -9.1045 -6.136 -3.987 -5.5195 -3.959 
-8.987 -10.1505 -12.3593 -15.1187 -11.0718 -8.3575 -6.6875 -5.5195 
-14.747 -15.7723 -17.773 -17.086 -13.2933 -11.1828 -6.6875 
-20.3688 -21.186 -19.7403 -19.3075 -16.1186 -11.1828 
-6.694 -1.756 -4.474 -4.003 -6.201 -2.186 -2.0935 -2.5685 -3.959 
-9.5935 -6.7375 -9.705 -11.136 -8.9455 -4.4495 -3.987 -5.5195 
-14.6368 -12.3593 -17.1502 -13.8805 -11.3142 -6.172 -6.6875 
-20.2586 -19.8045 -19.8947 -16.2492 -13.0367 -9.064501 
-27.7038 -22.549 -22.2634 -17.9717 -15.9292 
-6.694 -1.756 -4.474 -4.003 -2.9825 -2.229 -2.0935 -2.5685 -3.59 -2.229 0 
-9.5935 -6.7375 -9.705 -6.8805 -4.9675 -4.9355 -3.987 -6.714 -4.966 -2.229 
-14.6368 -12.3593 -12.8947 -9.534301 -7.8505 -6.811 -8.31 -8.859501 -4.966 
-20.2586 -15.549 -15.5485 -12.4173 -10.1105 -11.4896 -10.1945 -8.859501 
-23.4483 -18.2028 -18.4315 -14.6773 -14.7891 -13.3741 -10.1945 
-6.694 -8.827001 -4.474 -4.003 -12.16972 -12.16972 
-17.1682 -13.6812 -9.705 -17.33552 -24.33944 
-22.0224 -18.9122 -23.34972 -29.50524 
-27.2534 -32.55692 -35.51944 
-40.89812 -44.72664 
