-4.759 
n/a 
n/a 
n/a 
n/a 
-4.759 
n/a 
n/a 
n/a 
n/a 
-4.759 
n/a 
n/a 
n/a 
n/a 
-4.759 
n/a 
n/a 
n/a 
n/a 
-3.0365 -2.4945 -3.769 -4.4715 -4.256 -1.7695 -4.725 
-3.688 -6.961 -8.648001 -8.891001 -4.7405 -6.679501 
-7.578001 -12.2642 -13.7185 -9.368501 -9.972501 
-13.0198 -17.3347 -14.196 -14.6291 
-18.0903 -17.8122 -19.4566 
-4.05 -3.699 -1.934 -8.644 
-8.3065 -5.35 -11.5844 
-10.0675 -15.6714 
-20.3889 
n/a 
-1.934 -9.9495 -4.7175 -5.572 -4.05 -2.4945 -3.0365 
-12.8899 -14.6974 -11.2603 -10.8516 -6.441 -4.952001 
-17.6378 -21.2402 -16.5399 -13.2426 -8.481001 
-24.1806 -26.5198 -18.9309 -15.2826 
-29.4602 -28.9108 -20.9709 
-8.644 -3.383 -4.4525 -1.7695 -4.05 -3.769 0 
-12.2628 -8.5185 -5.610001 -6.296501 -8.280001 -3.769 
-17.3983 -9.4975 -9.794001 -10.66 -8.280001 
-18.3773 -13.6721 -14.3485 -10.66 
-22.5519 -18.2266 -14.3485 
