-4.759 
n/a 
n/a 
n/a 
n/a 
-4.759 
n/a 
n/a 
n/a 
n/a 
-4.759 
n/a 
n/a 
n/a 
n/a 
-4.759 
n/a 
n/a 
n/a 
n/a 
-4.7715 -5.1845 -11.0905 -1.756 -5.4785 -2.4945 -4.164 -3.135 -4.6805 -3.5125 -1.756 -4.2705 -1.7565 -5.1845 -5.74 -2.872 -3.013 -5.651501 -2.674 -2.9995 -4.0745 -2.0935 -12.16972 -4.2705 -1.756 -3.5125 
-11.1415 -17.5694 -12.8465 -7.614501 -7.788001 -5.3465 -7.1955 -8.380501 -8.1425 -4.7915 -6.0615 -5.4125 -6.580501 -5.7465 -8.799001 -5.2745 -8.529501 -6.316 -4.4625 -5.983 -5.3495 -15.25422 -16.44022 -5.7145 -5.334 
-23.5264 -19.3254 -18.705 -9.155001 -10.9792 -8.693501 -12.9164 -12.1095 -9.68 -9.290001 -7.6795 -10.218 -6.961501 -8.818501 -11.2699 -10.4885 -10.8065 -9.086 -7.231 -7.4175 -19.20562 -19.52472 -17.88422 -9.079 
-25.2824 -25.1839 -20.2455 -12.49 -14.3262 -14.3742 -16.6454 -13.647 -14.6795 -9.855 -12.7086 -10.599 -9.555501 -11.2968 -15.7739 -11.24 -10.4355 -11.631 -8.4055 -21.62342 -23.47612 -20.96872 -21.24872 
-31.1409 -26.7244 -23.5805 -15.837 -20.0069 -18.1032 -18.1829 -18.6465 -15.2445 -15.0295 -13.0896 -13.193 -12.0886 -15.8008 -17.2834 -12.4735 -13.0206 -12.9136 -23.10302 -25.89392 -24.92012 -24.33322 
-1.4985 -6.05 -3.557 -1.934 -4.36 -3.7515 -1.7565 -6.4735 -4.2705 -2.791 -1.7695 -2.674 -3.383 -3.628 -4.0745 -2.7455 -1.4985 -7.4885 0 -2.4265 -5.3275 -3.335 -2.356 -4.099 -5.06 -1.756 -2.985 -3.5125 -2.186 -2.6165 -3.9205 -4.394 
-7.5185 -10.233 -4.4175 -6.4165 -5.7925 -4.6045 -7.466001 -11.7124 -5.721 -4.3355 -3.8225 -5.6065 -5.1625 -6.3135 -6.434 -3.637 -8.1875 -7.4885 -2.4265 -5.999001 -7.2 -4.681 -5.8455 -6.8575 -5.912001 -4.2025 -6.209001 -5.685 -3.5105 -5.491 -8.578501 
-12.4615 -10.583 -8.635501 -8.218 -6.2315 -11.3826 -13.0269 -13.1629 -6.2915 -6.2845 -6.838 -6.376 -7.3885 -8.435501 -6.8125 -10.7244 -8.1875 -10.249 -5.999001 -7.692 -10.485 -9.81 -7.7865 -7.567 -9.2075 -7.2335 -7.801001 -7.0055 -5.809 -9.365 
-12.8115 -14.801 -10.4855 -9.157001 -13.9574 -16.9435 -14.4774 -13.7334 -7.996 -9.273001 -7.702001 -8.8485 -9.256001 -8.822001 -14.4067 -10.7244 -10.4675 -14.0085 -7.692 -11.243 -15.614 -11.819 -8.3205 -11.2823 -12.2971 -8.747001 -9.2355 -8.995501 -9.630501 
-17.0295 -16.651 -11.4245 -17.3131 -19.5183 -18.394 -15.0479 -15.4379 -11.8703 -10.674 -10.659 -10.253 -9.658 -16.581 -14.4067 -13.0044 -14.227 -15.7015 -11.243 -16.372 -17.623 -12.353 -12.168 -14.3719 -13.8106 -10.3225 -10.6475 -12.949 
-3.929 -6.05 -2.3345 -1.4985 -4.2875 -1.7565 -5.3255 -4.477 -1.934 -4.1965 0 -2.915 -2.7455 -1.4985 -3.948 -5.6655 -1.756 -2.985 -5.709 0 -2.5195 -1.4985 -4.193 -1.7565 -4.0955 -4.58 -1.756 -3.929 -2.4265 -4.523 -1.7695 -3.659 -2.7455 -1.4985 -12.16972 -1.7695 -3.135 -4.4495 0 -2.4265 -2.186 -6.973001 -1.7695 -8.235001 -2.985 -3.8245 -3.8405 -2.4285 -2.985 -3.5125 -4.1715 -4.5815 0 
-11.046 -8.4165 -3.233 -5.3225 -4.8415 -6.804501 -9.239 -6.2465 -5.147 -4.1965 -2.915 -4.0865 -3.637 -4.7695 -8.622001 -6.7545 -4.2025 -7.9525 -5.709 -2.5195 -3.1695 -4.594501 -4.7225 -5.581501 -7.107 -6.120501 -5.742001 -5.029 -6.096 -5.5405 -4.3495 -4.6215 -3.637 -14.76202 -13.93922 -4.779 -5.734 -4.4495 -2.4265 -3.292 -8.156501 -7.682001 -8.4855 -10.139 -6.332 -9.011 -5.931 -5.226501 -6.209001 -7.801001 -6.8055 -4.5815 
-13.4125 -9.906 -6.812 -5.915 -8.660501 -11.116 -10.5045 -6.806 -5.147 -6.6455 -4.0865 -4.7255 -6.511 -9.157001 -9.547501 -8.082001 -9.0755 -7.9525 -8.259001 -3.1695 -5.4985 -4.7895 -8.818001 -9.215 -8.2305 -9.482501 -6.7365 -8.759501 -7.1735 -8.528501 -5.319 -5.2755 -17.29892 -16.53152 -16.94872 -5.7405 -5.734 -6.4565 -3.292 -8.552501 -8.496501 -14.9508 -10.2865 -13.7544 -12.3797 -11.1449 -9.111 -8.831501 -10.1035 -10.8082 -6.8055 
-14.902 -13.6596 -7.1785 -10.1415 -13.18 -12.3815 -11.064 -6.806 -8.3625 -7.536 -4.7255 -7.305 -11.1915 -10.3685 -10.9184 -13.2198 -9.0755 -9.75 -8.71 -5.4985 -6.04 -8.889001 -9.83 -10.2595 -11.8251 -10.5045 -10.118 -9.792001 -9.972 -9.590501 -5.952001 -19.60902 -19.06842 -19.54102 -17.91022 -5.7405 -7.367001 -6.946 -8.552501 -8.7025 -15.9341 -16.7518 -14.0823 -19.8021 -14.5136 -14.3249 -12.8558 -12.8194 -13.3393 -10.8082 
-18.6556 -14.0261 -11.9332 -14.8246 -14.4455 -12.941 -11.064 -10.7993 -9.490001 -8.172501 -7.305 -12.1643 -12.403 -11.7394 -16.0562 -13.2198 -11.0018 -10.289 -10.564 -6.04 -9.7225 -9.981001 -10.8963 -13.8541 -12.8471 -13.886 -10.739 -12.5905 -11.1002 -10.377 -20.59172 -21.37852 -22.07792 -20.50252 -17.91022 -7.3725 -7.903001 -12.4997 -8.7025 -16.1887 -17.7351 -20.5476 -20.13 -21.936 -17.6936 -18.0697 -16.8437 -16.0552 -13.3393 
-4.251 -1.4985 -3.509 -1.7565 -5.1845 -4.6805 -1.756 -5.7655 -4.6805 -2.4945 -3.333 -1.934 -1.4985 -4.4805 -3.8405 -5.1845 -6.05 -2.872 -3.5725 -3.0365 -2.186 -2.847 -3.908 -4.0745 -2.7455 -2.985 -3.5015 -1.7565 -3.8245 -1.756 -3.5125 
-5.6885 -4.917 -4.762 -6.580501 -9.292 -6.0645 -7.127501 -10.841 -6.905 -4.3655 -4.374 -2.6125 -6.026501 -9.0345 -9.602 -10.2385 -8.862 -5.087501 -5.6995 -3.66 -4.1045 -6.0105 -6.382 -6.434 -4.943 -5.887 -4.783 -5.058 -5.4125 -5.334 
-9.666501 -5.3835 -10.0745 -10.298 -10.299 -12.3926 -12.3988 -13.0655 -9.268001 -5.2835 -5.0355 -7.754001 -10.733 -14.9004 -14.9836 -13.0505 -11.1761 -7.053 -6.851 -4.256001 -6.62 -7.2925 -8.797501 -8.283501 -8.0085 -6.735001 -7.672501 -6.345 -8.889 
-9.943001 -11.0742 -13.908 -11.305 -16.6271 -17.6639 -14.6233 -15.4285 -10.3825 -5.907001 -10.4265 -12.8973 -16.5989 -20.282 -17.7956 -15.3646 -13.1416 -7.6295 -7.5505 -6.626 -7.6035 -9.4795 -10.6095 -11.5796 -8.949 -9.1555 -9.035501 -10.347 
-15.8187 -14.9077 -14.915 -17.6331 -21.8984 -19.8884 -16.9863 -16.543 -11.3768 -11.4596 -15.5698 -18.7632 -21.9805 -23.094 -20.1097 -17.3301 -13.7181 -8.2065 -9.624001 -7.6055 -9.6645 -11.3333 -13.9056 -12.5201 -11.5563 -10.013 -13.1041 
