-4.759 
n/a 
n/a 
n/a 
n/a 
-4.759 
n/a 
n/a 
n/a 
n/a 
-4.759 
n/a 
n/a 
n/a 
n/a 
-4.759 
n/a 
n/a 
n/a 
n/a 
-3.254 -1.7565 -6.0575 -1.7565 -3.5435 -1.7565 -3.8735 
-4.0065 -8.319 -8.120001 -4.913 -4.9885 -5.112 
-11.3868 -10.7363 -12.2627 -6.912 -6.2065 
-13.8041 -14.879 -14.2617 -7.759501 
-17.9468 -16.878 -15.1092 
-4.2115 -3.254 -1.7565 -4.1865 -3.5435 
-7.4115 -4.0065 -5.463 -6.517 
-8.334001 -7.7165 -8.4265 
-12.4142 -10.688 
-15.3857 
-3.254 -1.7565 -4.2115 -1.934 -4.1865 -3.5435 
-4.0065 -5.9335 -6.0825 -5.967 -6.517 
-7.146 -7.6205 -10.361 -8.927 
-9.102 -12.0086 -13.528 
-13.7101 -15.1756 
-4.1865 -3.5435 -3.4605 -3.254 
-6.517 -6.471001 -7.2115 
-9.7635 -10.1265 
-13.4648 
n/a 
