-4.759 
n/a 
n/a 
n/a 
n/a 
-4.759 
n/a 
n/a 
n/a 
n/a 
-4.759 
n/a 
n/a 
n/a 
n/a 
-4.759 
n/a 
n/a 
n/a 
n/a 
-3.882 -1.934 -5.885 0 -3.034 -3.9725 -7.504 -4.424 0 -1.4985 -4.628 -5.939 -4.1355 -4.066 -3.325 -1.4985 -3.4985 -1.7565 -4.6795 0 
-5.1945 -7.7525 -5.885 -3.034 -7.033 -12.4195 -10.9075 -4.424 -1.4985 -6.298 -5.9615 -10.4945 -8.696001 -6.5505 -3.898 -4.798 -4.622 -6.802001 -4.6795 
-10.31 -7.7525 -8.945001 -7.033 -15.9802 -15.823 -10.9075 -6.242001 -6.298 -6.5895 -10.494 -15.055 -10.688 -7.037 -5.8625 -5.425 -9.975 -6.802001 
-10.31 -9.5515 -13.1168 -15.9802 -19.3837 -15.823 -12.7255 -11.4609 -6.5895 -11.7874 -15.0545 -17.047 -11.1745 -8.4865 -5.8915 -10.6595 -9.975 
-12.109 -13.8191 -22.064 -19.3837 -19.3837 -17.641 -17.9444 -11.7524 -11.7874 -16.3479 -17.0465 -17.5335 -12.624 -8.4975 -11.6 -10.6595 
-3.2615 -1.4985 -3.956 -1.7565 -8.411 -3.9725 0 -1.4985 -6.6585 -4.675 -2.7415 -3.325 -1.4985 -3.4985 -1.7565 -1.4985 -4.6795 
-4.032 -4.8985 -4.932 -11.1167 -12.9023 -3.9725 -1.4985 -9.0305 -12.0921 -7.365 -5.7585 -3.898 -4.798 -4.622 -2.4195 -6.048 
-6.1535 -5.16 -15.1604 -15.608 -12.9023 -5.952 -9.0305 -14.6429 -14.7821 -10.341 -6.248 -5.8625 -5.425 -5.215 -6.814001 
-6.1865 -15.6148 -19.6517 -15.608 -14.8818 -13.9512 -14.6429 -17.3329 -17.7581 -10.8305 -7.6545 -5.8915 -5.920001 -9.362 
-16.9771 -20.1061 -19.6517 -17.5875 -22.881 -19.5636 -17.3329 -20.3089 -18.2476 -12.237 -7.687 -6.2605 -9.5775 
-3.2615 -3.9725 -2.7415 -4.424 -1.934 -5.885 -6.6585 -2.742 -4.1555 -1.7695 -2.8965 -3.4985 0 
-7.396501 -6.3315 -8.262 -5.195 -7.7525 -13.1577 -9.565001 -8.015 -4.988501 -4.497 -6.5895 -3.4985 
-8.977501 -12.1992 -9.086 -9.458 -15.3222 -16.0642 -14.8378 -8.6675 -8.081 -8.326501 -6.5895 
-15.4024 -13.0232 -13.4708 -17.0637 -18.2287 -21.337 -15.4903 -11.9744 -12.1257 -8.326501 
-16.2264 -17.408 -21.0765 -19.9702 -23.5015 -21.9895 -18.7972 -16.0191 -12.1257 
-3.882 -1.934 -5.885 -3.9725 -6.834 -2.7415 -4.19 0 -1.4985 -6.0515 -3.4425 -1.7565 -6.6585 -2.7415 -1.934 -1.4985 -4.2285 -1.7565 -6.3755 
-5.1945 -7.7525 -9.7655 -11.7495 -9.818501 -6.03 -4.19 -1.4985 -6.751 -8.924001 -4.5535 -8.343 -9.5905 -4.5155 -2.6125 -5.116 -5.173501 -8.492001 
-10.31 -11.93 -17.7901 -14.734 -13.1584 -6.03 -5.9825 -6.751 -9.767 -10.2185 -11.6446 -10.76 -11.4609 -5.133 -5.4395 -5.219 -12.7886 
-14.4875 -19.9546 -20.7746 -18.0739 -13.1584 -7.440001 -11.6664 -9.767 -10.6 -17.359 -14.0616 -12.6304 -12.0784 -7.275001 -5.461 -12.9415 
-22.5121 -22.9391 -24.1145 -18.0739 -14.5684 -13.3291 -14.6824 -10.6 -17.7405 -19.776 -15.932 -13.2479 -14.2204 -7.2805 -13.4529 
