-4.759 
n/a 
n/a 
n/a 
n/a 
-4.759 
n/a 
n/a 
n/a 
n/a 
-4.759 
n/a 
n/a 
n/a 
n/a 
-4.759 
n/a 
n/a 
n/a 
n/a 
-4.393 0 -10.1205 0 -5.943501 0 
-4.393 -10.1205 -10.1205 -5.943501 -5.943501 
-14.8815 -10.1205 -16.1002 -5.943501 
-14.8815 -16.1002 -16.1002 
-20.8612 -16.1002 
-13.555 0 -5.943501 0 
-13.923 -5.943501 -5.943501 
-20.0701 -5.943501 
-20.0701 
n/a 
-4.393 0 -10.1205 0 -5.7865 0 
-4.393 -10.1205 -10.1205 -5.7865 -5.7865 
-14.8815 -10.1205 -15.9432 -5.7865 
-14.8815 -15.9432 -15.9432 
-20.7042 -15.9432 
-4.393 0 -9.162001 0 -5.943501 0 
-4.393 -9.162001 -9.162001 -5.943501 -5.943501 
-13.923 -9.162001 -15.3091 -5.943501 
-13.923 -15.3091 -15.3091 
-20.0701 -15.3091 
