-4.759 
n/a 
n/a 
n/a 
n/a 
-4.759 
n/a 
n/a 
n/a 
n/a 
-4.759 
n/a 
n/a 
n/a 
n/a 
-4.759 
n/a 
n/a 
n/a 
n/a 
-2.9805 -3.43 -2.664 -3.8675 -2.356 -5.6295 -7.325 -5.4175 -1.934 -13.8535 
-5.2875 -5.286 -5.2005 -5.006 -8.253501 -9.935501 -10.2925 -7.5185 -17.332 
-6.932001 -7.381 -5.8335 -10.2085 -12.8071 -13.1296 -12.8867 -23.2683 
-8.8415 -7.632 -10.494 -14.7621 -16.0012 -15.7238 -28.6365 
-8.946501 -12.4849 -15.0476 -17.9562 -18.5954 -31.4736 
-2.9805 -3.7555 -1.8085 -3.8675 -2.356 -5.6295 -5.396 -5.298 -1.934 -3.5715 -4.255 -5.564 
-5.3095 -4.597 -6.956 -5.006 -8.253501 -8.8325 -10.543 -7.897501 -5.0835 -6.4745 -9.967001 
-6.3225 -10.6247 -8.46 -10.2085 -9.874001 -14.3247 -13.1425 -10.543 -8.797501 -13.0957 
-12.6432 -12.1287 -13.6875 -11.829 -15.9658 -16.9242 -15.788 -14.257 -15.7595 
-14.1472 -17.3562 -15.308 -17.9208 -18.5653 -19.5697 -19.502 -21.219 
-2.9805 -3.43 -2.664 -3.8675 -2.356 -5.6295 -5.396 -5.298 -2.264 -4.255 -3.758 -5.564 
-5.2875 -5.286 -5.2005 -5.006 -8.253501 -8.8325 -10.543 -8.205501 -6.346001 -7.564 -8.032001 
-6.932001 -7.381 -5.8335 -10.2085 -9.874001 -14.3247 -13.4505 -12.5747 -9.216001 -12.1872 
-8.8415 -7.632 -10.494 -11.829 -15.9658 -17.2322 -17.8197 -15.4447 -14.0996 
-8.946501 -12.4849 -12.1145 -17.9208 -18.8733 -21.6014 -20.6897 -20.3283 
-2.9805 -3.5745 -2.664 -3.8675 -1.934 -5.564 -3.5715 -2.341 -2.356 -5.6295 -5.396 -5.4175 0 
-4.8665 -5.949 -5.2005 -5.6555 -6.9355 -9.2375 -5.5735 -5.4745 -8.253501 -8.8325 -9.248001 -5.4175 
-7.238 -9.901501 -6.6995 -11.6008 -11.1746 -10.6345 -8.883 -11.6924 -9.874001 -9.729501 -9.248001 
-11.4651 -11.4791 -13.1214 -15.8399 -12.5716 -13.944 -15.2903 -13.3129 -10.111 -9.729501 
-13.0427 -17.901 -17.3605 -17.2369 -15.8811 -20.3513 -16.9108 -13.5499 -10.111 
