-4.759 
n/a 
n/a 
n/a 
n/a 
-4.759 
n/a 
n/a 
n/a 
n/a 
-4.759 
n/a 
n/a 
n/a 
n/a 
-4.759 
n/a 
n/a 
n/a 
n/a 
-8.514501 -8.5135 -8.926001 -5.4425 -6.5625 0 -8.514501 -8.5135 -8.926001 -5.4425 -6.5625 0 -2.186 -3.5395 -2.5045 -5.4425 -6.5625 0 -13.3705 -6.5625 0 0 0 -7.7945 -8.027 0 -7.627 0 -3.6075 -4.445 -1.7565 -3.8735 0 
-8.977 -8.993 -9.011001 -7.282 -6.5625 -8.514501 -8.977 -8.993 -9.011001 -7.282 -6.5625 -2.186 -6.745 -6.4025 -8.215501 -7.282 -6.5625 -11.171 -13.0105 -6.5625 0 0 -7.248 -13.8425 -7.74 -7.627 -7.627 -3.6075 -8.1705 -5.5545 -5.112 -3.8735 
-8.996501 -9.0175 -9.014001 -7.282 -10.688 -8.977 -8.996501 -9.0175 -9.014001 -7.282 -8.5115 -6.745 -9.8465 -12.6305 -10.419 -7.282 -14.258 -9.37 -9.37 -6.5625 0 -7.248 -12.4975 -12.4975 -16.2772 -7.627 -12.0727 -8.1705 -9.206 -8.856 -5.112 
-9.021001 -9.02 -9.014001 -10.7595 -10.7265 -8.996501 -9.021001 -9.02 -9.014001 -8.9595 -13.3247 -9.8465 -16.0745 -14.834 -10.419 -10.7345 -10.472 -7.6545 -7.6545 -6.5625 -7.248 -10.76 -10.76 -19.4996 -16.2772 -12.0727 -16.6357 -9.206 -12.6547 -8.856 
-9.024001 -9.02 -12.8977 -10.798 -10.782 -9.021001 -9.024001 -9.02 -11.0977 -13.7907 -16.4262 -16.0745 -18.278 -14.834 -13.234 -10.103 -9.831501 -7.654 -7.654 -14.6065 -10.76 -10.76 -19.4996 -19.4996 -20.7229 -16.6357 -17.6712 -12.6547 -12.6547 
-5.4425 -6.5625 -2.186 -3.9205 -2.5045 -8.514501 -8.5135 -8.926001 -5.4425 -6.5625 0 -7.745501 -8.027 0 -7.6325 0 -2.9805 -2.186 -1.8085 -4.1865 -3.757 -1.7565 -3.8735 
-7.282 -8.5115 -4.9645 -4.449 -10.8215 -8.977 -8.993 -9.011001 -7.282 -6.5625 -6.5295 -13.124 -7.74 -7.6325 -7.6325 -2.9805 -4.1635 -3.164 -7.2325 -7.5595 -4.5665 -5.112 
-8.9595 -10.4855 -5.539 -12.4968 -11.284 -8.996501 -9.0175 -9.014001 -7.282 -10.417 -11.9225 -11.9225 -14.0628 -7.6325 -9.943001 -4.1635 -5.078001 -8.618001 -10.7851 -9.493501 -7.1095 
-10.9515 -11.06 -14.0716 -12.9593 -11.3035 -9.021001 -9.02 -9.014001 -10.4175 -12.3485 -10.054 -16.5792 -14.0628 -9.943001 -10.123 -5.078001 -10.2275 -12.3418 -12.7191 -12.3385 
-11.526 -19.5926 -14.5341 -12.9788 -11.328 -9.024001 -9.02 -10.4975 -10.484 -10.4835 -16.743 -16.743 -16.3733 -10.123 -12.6405 -10.2275 -13.9513 -14.2758 -15.5641 
-8.514501 -8.5135 -8.926001 -5.4425 -6.5625 -3.849 -2.5045 -5.4425 -6.5625 0 -13.3705 -6.5625 0 0 -7.7945 -2.998 0 -5.029 0 -7.6325 0 -2.186 -3.8735 -2.229 -7.9735 0 
-8.977 -8.993 -9.011001 -7.282 -9.764001 -6.305 -8.215501 -7.282 -6.5625 -11.171 -13.0105 -6.5625 0 -7.248 -9.1005 -2.998 -5.029 -5.029 -7.6325 -7.6325 -2.186 -6.749001 -5.3655 -8.290501 -6.606 
-8.996501 -9.0175 -9.014001 -10.0375 -12.8254 -12.1196 -10.419 -7.282 -14.258 -9.37 -9.37 -6.5625 -7.248 -8.75 -8.75 -7.74 -5.029 -11.142 -7.6325 -9.451 -6.749001 -7.036 -11.2785 -7.8875 
-9.021001 -9.02 -12.1757 -13.1543 -18.64 -14.3231 -10.419 -10.7345 -10.472 -7.6545 -7.6545 -14.6065 -8.75 -8.75 -10.76 -7.74 -11.142 -11.142 -9.451 -14.1806 -7.036 -13.0229 -10.587 
-9.024001 -12.1913 -15.2925 -18.9689 -20.8435 -14.3231 -13.234 -10.103 -9.831501 -7.654 -16.444 -16.1085 -8.75 -10.76 -10.76 -14.0628 -11.142 -12.9605 -14.1806 -14.4676 -13.0229 -13.0229 
-5.4425 -6.5625 0 -13.3705 -6.5625 0 -2.186 -4.281 -2.5045 -8.514501 -8.5135 -8.926001 -5.4425 -6.5625 0 0 -3.218 -1.7565 -7.7945 -8.027 0 -12.16972 0 -1.4985 -7.9735 -1.7565 -3.8735 0 
-7.282 -6.5625 -11.171 -13.0105 -6.5625 -2.186 -5.650001 -5.893 -10.8215 -8.977 -8.993 -9.011001 -7.282 -6.5625 0 -3.218 -4.3535 -8.000501 -13.8425 -7.74 -12.16972 -12.16972 -1.4985 -8.118501 -7.415501 -5.112 -3.8735 
-7.282 -14.258 -9.37 -9.37 -8.5115 -5.650001 -7.0835 -14.5708 -11.284 -8.996501 -9.0175 -9.014001 -7.282 -6.5625 -3.218 -4.3535 -7.554 -12.5615 -12.4975 -20.81992 -12.16972 -13.66822 -7.1055 -8.1195 -10.163 -5.112 
-10.7345 -10.472 -7.6545 -9.481 -12.2297 -7.0835 -16.0251 -15.0333 -11.3035 -9.021001 -9.02 -9.014001 -7.282 -10.368 -4.3535 -7.318501 -10.799 -10.7925 -24.04232 -20.81992 -13.66822 -19.27522 -8.351501 -10.149 -9.4175 
-10.103 -9.831501 -9.4805 -13.2475 -13.6632 -16.0251 -16.4876 -15.0528 -11.328 -9.024001 -9.02 -9.014001 -11.6263 -11.7753 -7.318501 -10.7645 -10.7645 -24.04182 -24.04232 -22.31842 -19.27522 -20.52122 -10.1185 -10.1185 
