-4.759 
n/a 
n/a 
n/a 
n/a 
-4.759 
n/a 
n/a 
n/a 
n/a 
-4.759 
n/a 
n/a 
n/a 
n/a 
-4.759 
n/a 
n/a 
n/a 
n/a 
-1.934 -3.691 0 -4.2655 -3.4405 -2.6165 -3.6675 -1.8085 -3.8175 -3.9825 0 
-4.8225 -3.691 -4.2655 -7.2935 -3.7415 -5.66 -4.9975 -4.55 -5.9455 -3.9825 
-4.8225 -8.649501 -7.2935 -7.5445 -6.6125 -6.9545 -6.4025 -6.002501 -5.9455 
-9.272 -11.9877 -7.5445 -9.298 -7.492001 -7.988501 -6.457 -6.002501 
-13.1126 -12.2387 -9.298 -9.4235 -8.401501 -8.0275 -6.457 
-4.4715 -4.2085 -3.9675 -2.6165 -4.4985 -2.264 -1.4985 -4.2655 0 
-8.469501 -6.4285 -7.062 -7.0445 -4.548 -2.9195 -5.9775 -4.2655 
-10.8987 -10.181 -12.1182 -7.11 -4.8395 -7.647501 -5.9775 
-14.6512 -15.2372 -12.1837 -7.5975 -9.177501 -7.647501 
-19.7074 -15.3027 -12.6712 -11.9437 -9.177501 
-3.691 -3.9675 -2.186 -3.074 -4.015 -2.5195 -4.2655 -3.681 0 
-7.9175 -5.881001 -4.156 -7.3955 -6.272 -6.778501 -8.630501 -3.681 
-10.0925 -7.866 -7.926001 -8.893001 -9.689001 -11.7615 -8.630501 
-12.2983 -11.739 -9.273001 -12.433 -14.9158 -11.7615 
-16.1713 -13.086 -12.9578 -17.6598 -14.9158 
-3.691 -2.229 -3.9675 -2.186 -4.4715 -4.589 -2.264 -5.2645 0 
-5.0855 -6.094501 -5.881001 -5.7085 -8.058001 -5.1735 -7.879001 -5.2645 
-8.439 -7.493001 -9.158501 -8.421 -8.125001 -10.5225 -7.879001 
-9.8915 -10.575 -11.9286 -8.498501 -13.5998 -10.5225 
-13.1223 -13.3451 -12.0061 -14.0685 -13.5998 
