-4.759 
n/a 
n/a 
n/a 
n/a 
-4.759 
n/a 
n/a 
n/a 
n/a 
-4.759 
n/a 
n/a 
n/a 
n/a 
-4.759 
n/a 
n/a 
n/a 
n/a 
-4.289 -1.7695 -3.595 0 -3.091 -4.4455 -12.16972 -4.0555 -1.7695 -1.4985 -4.1 
-5.0125 -4.741 -3.595 -3.091 -5.4825 -17.48562 -16.22522 -4.7475 -2.7955 -5.0695 
-9.1565 -4.741 -5.813001 -5.4825 -19.03442 -21.54112 -16.91722 -5.5315 -6.227 
-9.1565 -6.952001 -8.1175 -19.03442 -23.08992 -22.23312 -17.70122 -9.896501 
-11.6411 -9.159 -21.80902 -23.08992 -23.78192 -23.01712 -22.06622 
-3.2615 -3.595 -3.091 -4.4455 -4.0555 -1.7695 -5.4195 -2.356 -1.4985 -3.5855 -3.098 -6.845 
-6.0585 -5.813001 -5.4825 -7.4925 -4.7475 -7.8785 -7.519001 -3.1615 -4.794 -6.3145 -10.186 
-8.175 -8.1175 -8.2665 -8.156 -9.56 -10.543 -8.248 -6.3455 -7.9525 -14.1185 
-9.788501 -10.543 -8.972 -13.2609 -12.5069 -11.272 -9.7635 -9.295 -16.1605 
-12.2614 -11.2485 -14.0929 -16.2078 -13.2359 -12.7875 -13.1618 -17.6932 
-3.4635 -3.595 0 -3.091 -4.4455 -6.846 -2.356 -1.4985 -3.098 -6.845 0 
-6.7845 -3.595 -3.091 -5.4825 -12.1619 -8.188 -3.1615 -4.3095 -10.186 -6.845 
-6.7845 -5.813001 -5.4825 -13.7107 -13.5039 -9.134501 -5.8245 -11.9577 -10.186 
-9.295501 -8.1175 -13.7107 -15.0527 -14.4504 -12.2177 -13.3985 -11.9577 
-11.6826 -16.4853 -15.0527 -15.9992 -17.5336 -19.7917 -13.3985 
-3.4635 -3.595 0 -3.091 -4.4455 -6.845 -7.671 -2.5045 -3.9725 0 
-6.7845 -3.595 -3.091 -5.4825 -12.1609 -15.3654 -9.501501 -6.4545 -3.9725 
-6.7845 -5.813001 -5.4825 -13.7097 -20.6813 -17.1959 -10.2825 -6.4545 
-9.295501 -8.1175 -13.7097 -22.2301 -22.5118 -17.9769 -10.2825 
-11.6826 -16.4843 -22.2301 -24.0606 -23.2928 -17.9769 
