-4.759 
n/a 
n/a 
n/a 
n/a 
-4.759 
n/a 
n/a 
n/a 
n/a 
-4.759 
n/a 
n/a 
n/a 
n/a 
-4.759 
n/a 
n/a 
n/a 
n/a 
-2.3615 -3.8935 -2.7415 -3.0415 -3.6135 -1.756 -3.0415 -3.4865 0 -2.3615 -2.7415 -4.682 -3.074 
-6.4045 -6.2305 -4.9125 -6.085 -5.5285 -4.454 -6.1835 -3.4865 -2.3615 -4.455 -6.4965 -8.299 
-7.794 -8.6625 -7.3065 -7.048 -7.6505 -8.474 -6.1835 -6.705 -4.455 -8.411 -10.111 
-9.854501 -11.2639 -8.14 -7.9475 -11.8083 -8.474 -8.299001 -8.517501 -8.411 -12.4069 
-12.4883 -12.0974 -9.109 -12.3653 -11.8083 -10.7175 -10.0005 -12.6731 -12.4069 
-2.3615 -2.186 -1.8085 -3.301 0 -3.6135 -1.756 -4.215 -4.3845 
-3.5005 -3.164 -4.019 -3.301 -3.6135 -5.5285 -5.644 -8.918 
-4.179 -4.926 -4.019 -7.3175 -5.5285 -9.1645 -9.161 
-5.7445 -4.926 -7.881001 -9.1025 -9.1645 -12.8831 
-5.7445 -9.205501 -9.958 -12.9377 -12.8831 
-2.3615 -3.4155 -3.699 -3.213 -2.186 -1.8085 -3.6135 -1.756 -4.215 -2.871 0 
-5.395 -8.3605 -6.2825 -4.8695 -3.164 -4.4545 -5.5285 -5.644 -7.7415 -2.871 
-10.0815 -10.1855 -7.9135 -6.2925 -5.4355 -7.069 -9.1645 -9.047501 -7.7415 
-12.0687 -11.8165 -9.2665 -8.4315 -7.818 -10.18 -12.7696 -9.047501 
-13.6997 -13.1695 -11.5477 -11.2632 -11.1472 -13.7851 -12.7696 
-3.1495 -2.4945 -2.5685 -5.3775 -1.756 -3.6135 
-4.459 -4.6335 -8.911501 -6.71 -5.5885 
-5.958 -10.159 -9.714001 -10.621 
-11.8893 -10.9615 -14.135 
-12.6918 -15.3825 
