-4.759 
n/a 
n/a 
n/a 
n/a 
-4.759 
n/a 
n/a 
n/a 
n/a 
-4.759 
n/a 
n/a 
n/a 
n/a 
-4.759 
n/a 
n/a 
n/a 
n/a 
-6.557 -8.0375 -3.4605 
-12.795 -11.385 
-15.7799 
n/a 
n/a 
-3.915 -3.4605 -1.7565 -5.1845 -5.74 -3.5435 0 
-5.1545 -5.245501 -6.580501 -5.7465 -7.83 -3.5435 
-5.7 -9.3915 -6.961501 -7.8315 -7.83 
-9.4335 -10.0655 -9.337501 -7.8315 
-10.1555 -12.8389 -9.337501 
-6.557 -3.5435 0 -4.494 -3.4605 
-8.731501 -3.5435 -4.494 -8.272 
-8.731501 -7.607 -8.272 
-13.0324 -10.3545 
-15.7799 
-6.557 -3.5435 0 -3.915 -3.16 -2.9825 
-8.731501 -3.5435 -3.915 -5.599 -3.8965 
-8.731501 -6.313 -5.599 -5.6755 
-11.7384 -8.185 -5.6755 
-13.6104 -9.019 
