-4.759 
n/a 
n/a 
n/a 
n/a 
-4.759 
n/a 
n/a 
n/a 
n/a 
-4.759 
n/a 
n/a 
n/a 
n/a 
-4.759 
n/a 
n/a 
n/a 
n/a 
-1.934 -4.9175 -3.158 -1.756 -3.458 -4.566 -3.399 -3.784 -4.275 -2.5685 -4.126 -3.1385 -3.769 0 -3.922 0 -4.23 -4.3665 -4.275 -5.4815 -3.922 -4.0745 -5.579 0 
-6.1035 -8.3265 -4.703 -5.54 -7.159 -8.8055 -7.6175 -6.913 -7.4395 -7.3725 -7.686501 -7.6895 -3.769 -3.922 -3.922 -4.23 -7.4835 -10.4505 -11.0145 -9.411 -8.9715 -10.802 -5.579 
-10.2645 -10.6685 -8.135 -9.48 -13.1859 -13.044 -10.4505 -10.4505 -12.7533 -11.5422 -12.4961 -7.6895 -7.785001 -3.922 -8.549001 -7.4835 -13.9657 -17.19 -14.944 -14.8407 -16.0784 -10.802 
-12.5143 -14.1005 -12.412 -15.4817 -17.4244 -15.877 -13.8126 -15.7643 -16.923 -16.3518 -12.4961 -12.1189 -7.785001 -8.549001 -12.3261 -13.9657 -20.7052 -21.1195 -20.3737 -21.9476 -16.0784 
-15.9463 -18.3775 -18.4137 -19.7202 -20.2574 -19.2391 -19.1264 -19.934 -21.7326 -16.3518 -16.9255 -12.1189 -12.845 -12.3261 -18.8083 -20.7052 -24.6347 -26.5492 -27.4806 -21.9476 
-3.458 -4.9175 -1.756 -4.566 0 -1.4985 -3.399 -4.275 -3.836 -1.7565 -2.5685 -4.061 -4.157 -2.3345 -3.2295 -3.769 0 0 -5.5025 0 -1.4985 -3.922 -2.7415 -4.076 -3.9225 -1.4985 -4.23 -3.1575 -1.4985 -4.263 
-7.626 -6.678 -7.014 -4.566 -1.4985 -4.428 -7.753 -7.45 -5.502501 -3.938 -5.166 -8.403 -5.35 -5.836 -5.7985 -3.769 0 -5.5025 -5.5025 -1.4985 -5.1995 -6.16 -6.353001 -7.6365 -4.463 -5.015 -7.485 -4.1355 -5.314 
-7.675 -9.422501 -7.014 -6.139 -4.428 -8.68 -11.3808 -9.4335 -7.509 -6.777 -10.089 -9.3195 -7.2695 -7.6625 -5.7985 -3.769 -5.5025 -5.5025 -6.2275 -5.1995 -6.6105 -8.634501 -8.972 -8.236501 -6.993001 -7.924001 -8.365 -7.674 
-9.451 -9.422501 -8.132 -9.395 -8.68 -12.4438 -13.3643 -11.5122 -10.047 -12.7038 -10.6275 -11.3778 -9.1155 -7.6625 -5.7985 -9.185 -5.5025 -6.2275 -8.865 -6.6105 -8.973001 -10.2645 -9.710001 -10.749 -8.967001 -8.6765 -9.092501 
-9.451 -10.5245 -11.4886 -13.6796 -12.4438 -14.4273 -15.443 -14.0502 -16.1088 -13.2423 -12.6858 -13.2238 -9.1155 -7.6625 -12.0701 -9.185 -6.2275 -8.865 -10.575 -8.973001 -10.4265 -11.1959 -12.2655 -12.723 -9.494 -9.109 
-1.934 -3.458 -1.4985 -3.158 -4.9175 -1.756 -4.566 -1.4985 -3.784 -3.836 -2.0935 -1.4985 -3.1385 -3.922 -3.7515 -3.769 0 -1.4985 -4.23 -3.1385 -2.229 -3.836 -3.922 -3.1575 -1.4985 -4.263 -3.1385 0 
-5.207 -4.063 -4.178 -7.6085 -6.678 -7.014 -6.139 -4.6165 -6.513 -5.498 -2.9725 -4.2575 -7.6955 -7.2825 -6.938 -3.769 -1.4985 -5.015 -5.86 -4.6125 -5.937 -7.4145 -7.5385 -4.1355 -5.314 -6.388 -3.1385 
-6.0585 -7.798 -8.325001 -9.3225 -9.422501 -8.132 -8.8285 -7.0455 -7.719 -5.9665 -5.5795 -9.389501 -11.3152 -10.2755 -6.938 -6.1 -5.015 -6.8395 -7.083 -7.988501 -9.508 -10.3545 -8.2605 -7.674 -7.4045 -6.388 
-9.576501 -12.49 -9.504001 -12.2132 -10.5245 -10.1385 -9.998 -7.969 -8.535501 -8.712501 -10.9563 -13.0188 -14.3082 -10.2755 -8.698 -10.0315 -6.8395 -7.7565 -9.542 -10.757 -12.5652 -11.0765 -11.9752 -9.589001 -7.4045 
-14.2801 -13.669 -12.4193 -13.3152 -12.531 -11.308 -10.4235 -8.815001 -11.4251 -14.4287 -14.5856 -16.0118 -14.3082 -12.0355 -12.7433 -11.856 -7.7565 -10.6937 -12.3299 -13.8142 -13.2872 -14.7912 -13.8902 -9.589001 
-4.9175 -1.934 -2.3615 -3.158 -1.756 -4.566 -1.934 -2.3615 -3.158 -3.222 0 -1.4985 -3.818 -4.4345 -1.7565 -3.5895 -1.756 -2.5685 -3.6765 -3.0465 -1.934 -2.645 -2.3335 -3.769 0 0 -4.23 -3.4975 -4.275 -3.922 -1.934 -4.263 -3.3975 0 
-6.84 -3.539 -4.2655 -4.703 -7.014 -6.588 -3.539 -4.2655 -6.7415 -3.222 -1.4985 -5 -8.271501 -4.719 -4.8595 -4.937 -4.2335 -7.32 -6.9325 -4.8825 -4.899 -5.707 -6.501 -3.769 0 -4.23 -7.956 -8.346001 -6.8615 -4.558 -6.3615 -7.381 -3.3975 
-9.018001 -5.9105 -5.575 -9.856501 -8.474001 -8.311501 -5.9105 -8.017 -6.7415 -3.7835 -5 -8.3885 -8.672501 -8.014 -5.938 -7.396 -8.962001 -11.1708 -8.6665 -7.8785 -8.038 -8.491 -6.501 -3.769 -4.23 -7.956 -13.1743 -11.3357 -7.7865 -9.4285 -10.1855 -7.381 
-11.4701 -7.9315 -11.0211 -11.9099 -10.575 -10.7335 -10.6735 -8.017 -7.225501 -7.4355 -8.3885 -8.758 -12.0955 -10.1675 -8.333 -12.7543 -13.1784 -12.9048 -11.8957 -11.0419 -9.908001 -8.491 -6.501 -8.684501 -7.956 -13.1743 -16.164 -12.2607 -13.3772 -13.8027 -10.1855 
-13.4911 -13.4816 -13.0745 -14.0109 -12.997 -15.4965 -10.6735 -8.5645 -11.2871 -11.1498 -8.758 -12.1456 -14.249 -12.5625 -13.8377 -16.9707 -14.9124 -16.134 -15.0591 -12.9119 -9.908001 -8.491 -12.4049 -12.4623 -13.1743 -16.164 -17.089 -17.8514 -17.7514 -13.8027 
