-4.759 
n/a 
n/a 
n/a 
n/a 
-4.759 
n/a 
n/a 
n/a 
n/a 
-4.759 
n/a 
n/a 
n/a 
n/a 
-4.759 
n/a 
n/a 
n/a 
n/a 
-3.7075 -4.593 -3.814 -5.4945 -1.756 -3.321 -7.626 
-8.4945 -9.794001 -6.379 -6.6075 -4.0055 -11.8554 
-14.1835 -12.5474 -7.543 -8.776501 -12.9795 
-16.9369 -13.7114 -9.6715 -17.9635 
-18.1009 -15.8399 -18.9273 
-3.7075 -5.045 -1.7695 -4.287 -1.7565 -3.814 -5.4945 -1.7695 -7.9945 -1.756 -4.031 -1.7565 -3.1495 0 
-10.0925 -6.2415 -5.9535 -6.269 -5.58 -6.379 -7.6835 -10.459 -9.337 -6.1435 -5.571 -3.914 -3.1495 
-11.289 -11.7019 -8.7865 -10.7575 -8.236501 -8.41 -16.778 -11.8015 -13.7933 -7.824 -8.1715 -3.914 
-16.7494 -14.5349 -13.1824 -13.414 -9.953501 -17.7101 -18.1205 -16.2578 -15.4738 -10.3155 -8.1715 
-19.5824 -18.9308 -15.8389 -15.131 -19.449 -19.0526 -22.5768 -17.9383 -17.9653 -10.3155 
-3.6615 -4.4825 -1.934 -1.4985 -4.7885 -4.1455 -1.7565 -3.7075 -2.7415 -1.4985 -4.031 -2.0935 -5.473 -3.4625 -1.934 -1.4985 -3.814 0 
-7.941 -5.5625 -2.6125 -5.282001 -6.302001 -5.11 -5.7275 -6.2635 -4.063 -4.771 -4.8935 -7.7355 -6.14 -4.565 -2.6125 -4.198 -3.814 
-8.588 -6.0375 -6.3055 -6.639 -6.596 -9.367001 -8.7045 -7.917001 -6.482 -5.3855 -11.3379 -8.442 -7.8975 -5.1315 -4.6115 -4.198 
-8.975 -10.092 -8.2925 -6.7995 -11.4482 -12.5162 -10.2645 -10.7495 -7.023 -12.1643 -12.0444 -9.84 -8.4045 -7.6265 -4.6115 
-13.0007 -12.1712 -8.4615 -12.0205 -14.5974 -14.0762 -13.097 -11.2905 -13.8542 -12.8708 -13.4424 -10.3445 -10.134 -7.6265 
-1.4985 -3.6615 -1.934 -1.4985 -4.2485 -1.7565 -1.4985 -3.7075 -2.8645 -3.1125 -1.4985 -4.031 -2.0935 -1.4985 -5.473 -3.6615 -1.934 -1.4985 -3.814 0 
-4.9455 -4.437 -2.6125 -5.307 -5.5065 -2.4195 -4.6235 -6.4255 -3.5345 -4.8735 -4.771 -4.8935 -2.9725 -6.811501 -6.1595 -4.437 -2.6125 -4.198 -3.814 
-5.731 -5.0245 -6.895 -5.982501 -5.9265 -5.468501 -6.809501 -7.380001 -5.224 -7.483 -5.3855 -5.596 -8.4355 -8.205 -7.985 -5.0245 -4.6115 -4.198 
-6.1885 -8.142 -7.671 -6.1565 -8.2875 -8.139001 -7.758501 -9.012501 -8.1315 -7.890501 -5.895 -11.5252 -9.797501 -9.231001 -8.3295 -7.486001 -4.6115 
-9.344001 -8.610001 -7.810501 -8.557 -10.66 -8.781 -9.251 -12.22 -8.3955 -8.341001 -11.943 -12.8872 -10.8137 -9.714001 -9.4725 -7.486001 
