-4.759 
n/a 
n/a 
n/a 
n/a 
-4.759 
n/a 
n/a 
n/a 
n/a 
-4.759 
n/a 
n/a 
n/a 
n/a 
-4.759 
n/a 
n/a 
n/a 
n/a 
-3.2615 -4.569 -3.3715 -4.9225 -2.4945 -5.3905 -1.7695 -3.8655 -2.5195 -3.948 -3.959 0 
-7.4355 -8.337 -7.0565 -6.9525 -7.002 -6.104 -5.6875 -6.564 -5.454 -6.288 -3.959 
-10.354 -12.1932 -8.9385 -11.778 -7.669001 -9.7095 -7.4665 -9.859 -7.112 -6.288 
-14.2102 -14.0752 -13.9406 -12.445 -11.5977 -11.5323 -10.476 -10.761 -7.112 
-16.0922 -19.0773 -14.6076 -16.3737 -13.4205 -14.5418 -11.378 -10.761 
-3.1385 -4.685 -2.5195 -3.994 -1.756 -3.875 -3.152 -4.803 -1.7695 -3.0465 -3.222 -1.4985 -3.59 -3.819 -1.4985 -3.582 -4.3105 -4.631 -4.0555 -3.222 -2.664 -3.498 -1.934 -4.569 0 
-7.502 -5.093 -6.21 -5.313 -5.479 -6.835501 -6.422501 -5.098001 -3.683 -5.0985 -3.7835 -4.268 -7.225 -4.844 -4.692 -7.904 -10.316 -8.7895 -5.5095 -4.9245 -5.1155 -5.52 -5.777 -4.569 
-7.8925 -9.590001 -7.089 -6.6615 -7.793 -10.0675 -6.528 -7.259 -5.495 -5.6045 -6.3165 -7.619 -8.212001 -8.377501 -9.052 -14.2815 -14.4745 -9.528501 -8.437 -7.8535 -6.476501 -9.184501 -5.777 
-12.4523 -10.3495 -8.0985 -8.595 -11.2268 -10.144 -8.6555 -9.032001 -5.9715 -8.096001 -9.3295 -8.5045 -11.8651 -12.7371 -15.6101 -18.44 -15.2135 -13.0254 -10.4425 -9.319 -9.873501 -9.184501 
-13.2118 -11.359 -10.195 -12.3836 -11.3033 -12.2715 -10.264 -9.329 -8.257501 -10.341 -9.943501 -12.2108 -16.2247 -19.2952 -19.7686 -19.179 -18.7104 -15.0309 -11.908 -13.5162 -9.873501 
-3.2615 -1.4985 -3.582 -4.3105 -3.2275 -4.0555 -1.7695 -2.664 -3.498 0 -4.685 -2.5195 -4.317 -1.756 -3.982 -3.1385 0 -2.8965 -3.1385 -3.152 -4.803 -1.7695 -6.6425 -3.0365 0 
-4.032 -4.692 -7.904 -7.639501 -7.8505 -4.7475 -4.185 -5.1155 -3.498 -4.685 -5.093 -6.868 -5.9925 -5.594 -7.158 -3.1385 -2.8965 -4.8735 -5.219 -6.422501 -5.098001 -6.8875 -8.779501 -3.0365 
-7.4585 -9.052 -9.497001 -13.0647 -8.716001 -6.349 -5.6315 -5.1155 -8.513 -5.093 -10.001 -8.1385 -6.942 -8.7355 -7.158 -6.644501 -4.8735 -7.0075 -7.997001 -6.528 -9.243 -9.0135 -8.779501 
-12.1299 -9.795501 -15.1212 -13.9302 -9.6555 -6.4995 -5.6315 -9.634501 -8.6075 -10.001 -11.2715 -8.776501 -9.978001 -8.7355 -11.237 -7.974501 -7.0075 -10.0931 -8.0445 -9.763 -11.4584 -9.0135 
-12.8734 -15.4387 -15.9867 -14.8697 -9.728001 -6.4995 -9.800501 -9.653501 -13.6477 -11.2715 -11.9095 -11.9165 -9.978001 -12.6175 -12.567 -10.254 -10.0931 -10.1406 -11.3973 -12.0598 -11.4584 

n/a 
n/a 
n/a 
n/a 
