-4.759 
n/a 
n/a 
n/a 
n/a 
-4.759 
n/a 
n/a 
n/a 
n/a 
-4.759 
n/a 
n/a 
n/a 
n/a 
-4.759 
n/a 
n/a 
n/a 
n/a 
-4.99 -1.934 -1.4985 -14.3775 -3.4075 -4.476 0 -2.3615 -3.2875 -2.186 -1.8085 -3.6135 -1.756 -4.4695 -4.905 -4.944 -2.0935 -7.6885 -5.592 0 
-5.477 -2.6125 -17.2403 -19.3692 -6.144501 -4.476 -2.3615 -5.6385 -5.4535 -3.164 -4.4545 -5.5285 -6.1145 -8.631001 -7.9725 -7.3535 -8.5495 -9.157001 -5.592 
-5.791 -19.074 -21.9494 -22.1062 -6.144501 -7.3065 -5.6385 -6.889 -6.4935 -5.4355 -7.069 -8.54 -10.634 -12.0113 -9.6815 -14.1239 -12.3705 -10.085 
-23.0799 -23.2061 -24.6864 -22.1062 -9.491501 -10.5135 -6.889 -7.976 -8.625501 -7.818 -9.566 -13.2929 -14.0143 -13.7203 -16.4821 -18.1591 -12.6217 
-27.1038 -25.9431 -24.6864 -25.4532 -12.7621 -11.764 -7.976 -10.292 -10.146 -10.3675 -14.3763 -16.6732 -15.7233 -20.5209 -20.5173 -18.1591 
-2.3615 -3.2875 -2.186 -4.06 -1.934 -5.3885 -1.7695 -8.8935 -3.4075 -4.476 0 -2.8645 -1.8085 -3.3235 -3.9205 -4.1225 -5.592 -4.944 0 
-5.6385 -5.4535 -4.672 -4.483 -6.4035 -7.1375 -10.575 -12.6514 -6.144501 -4.476 -2.8645 -3.9785 -4.9145 -4.8795 -8.463501 -8.241001 -9.8745 -4.944 
-6.889 -7.1445 -5.13 -8.426001 -8.308001 -16.72 -14.3329 -15.3884 -6.144501 -7.5085 -3.9785 -6.6085 -5.694 -8.726501 -12.7364 -12.7113 -9.8745 
-8.785501 -7.603001 -9.308001 -10.8175 -18.2809 -20.4779 -17.0699 -15.3884 -9.633501 -8.647 -6.6085 -7.725 -9.161501 -13.1068 -17.2067 -12.7113 
-9.2335 -12.142 -11.7437 -20.7904 -22.0388 -23.2149 -17.0699 -18.8774 -10.8244 -11.3594 -7.725 -11.6837 -13.6576 -17.5771 -17.2067 
-4.99 -2.264 -1.4985 -14.282 -3.4075 -4.476 0 -2.3615 -3.2875 -2.186 -3.17 -3.699 -4.944 -1.934 -3.502 -4.1865 -4.905 0 
-5.757 -2.9195 -17.1448 -19.0077 -6.144501 -4.476 -2.3615 -5.6385 -5.4535 -5.1385 -4.663 -8.4595 -7.002501 -4.8155 -6.301 -7.5255 -4.905 
-6.042 -19.373 -21.5879 -21.7447 -6.144501 -7.3065 -5.6385 -6.889 -8.4665 -6.321 -9.699 -9.3955 -9.316501 -7.711501 -9.481 -7.5255 
-21.4858 -23.3367 -24.3249 -21.7447 -9.491501 -10.5135 -6.889 -9.4425 -10.411 -12.248 -10.4135 -11.8817 -12.4005 -11.3971 -9.481 
-25.2437 -26.0737 -24.3249 -25.0917 -12.7621 -11.764 -9.4425 -11.6968 -16.338 -12.9625 -12.8655 -14.9657 -16.0861 -11.3971 
-2.3615 -3.2875 -4.06 -1.934 -14.3775 -3.4075 -4.476 -2.186 -2.871 -1.7565 -1.4985 -3.699 -6.019 -1.7565 -4.1225 -4.905 0 
-5.6385 -6.911 -4.483 -16.3603 -19.3692 -6.144501 -6.776 -4.247 -3.5385 -2.4195 -5.264 -8.9615 -7.373 -5.2875 -6.800501 -4.905 
-8.772 -7.241 -18.7096 -20.711 -22.1062 -9.089001 -8.554501 -4.411 -3.7675 -6.063 -10.218 -9.664001 -11.2782 -8.519 -6.800501 
-9.073501 -22.3208 -23.2205 -23.448 -25.0507 -10.3685 -8.6435 -4.5655 -6.646 -10.634 -10.9205 -14.135 -14.5097 -8.519 
-24.2399 -26.3447 -25.9575 -26.3925 -26.3302 -10.4545 -8.802001 -7.2785 -11.4606 -11.3365 -15.3915 -17.3665 -14.5097 
