-4.759 
n/a 
n/a 
n/a 
n/a 
-4.759 
n/a 
n/a 
n/a 
n/a 
-4.759 
n/a 
n/a 
n/a 
n/a 
-4.759 
n/a 
n/a 
n/a 
n/a 
-4.3285 -8.552501 -8.46 0 -8.854 0 0 -4.0275 -4.1665 0 -5.1645 -5.617 -3.7955 -4.639 -5.2375 
-13.2314 -17.1809 -8.46 -8.854 -8.854 0 -4.0275 -8.997 -4.1665 -5.1645 -7.799 -8.1165 -9.005501 -10.523 
-21.8598 -17.1809 -17.5934 -8.854 -8.854 -4.0275 -8.997 -8.997 -10.932 -7.799 -8.366 -14.0961 -15.2463 
-21.8598 -26.3143 -17.5934 -8.854 -13.3567 -8.997 -8.997 -15.9301 -13.5665 -8.366 -15.1984 -20.3369 
-30.9932 -26.3143 -17.5934 -13.3567 -18.3262 -8.997 -15.9301 -18.5646 -14.1335 -15.1984 -21.4392 
-12.508 -8.46 0 -5.7865 0 0 -4.0275 -3.685 0 -1.934 -5.1645 -2.4265 -2.7415 -8.485001 -4.639 -5.8525 
-22.0134 -8.46 -5.7865 -5.7865 0 -4.0275 -7.307 -3.685 -1.934 -6.5525 -8.309501 -3.681 -9.89 -13.59 -11.6149 
-22.0134 -14.5259 -5.7865 -5.7865 -4.0275 -7.307 -7.307 -5.3835 -6.5525 -8.6695 -9.3915 -11.0321 -15.3526 -20.5659 
-28.0793 -14.5259 -5.7865 -10.9856 -7.307 -7.307 -8.691501 -9.384001 -8.6695 -9.808001 -16.8618 -16.4947 -22.3285 
-28.0793 -14.5259 -10.9856 -14.2651 -7.307 -8.691501 -12.9856 -12.0852 -9.808001 -17.3569 -22.3244 -23.4706 
-4.3285 0 -12.16972 -12.16972 0 -5.7865 0 0 -4.0275 -3.685 0 -1.934 -5.1645 -2.229 -4.824 -1.7695 -12.16972 -3.6715 0 
-4.3285 -12.16972 -24.33944 -12.16972 -5.7865 -5.7865 0 -4.0275 -7.307 -3.685 -1.934 -6.5525 -8.514 -7.739 -6.0705 -14.92142 -15.84122 -3.6715 
-16.84862 -24.33944 -24.33944 -17.95622 -5.7865 -5.7865 -4.0275 -7.307 -7.307 -5.3835 -6.5525 -10.1265 -14.2046 -8.981501 -20.00642 -18.59292 -15.84122 
-29.01834 -24.33944 -30.12594 -17.95622 -5.7865 -10.9856 -7.307 -7.307 -8.691501 -9.384001 -10.1265 -15.9771 -15.4471 -23.52382 -23.67792 -18.59292 
-29.01834 -30.12594 -30.12594 -17.95622 -10.9856 -14.2651 -7.307 -8.691501 -12.9856 -13.5422 -15.9771 -17.2196 -29.98942 -27.19532 -23.67792 
-4.3285 -12.16972 -12.16972 0 -5.7865 0 0 -4.0275 -3.9825 0 -4.639 -7.1875 -3.6885 -4.894 -1.934 -5.1645 0 
-16.84862 -24.33944 -12.16972 -5.7865 -5.7865 0 -4.0275 -7.633 -3.9825 -4.639 -12.9499 -11.441 -7.875501 -6.5295 -6.5525 -5.1645 
-29.01834 -24.33944 -17.95622 -5.7865 -5.7865 -4.0275 -7.633 -7.633 -9.3585 -12.9499 -17.2034 -15.628 -9.992001 -9.284 -6.5525 
-29.01834 -30.12594 -17.95622 -5.7865 -10.9856 -7.633 -7.633 -13.1668 -17.691 -17.2034 -21.3904 -17.7445 -12.8155 -9.284 
-34.80484 -30.12594 -17.95622 -10.9856 -14.5911 -7.633 -13.1668 -21.4993 -21.9445 -21.3904 -23.5069 -20.568 -12.8155 
