-4.759 
n/a 
n/a 
n/a 
n/a 
-4.759 
n/a 
n/a 
n/a 
n/a 
-4.759 
n/a 
n/a 
n/a 
n/a 
-4.759 
n/a 
n/a 
n/a 
n/a 
-10.0545 -4.5465 0 -4.836 0 
-15.1351 -4.5465 -4.836 -4.836 
-15.1351 -9.8405 -4.836 
-20.6669 -9.8405 
-20.6669 
-4.98 -4.3615 -3.837 -3.264 0 -4.836 0 
-9.6975 -7.519501 -7.5 -3.264 -4.836 -4.836 
-12.9029 -11.6909 -7.5 -8.1245 -4.836 
-17.0743 -11.6909 -13.4789 -8.1245 
-17.0743 -17.6698 -13.4789 
-9.3955 -4.3615 0 -4.836 0 
-14.711 -4.3615 -4.836 -4.836 
-15.2482 -10.1995 -4.836 
-21.1428 -10.1995 
-21.1428 
-4.98 -3.047 -3.264 -4.3615 0 -4.836 0 
-8.499001 -7.3725 -8.334001 -4.3615 -4.836 -4.836 
-13.0481 -12.9891 -8.334001 -10.1995 -4.836 
-18.6647 -12.9891 -14.6016 -10.1995 
-18.6647 -19.2567 -14.6016 
