-4.759 
n/a 
n/a 
n/a 
n/a 
-4.759 
n/a 
n/a 
n/a 
n/a 
-4.759 
n/a 
n/a 
n/a 
n/a 
-4.759 
n/a 
n/a 
n/a 
n/a 
-2.7835 -2.4265 -4.474 -1.934 -1.4985 -4.1115 0 -4.2285 -3.892 -2.186 -4.4465 0 
-4.1745 -6.977 -5.244 -2.6125 -4.843 -4.1115 -4.2285 -8.709001 -5.6735 -5.8765 -4.4465 
-9.486501 -8.146001 -5.7705 -6.0655 -4.843 -7.503 -8.709001 -10.435 -8.6335 -5.8765 
-10.4275 -8.792001 -9.3725 -6.0655 -8.7915 -13.0751 -10.435 -13.395 -8.6335 
-11.0735 -12.465 -9.3725 -9.416 -14.565 -14.8011 -13.395 -13.395 
-3.034 -4.4995 -1.934 -4.1115 -1.4985 -4.622 -4.2285 -4.1115 -2.186 -4.4465 0 
-8.505501 -5.663 -6.27 -5.8805 -5.221 -8.7165 -5.7285 -6.279 -5.8765 -4.4465 
-10.1475 -10.564 -8.870001 -9.750501 -9.493 -10.7673 -8.262001 -9.646501 -5.8765 
-15.0485 -13.164 -12.8108 -14.0225 -11.5144 -13.3008 -11.9547 -9.646501 
-17.6485 -17.1048 -17.0828 -16.0439 -14.0479 -16.9935 -11.9547 
-2.7835 -4.638 -1.934 -4.1115 -2.4265 -4.8675 -4.2285 -4.1115 
-7.9655 -5.472 -6.27 -6.6315 -5.962501 -9.2335 -5.7285 
-8.6475 -9.5245 -9.637001 -10.4345 -10.7959 -10.1825 
-13.276 -13.2537 -13.4638 -15.6357 -11.7449 
-17.0052 -17.0805 -18.665 -16.5847 
-2.7835 -2.4265 -4.066 -1.934 -4.1115 -2.4265 -2.742 -4.4305 -1.4985 -4.2285 -4.1115 -3.8195 
-4.1745 -4.728 -5.226 -6.27 -6.6315 -4.095 -5.6405 -4.947 -5.319 -5.7285 -7.325001 
-6.476501 -6.3 -9.986 -9.637001 -8.278001 -6.658 -6.154 -9.258 -6.5125 -8.849001 
-7.752501 -11.2788 -13.3976 -11.3073 -11.0482 -7.2945 -10.63 -10.323 -9.915001 
-13.1899 -14.6904 -15.0679 -14.0775 -11.6847 -11.8869 -11.695 -13.7255 
