-4.759 
n/a 
n/a 
n/a 
n/a 
-4.759 
n/a 
n/a 
n/a 
n/a 
-4.759 
n/a 
n/a 
n/a 
n/a 
-4.759 
n/a 
n/a 
n/a 
n/a 
-2.3615 -3.84 -2.186 -2.9645 -2.264 -3.3715 -4.2655 -3.1385 -4.1555 -2.264 -3.502 -4.348 
-7.212501 -6.2295 -6.4285 -5.2985 -5.394 -8.663 -7.602 -7.9795 -5.1435 -5.967 -8.2025 
-9.241501 -10.335 -8.2305 -8.2015 -10.7495 -12.1919 -12.834 -9.175501 -9.439001 -11.1801 
-13.4658 -12.137 -12.0305 -13.7888 -14.2784 -17.4239 -14.03 -13.4784 -14.9337 
-15.2678 -15.937 -17.6178 -17.3177 -19.5104 -18.6199 -18.3329 -18.9731 
-2.3615 -4.397 -3.6615 -3.641 -4.9225 -1.7565 -2.3615 -3.8375 -1.7695 -3.8245 -4.887 
-6.016 -7.8455 -8.31 -8.985001 -6.042 -3.523 -6.362 -6.124001 -6.049 -7.91 
-9.959001 -12.709 -14.287 -10.8339 -7.8195 -7.2285 -8.2085 -10.8391 -10.155 
-15.0063 -18.686 -16.1359 -12.6114 -9.932501 -8.956 -13.1228 -14.9451 
-20.9833 -20.5349 -17.9134 -14.7244 -11.66 -13.9351 -17.2288 
-2.3615 -3.6205 -4.7925 -1.4985 -3.1385 -2.0935 -3.288 -4.7365 0 
-5.509501 -8.528 -6.315 -4.2575 -5.396501 -5.448 -8.388 -4.7365 
-10.1345 -9.176001 -8.506001 -6.52 -8.789001 -11.4932 -8.388 
-10.348 -11.4996 -10.757 -10.107 -15.2182 -11.4932 
-12.6716 -13.7506 -14.344 -16.6198 -15.2182 
-2.5045 -3.543 -1.4985 -3.6205 0 -3.1385 -5.2115 -1.7695 -3.6065 -4.8445 -3.152 -3.43 -1.7695 -3.952 -2.9905 -2.5195 -1.4985 -3.8375 -2.229 -4.142 -3.8195 -1.756 -6.976 -1.934 -4.2775 -4.088 
-5.323 -5.62 -4.755 -3.6205 -3.1385 -7.442501 -5.282 -5.3625 -6.7685 -7.0335 -5.144 -4.647 -4.6075 -5.9475 -5.134 -3.1695 -5.0225 -5.773 -6.3195 -6.942 -5.127 -8.110001 -7.7425 -5.851 -7.6875 
-5.8685 -8.253 -4.755 -7.6035 -7.442501 -7.452501 -7.158 -8.566501 -8.813001 -9.136001 -5.958 -7.406 -6.382 -7.759501 -5.6625 -6.66 -6.1305 -8.3885 -8.75 -8.239 -10.0375 -8.8745 -12.1533 -8.240001 
-8.4095 -8.253 -8.740001 -12.2783 -7.452501 -8.6 -9.35 -10.734 -9.2725 -10.6444 -8.656 -9.568501 -8.196 -8.3225 -8.9715 -7.7825 -8.491 -10.7175 -9.951 -13.3979 -11.2472 -13.3195 -14.5423 
-8.4095 -12.3588 -13.592 -12.2883 -8.6 -10.1035 -11.5659 -11.1935 -12.4327 -13.3424 -10.609 -11.3931 -8.713 -11.8031 -10.389 -10.096 -10.9154 -11.9185 -15.1099 -14.6076 -15.6922 -15.7085 
