-4.759 
n/a 
n/a 
n/a 
n/a 
-4.759 
n/a 
n/a 
n/a 
n/a 
-4.759 
n/a 
n/a 
n/a 
n/a 
-4.759 
n/a 
n/a 
n/a 
n/a 
-15.76372 -3.748 0 -4.3615 -3.748 0 
-18.81522 -3.748 -4.3615 -7.960501 -3.748 
-18.81522 -8.643001 -7.960501 -7.960501 
-22.34672 -10.2385 -7.960501 
-23.94222 -10.2385 
-2.5645 -21.19222 -8.530001 0 -6.697001 -7.1515 0 
-23.97772 -30.14602 -8.530001 -6.697001 -14.6221 -7.1515 
-32.93152 -30.14602 -15.4874 -14.6221 -14.6221 
-32.93152 -37.10342 -23.4125 -14.6221 
-39.88892 -45.02852 -23.4125 
-26.90394 0 -6.697001 -7.226 0 
-27.12494 -6.697001 -14.6966 -7.226 
-33.82194 -14.6966 -14.6966 
-41.82154 -14.6966 
-41.82154 
-21.19222 -8.34 
-29.95602 
n/a 
n/a 
n/a 
