-4.759 
n/a 
n/a 
n/a 
n/a 
-4.759 
n/a 
n/a 
n/a 
n/a 
-4.759 
n/a 
n/a 
n/a 
n/a 
-4.759 
n/a 
n/a 
n/a 
n/a 
-3.091 -4.373 -2.186 -3.919 -5.891 -2.229 -4.6555 -1.756 -4.677 -4.373 0 
-6.539001 -6.352 -7.4285 -7.503 -8.5765 -6.4445 -5.774 -6.7795 -9.194 -4.373 
-8.025001 -12.1223 -11.7299 -11.5387 -13.0202 -7.450001 -11.7609 -11.6637 -9.194 
-13.8715 -16.4237 -15.7656 -15.9824 -14.0257 -13.5893 -16.6451 -11.6637 
-18.1729 -20.4594 -20.2093 -16.9879 -20.165 -18.4735 -16.6451 
-1.4985 -4.1395 -3.7855 -1.7695 -3.595 -2.7415 -5.2705 -4.1395 -4.7775 -3.999 -1.756 -6.594 -3.6215 
-5.494 -7.713 -4.793 -4.741 -6.068501 -8.249001 -9.610001 -8.918 -10.7335 -5.712 -7.7885 -11.0873 
-8.698501 -9.9755 -6.5845 -6.9515 -11.783 -12.9087 -14.4677 -15.1188 -12.4465 -12.3681 -12.6714 
-10.523 -11.9828 -8.882501 -12.7934 -16.4427 -17.7664 -20.6685 -16.8318 -19.1026 -17.251 
-12.8585 -14.2808 -14.8026 -17.4531 -21.3004 -23.9672 -22.3815 -23.4879 -23.9855 
-2.9805 -4.005 -1.4985 -5.071 -1.7565 -4.5735 -1.7565 -1.4985 -4.5185 -6.501 -1.756 -5.302 0 
-5.8795 -5.536 -6.8075 -6.5695 -6.1955 -5.7035 -2.4195 -5.8135 -7.132501 -7.229001 -7.2035 -5.302 
-6.73 -9.2535 -7.455 -11.6855 -8.147 -6.134 -6.657001 -7.7035 -7.549 -13.4481 -7.2035 
-9.9125 -9.2985 -12.8854 -13.637 -8.7945 -9.4595 -8.297501 -8.0295 -14.5943 -13.4481 
-9.967501 -14.8237 -14.8369 -14.2845 -12.2992 -9.732 -8.6215 -15.1938 -14.5943 
-3.091 -4.4725 -4.373 -4.5735 -3.6215 -1.7565 -7.377 
-7.5745 -9.297001 -9.916 -7.0065 -3.936 -9.347501 
-12.6524 -14.6908 -12.5466 -7.8685 -13.208 
-18.0462 -17.3214 -13.4086 -17.5305 
-20.6768 -18.1834 -23.0706 
