-4.759 
n/a 
n/a 
n/a 
n/a 
-4.759 
n/a 
n/a 
n/a 
n/a 
-4.759 
n/a 
n/a 
n/a 
n/a 
-4.759 
n/a 
n/a 
n/a 
n/a 
-2.5045 -2.871 -1.7565 -1.4985 -5.3355 -3.1435 -4.056 -4.1445 -2.5045 -2.871 -3.515 -3.321 -2.674 -3.251 -4.0995 -4.437 -4.1655 -3.0365 -2.7415 -3.6705 -2.871 -2.645 -3.515 
-4.7085 -3.5385 -2.4195 -6.4375 -9.1215 -7.063 -8.6485 -6.2035 -4.7085 -5.3305 -6.6315 -5.7015 -6.768001 -8.217 -7.514 -8.755001 -7.1105 -4.2225 -5.528 -6.912001 -5.038 -6.8935 
-4.9525 -3.7675 -7.292001 -9.964001 -13.2142 -12.3683 -9.959001 -8.565001 -7.759501 -7.952 -9.1425 -9.964001 -12.2356 -12.0017 -12.1296 -12.0268 -8.665501 -8.947001 -8.4715 -8.828001 -7.1055 
-5.1005 -8.958501 -10.6735 -14.0567 -18.5195 -13.6788 -13.5003 -11.7604 -10.727 -10.228 -13.5492 -15.552 -16.0203 -16.6173 -15.4014 -13.5818 -13.39 -11.8333 -10.7897 -10.7025 
-10.3745 -12.9186 -14.7662 -19.362 -19.83 -17.2201 -16.6957 -14.7279 -13.003 -14.7543 -19.1372 -19.3367 -20.6359 -19.8891 -16.9564 -18.3063 -16.2763 -14.1515 -12.6642 
-1.934 -1.4985 -6.071 -3.711 -1.4985 -3.1385 -4.0555 -3.147 -2.0935 -7.245 -1.756 -4.101 -1.934 -2.8965 -3.2795 -2.0935 -3.135 -2.95 -1.756 -4.2225 -2.985 -3.7855 -3.213 
-2.6125 -7.5635 -10.718 -5.5305 -4.2575 -6.3625 -6.0075 -4.2965 -9.078501 -8.8535 -5.32 -5.822001 -4.391 -6.0955 -5.344501 -4.4665 -4.868 -4.287 -5.912 -6.259001 -7.4205 -7.5 
-8.945001 -12.4609 -12.5375 -8.27 -7.5265 -8.076501 -7.106 -12.2827 -11.1052 -12.7217 -7.001 -9.059001 -7.966001 -8.3325 -7.9025 -5.4385 -6.103 -8.502 -7.793 -10.647 -10.316 
-13.911 -14.2804 -15.277 -12.005 -9.713 -9.278001 -15.589 -14.3094 -14.9734 -14.4027 -10.126 -12.9494 -10.7836 -10.6875 -8.630501 -6.486001 -10.389 -10.316 -12.4956 -13.5425 
-15.7305 -17.0199 -19.012 -14.1915 -10.8657 -17.7974 -17.6157 -18.1776 -16.6544 -17.5277 -14.1098 -15.767 -13.1386 -11.4155 -9.337001 -10.7025 -12.4106 -15.0186 -15.3911 
-3.345 -5.3355 -2.742 -3.429 -4.509 -1.934 -2.985 -3.5205 -3.4425 -2.0935 -1.8085 -3.515 -1.756 -4.8085 -1.7695 -1.4985 -3.291 -3.518 -1.7565 -4.126 -1.756 -2.742 -3.429 -4.509 -3.0365 0 
-8.012501 -8.051001 -4.5865 -8.533501 -6.389 -4.111 -4.257 -6.93 -5.289 -3.385 -4.5725 -5.1255 -6.221 -5.180501 -2.7955 -3.9665 -5.48 -4.302 -6.3205 -5.5705 -4.2795 -4.5865 -8.533501 -7.538 -3.0365 
-9.570001 -9.876 -10.5975 -10.4765 -8.654501 -5.3075 -7.3535 -8.729 -6.551 -5.724 -5.837501 -9.7305 -6.5235 -5.6285 -4.9985 -5.5535 -6.4935 -9.1715 -7.436501 -7.761501 -6.2515 -10.5975 -12.0915 -7.538 
-11.4888 -15.981 -12.5405 -12.742 -10.2755 -7.727 -9.248501 -10.0645 -8.6315 -6.700001 -10.8579 -10.153 -7.0195 -7.91 -5.6625 -6.548 -11.784 -10.565 -10.3233 -9.561001 -12.4025 -14.1555 -12.0915 
-17.5938 -17.924 -14.806 -14.363 -12.695 -9.765 -10.6408 -12.145 -9.698 -12.0568 -11.2804 -10.6695 -9.3475 -9.559501 -6.854 -11.8575 -13.1775 -13.4518 -12.1228 -15.9872 -15.9605 -14.1555 
-3.6055 -2.871 -9.825001 -3.152 -1.934 -1.4985 -4.5165 -1.934 -1.4985 -3.0835 -4.3565 -4.5115 
-5.363 -13.894 -13.2356 -4.9115 -2.6125 -6.118 -6.12 -2.6125 -3.535 -6.233 -9.4525 
-17.271 -17.3046 -14.9951 -5.513 -7.2095 -6.7365 -6.9085 -4.5575 -6.405001 -12.0036 
-20.6816 -19.0641 -15.5966 -9.9425 -8.061001 -7.802001 -8.3735 -7.0425 -12.5256 
-22.4411 -19.6656 -20.0261 -10.8972 -9.224001 -9.488501 -11.5777 -13.3011 
