-4.759 
n/a 
n/a 
n/a 
n/a 
-4.759 
n/a 
n/a 
n/a 
n/a 
-4.759 
n/a 
n/a 
n/a 
n/a 
-4.759 
n/a 
n/a 
n/a 
n/a 
-2.5685 -1.7565 -1.4985 -3.158 -1.4985 -3.9075 -7.235 -2.186 -4.54 -2.356 -3.4715 -1.756 -2.4265 -3.6845 -4.179 -4.495 -2.0935 -1.4985 -3.1385 -1.7565 -9.196501 
-3.887 -2.4195 -4.178 -4.725 -4.9185 -8.659 -8.9995 -5.626 -4.954501 -5.443 -4.7575 -3.949 -6.291 -9.057001 -8.766001 -6.421 -2.9725 -4.2575 -4.861 -10.4425 
-4.34 -4.4755 -5.6325 -8.4355 -8.9185 -10.1075 -12.7675 -5.7675 -6.715001 -6.2885 -7.047501 -8.2075 -12.1535 -14.0978 -10.8898 -7.021501 -5.5795 -5.1835 -14.4176 
-8.057 -5.9145 -9.0935 -12.6273 -10.459 -13.8755 -12.909 -7.7695 -7.446501 -8.460001 -11.4868 -14.169 -17.1943 -16.2216 -11.4903 -9.057501 -6.2405 -14.8727 
-9.691 -9.274 -13.3405 -14.1678 -14.227 -14.017 -14.911 -8.410501 -9.495501 -12.9241 -17.4483 -19.2098 -19.3181 -16.8221 -13.5263 -9.794001 -16.1471 
-1.4985 -3.9075 -7.400001 -5.446 -3.6055 -3.158 -1.756 -2.3615 -2.186 -2.871 -4.031 -2.0935 -1.4985 -7.4885 -1.7695 -5.863 
-4.9185 -8.524 -13.5458 -8.054501 -5.061 -4.703 -4.4615 -3.5005 -4.247 -5.6145 -4.8935 -2.9725 -8.1875 -9.9235 -6.6885 
-8.823 -14.8902 -16.1543 -9.8485 -6.294001 -6.726501 -5.0895 -5.2435 -6.453 -6.439 -5.596 -10.3545 -10.1765 -14.8425 
-15.228 -17.4987 -17.9483 -11.1345 -7.9145 -7.4975 -6.637 -6.9115 -7.6585 -6.982 -13.4442 -12.3435 -15.0955 
-17.8365 -19.2927 -19.2343 -12.755 -8.682501 -8.5775 -8.1845 -8.3105 -8.049001 -15.1042 -15.4332 -17.2625 
-1.4985 -3.9075 -5.9185 -4.196 -3.6055 -3.158 -3.4945 -4.7085 0 -1.756 -3.59 -3.1385 -4.7425 -2.3615 
-4.9185 -7.954 -10.411 -8.5255 -5.061 -6.373 -9.5415 -4.7085 -1.756 -5.4585 -6.724 -7.2955 -6.489501 
-8.375501 -12.8323 -14.7405 -10.1465 -7.849 -12.8782 -9.5415 -6.4265 -5.4585 -8.5885 -9.995001 -8.842501 
-13.2512 -17.1618 -16.3615 -12.9345 -14.6772 -12.8782 -11.5291 -10.9982 -8.5885 -11.9505 -11.628 
-17.5807 -18.7828 -19.1495 -19.7627 -14.6772 -14.8658 -16.1008 -14.1282 -11.9505 -13.5835 
-5.0285 -3.819 -4.138 -1.7565 -4.7995 -8.257501 -3.59 -4.9225 -2.871 -1.7565 -1.4985 -3.7455 -4.347 -5.6055 0 
-8.8005 -8.6595 -5.1845 -6.4515 -14.0182 -12.2767 -9.005501 -8.139501 -3.5385 -2.4195 -5.021501 -8.653 -11.5293 -5.6055 
-13.9424 -9.998001 -11.1909 -16.2754 -18.0374 -17.6922 -12.4443 -8.756001 -3.7675 -6.022 -10.6095 -15.9811 -11.5293 
-15.2809 -16.0888 -21.0148 -20.2946 -23.4529 -21.131 -13.0608 -8.919001 -8.070001 -11.886 -17.9376 -15.9811 
-21.3717 -25.9127 -25.034 -25.7101 -26.8917 -21.7475 -13.2238 -13.3335 -14.53 -19.2141 -17.9376 
