-4.759 
n/a 
n/a 
n/a 
n/a 
-4.759 
n/a 
n/a 
n/a 
n/a 
-4.759 
n/a 
n/a 
n/a 
n/a 
-4.759 
n/a 
n/a 
n/a 
n/a 
-5.1845 -4.928 -2.264 -3.308 
-10.1995 -5.904 -6.2935 
-11.4149 -10.6779 
-16.1888 
n/a 
-5.1845 -3.602 -4.638 -2.356 -3.16 -3.586 
-9.569 -7.2025 -4.724 -5.620501 -6.882 
-13.2839 -7.2135 -8.018001 -10.3711 
-13.2949 -10.396 -13.307 
-16.4774 -15.685 
-5.1845 -3.802 -2.0935 -3.16 -3.913 
-9.826 -5.708 -5.238 -6.9215 
-11.9934 -8.990001 -8.324 
-15.2754 -12.3522 
-18.6376 
-5.1845 -5.3935 -2.7455 -3.7205 
-10.634 -8.2605 -6.753 
-13.501 -12.5594 
-17.7999 
n/a 
