-4.759 
n/a 
n/a 
n/a 
n/a 
-4.759 
n/a 
n/a 
n/a 
n/a 
-4.759 
n/a 
n/a 
n/a 
n/a 
-4.759 
n/a 
n/a 
n/a 
n/a 
-3.6055 -9.686501 -4.736 -6.8435 -3.1385 -3.3165 -1.7695 -4.7965 
-14.6236 -13.7398 -10 -8.9705 -6.024 -3.881 -6.862 
-18.6769 -19.0348 -11.188 -12.104 -6.571001 -8.5425 
-23.9719 -21.0511 -14.4263 -12.651 -9.669001 
-25.9882 -24.1846 -14.9733 -15.749 
-4.736 -3.748 -3.1385 -2.4945 -3.6515 -1.7695 -1.4985 -3.9565 -3.6055 -3.515 0 
-6.284 -5.326 -4.588 -4.7215 -3.9135 -2.7955 -4.676001 -7.138 -5.3895 -3.515 
-7.2565 -6.6715 -6.1895 -4.83 -5.3495 -5.9175 -8.0755 -8.081 -5.3895 
-8.395 -8.769 -6.2665 -6.8125 -8.2865 -9.0185 -9.2985 -8.081 
-10.5615 -8.835501 -8.366501 -9.878 -10.367 -9.992001 -9.2985 
-4.736 -3.748 -3.1385 -3.6515 -1.7695 -3.9565 -7.811 
-6.284 -5.326 -6.377501 -3.9135 -5.8885 -10.61 
-7.2565 -8.795 -6.8195 -6.859 -13.1926 
-10.73 -9.287001 -8.895 -14.6025 
-11.4405 -11.5899 -16.7357 
-4.3435 -4.736 -3.748 -3.1385 -2.4945 -3.6515 -1.7695 -4.7965 -2.0935 -1.8085 -3.515 0 
-7.8325 -6.284 -5.326 -4.588 -4.7215 -3.9135 -6.862 -6.846 -3.385 -4.5725 -3.515 
-8.9355 -7.2565 -6.6715 -6.1895 -4.83 -8.816501 -8.6355 -8.3745 -5.724 -4.5725 
-8.9665 -8.395 -8.769 -6.2665 -9.81 -9.691501 -10.0505 -10.375 -5.724 
-10.0305 -10.5615 -8.835501 -11.6791 -10.9694 -11.7185 -12.1662 -10.375 
