-4.759 
n/a 
n/a 
n/a 
n/a 
-4.759 
n/a 
n/a 
n/a 
n/a 
-4.759 
n/a 
n/a 
n/a 
n/a 
-4.759 
n/a 
n/a 
n/a 
n/a 
-1.934 -3.539 -3.1475 -3.225 -4.704 -5.449 -4.0555 -2.0935 -4.5515 
-5.011 -5.545 -5.291 -7.601501 -10.5535 -9.5305 -6.313 -5.596 
-7.9505 -7.185 -10.304 -13.7706 -14.635 -12.1484 -8.802 
-10.238 -12.4546 -16.4731 -17.8521 -17.2529 -14.6374 
-15.5076 -18.6237 -20.5546 -20.47 -19.7419 
-1.934 -3.225 -3.705 -3.1475 -5.449 -2.4945 -4.1205 
-4.879 -6.321 -5.47 -9.4795 -7.354001 -5.191 
-9.1085 -8.175501 -12.847 -11.5965 -9.933001 
-11.0712 -15.9661 -14.964 -14.1755 
-18.8618 -18.0831 -17.543 
-4.732 -3.539 -3.225 0 -4.704 -5.6465 -4.0555 -2.0935 -3.396 0 
-7.373 -5.072001 -3.225 -4.704 -10.7025 -9.956501 -6.313 -5.269 -3.396 
-9.568501 -5.072001 -7.601501 -10.7025 -15.0125 -12.28 -9.992001 -5.269 
-9.568501 -9.935 -13.9196 -15.0125 -17.336 -15.959 -9.992001 
-14.4693 -16.6103 -18.2296 -17.336 -21.015 -15.959 
-4.732 -3.539 -3.1475 -3.225 0 -3.0365 -3.152 -4.704 -4.4925 -4.088 -4.0555 -2.0935 -1.4985 -3.396 0 
-7.373 -5.545 -5.291 -3.225 -3.0365 -4.453 -8.375 -10.0345 -8.8475 -8.311001 -6.313 -2.9725 -5.077001 -3.396 
-9.7845 -7.185 -5.291 -6.382 -4.453 -8.6835 -13.9089 -14.5515 -13.2077 -10.8083 -6.8275 -6.268 -5.077001 
-11.3187 -7.185 -8.7425 -6.873 -8.6835 -14.252 -18.4259 -18.9117 -15.705 -11.3228 -10.238 -6.268 
-11.3187 -10.2485 -9.354501 -10.3745 -14.252 -18.769 -22.7861 -21.409 -16.2195 -14.7333 -10.238 
