-4.759 
n/a 
n/a 
n/a 
n/a 
-4.759 
n/a 
n/a 
n/a 
n/a 
-4.759 
n/a 
n/a 
n/a 
n/a 
-4.759 
n/a 
n/a 
n/a 
n/a 
-2.4265 -2.186 -2.6165 -5.4295 -2.0935 -2.5685 -4.442 -1.7695 -2.674 -1.4985 -3.7515 -4.458 0 
-3.292 -3.5105 -7.9755 -6.535 -3.987 -6.8925 -6.170501 -3.8225 -3.998 -4.4675 -7.772 -4.458 
-4.443 -8.320001 -9.02 -8.134001 -8.137501 -8.674001 -8.6175 -4.971001 -7.436501 -7.8055 -7.772 
-8.5275 -9.334001 -10.7672 -12.5719 -9.97 -11.6452 -9.958501 -8.328001 -9.446 -7.8055 
-9.6035 -11.176 -15.2051 -14.4044 -13.0188 -12.9862 -13.4331 -10.4881 -9.446 
-2.5685 -4.442 -2.4945 -2.674 -4.6745 -3.9035 0 
-6.8925 -5.9795 -6.7615 -7.282001 -8.561 -3.9035 
-8.0485 -10.275 -11.5679 -10.485 -8.561 
-12.6202 -15.0814 -14.7709 -10.485 
-17.4266 -18.2844 -14.7709 
-2.5685 -4.442 -2.674 -4.4155 -3.9035 -3.7875 -1.934 
-6.8925 -6.643001 -7.6165 -8.5525 -7.698 -6.4675 
-8.6355 -10.7595 -12.0801 -12.6608 -10.4185 
-12.952 -15.2231 -16.1884 -15.3813 
-17.4156 -19.3314 -18.9089 
-2.4265 -2.186 -6.8405 -4.023 -2.0935 -2.5685 -4.2335 -1.7695 -2.674 -2.5685 -3.1495 -3.9035 0 
-3.292 -10.2285 -12.0711 -4.979 -3.987 -6.551 -6.032 -3.8225 -5.011 -4.8995 -6.192 -3.9035 
-11.8065 -15.4591 -13.0271 -7.093 -7.9045 -8.667 -8.3745 -6.054501 -6.698 -7.82 -6.192 
-17.0371 -16.4151 -15.1411 -8.828501 -9.3585 -10.61 -10.7413 -7.591001 -9.469 -7.82 
-17.9931 -18.5291 -16.8766 -10.622 -11.5943 -12.9768 -12.2778 -10.4755 -9.469 
