-4.759 
n/a 
n/a 
n/a 
n/a 
-4.759 
n/a 
n/a 
n/a 
n/a 
-4.759 
n/a 
n/a 
n/a 
n/a 
-4.759 
n/a 
n/a 
n/a 
n/a 
-3.522 0 -4.749 -4.317 -3.959 
-3.522 -4.749 -6.0705 -6.091001 
-8.9255 -6.0705 -7.296 
-9.582 -7.296 
-11.1763 
-3.7855 0 -3.959 -1.7565 -3.502 -3.75 -3.994 
-3.7855 -3.959 -5.473 -4.9855 -5.0795 -5.276 
-8.5755 -5.473 -7.4545 -6.653 -5.751 
-9.961 -7.4545 -8.093 -7.0445 
-12.6703 -8.093 -8.3645 
-8.748 -4.317 -3.959 
-9.078501 -6.091001 
-11.693 
n/a 
n/a 
-7.2885 0 -3.502 -3.75 -3.994 -3.959 
-7.2885 -3.502 -5.0795 -5.276 -7.3035 
-11.5721 -5.0795 -5.751 -8.0495 
-13.1496 -5.751 -8.171 
-13.8211 -8.171 
