-4.759 
n/a 
n/a 
n/a 
n/a 
-4.759 
n/a 
n/a 
n/a 
n/a 
-4.759 
n/a 
n/a 
n/a 
n/a 
-4.759 
n/a 
n/a 
n/a 
n/a 
-6.844 -5.0665 -3.9235 -1.7565 -3.5585 0 
-9.411501 -7.679 -5.24 -4.9275 -3.5585 
-9.893001 -8.607 -8.205501 -4.9275 
-10.0145 -9.9895 -8.205501 
-10.0255 -9.9895 
-1.4985 -6.844 -5.0665 -4.5675 -1.7565 -3.5585 0 -5.7895 0 
-8.304001 -9.411501 -8.151501 -5.8295 -4.9275 -3.5585 -5.7895 -5.7895 
-9.722501 -9.7075 -9.205 -8.993 -4.9275 -9.787001 -5.7895 
-9.958001 -9.816 -9.813001 -8.993 -9.8605 -9.787001 
-10.0775 -9.8325 -9.813001 -10.1305 -9.8605 
-6.262 -3.5585 -5.4285 -3.9235 
-9.6415 -8.738 -10.543 
-14.837 -14.3675 
-20.4665 
n/a 
-6.844 -5.0665 -4.5675 -1.7565 -3.5585 0 -5.7895 0 
-9.411501 -8.151501 -5.8295 -4.9275 -3.5585 -5.7895 -5.7895 
-9.7075 -9.205 -8.993 -4.9275 -9.787001 -5.7895 
-9.816 -9.813001 -8.993 -9.8605 -9.787001 
-9.8325 -9.813001 -10.1305 -9.8605 
