-4.759 
n/a 
n/a 
n/a 
n/a 
-4.759 
n/a 
n/a 
n/a 
n/a 
-4.759 
n/a 
n/a 
n/a 
n/a 
-4.759 
n/a 
n/a 
n/a 
n/a 
-2.3615 -3.9035 -2.7415 -3.6845 -2.3345 -9.493501 -5.3745 -1.7695 -4.722 -4.4925 
-7.5895 -7.1215 -7.296 -7.035 -10.9315 -15.0682 -7.76 -6.741001 -6.9735 
-10.1385 -12.0296 -9.4025 -16.2016 -16.5062 -17.4537 -13.1625 -8.820001 
-15.4122 -14.1361 -18.6677 -21.7763 -18.8917 -22.8562 -15.2415 
-17.5187 -23.4013 -24.2424 -24.1618 -24.2942 -24.9352 
-2.3615 -3.9795 -4.1555 -1.7695 -4.722 -6.5715 -3.7855 -2.3345 -3.732 -9.2395 -5.3745 0 
-5.7105 -6.691501 -4.988501 -6.741001 -12.4339 -11.5562 -5.0075 -4.9005 -13.9353 -14.7582 -5.3745 
-8.0825 -6.7075 -9.111501 -14.8089 -17.4186 -12.7782 -8.007 -15.8032 -19.454 -14.7582 
-8.1245 -10.3035 -17.4284 -19.7936 -18.6406 -15.7777 -19.0881 -21.3219 -19.454 
-12.3463 -18.8924 -22.4131 -21.0156 -21.6401 -26.8588 -24.6068 -21.3219 
-2.3615 -3.9795 -6.7585 -12.16972 -3.0365 -4.722 -4.712 
-5.7105 -11.8122 -19.81022 -15.20622 -8.2615 -9.515 
-14.242 -24.86392 -22.84672 -20.43122 -13.1081 
-27.29372 -27.90042 -28.07172 -25.27782 
-30.33022 -33.12542 -32.91832 
-5.995 -3.881 -2.7765 -2.489 -4.4005 -1.934 -3.598 -3.517 -3.1575 -1.934 -4.752 -4.3125 
-9.855 -6.9945 -3.495 -5.7045 -6.524 -5.5425 -6.5365 -7.106 -4.974 -6.635 -8.587001 
-13.6045 -7.3405 -7.204 -7.719 -10.0995 -8.009001 -10.1305 -8.292001 -9.637 -10.757 
-13.9505 -10.523 -9.2685 -11.4859 -12.566 -11.9068 -11.3165 -12.9866 -13.8866 
-17.133 -12.5875 -13.0438 -13.9524 -16.4638 -13.0928 -16.0111 -17.2362 
