-4.759 
n/a 
n/a 
n/a 
n/a 
-4.759 
n/a 
n/a 
n/a 
n/a 
-4.759 
n/a 
n/a 
n/a 
n/a 
-4.759 
n/a 
n/a 
n/a 
n/a 
-3.851 -1.7695 -1.4985 -3.8675 -4.222 -3.458 -7.125 -1.756 -6.3665 -9.495501 -1.934 -5.766 0 -7.125 -4.846 -6.5875 -3.222 -1.4985 -4.6795 -4.954 -4.628 -5.939 -4.887 -1.756 -4.9385 -3.277 0 
-4.0015 -2.7955 -4.976 -6.25 -6.656 -11.3552 -8.6885 -8.2375 -16.572 -11.7129 -7.5305 -5.766 -7.125 -12.5224 -9.3 -8.0565 -3.7835 -6.048 -9.457001 -10.4765 -5.9615 -11.1415 -6.0765 -6.501 -7.7235 -3.277 
-4.5775 -6.1105 -7.387 -7.5135 -15.018 -12.9187 -15.4208 -18.653 -18.7894 -17.3094 -7.5305 -13.5576 -12.5224 -16.9764 -10.505 -8.3855 -8.6265 -9.579 -15.1521 -11.7748 -11.225 -12.331 -10.223 -8.689501 -7.7235 
-8.751 -8.396 -8.2895 -16.0949 -16.5815 -19.651 -25.8363 -20.8704 -24.3859 -17.3094 -15.7897 -18.955 -16.9764 -18.1814 -10.7195 -13.3819 -12.4063 -15.3149 -16.4504 -17.0383 -12.4145 -16.4775 -12.7553 -8.689501 
-10.248 -9.1335 -17.0511 -17.6584 -23.3138 -30.0665 -28.0537 -26.4669 -24.3859 -25.5686 -21.1871 -23.409 -18.1814 -18.3959 -15.7159 -17.1617 -18.1422 -16.6132 -21.7139 -18.2278 -16.561 -19.0098 -12.7553 
-6.66 -3.8935 -3.251 -1.4985 -4.675 -3.8195 -2.5195 -1.4985 -4.6795 -3.851 -1.7695 -1.4985 -4.92 -1.7565 -6.3665 -11.128 -1.934 -5.766 
-10.7495 -6.97 -5.0745 -5.72 -7.698 -6.3025 -3.1695 -6.048 -9.58 -4.0015 -2.7955 -5.5575 -5.8365 -7.6945 -18.2045 -13.062 -7.5305 
-14.8594 -8.644501 -9.943001 -9.192 -9.834001 -7.028 -7.42 -10.4675 -9.634001 -4.5775 -6.6235 -6.159 -13.1273 -20.0195 -20.1385 -18.6585 
-16.5339 -13.6222 -13.415 -11.4424 -10.6385 -11.5481 -12.0599 -10.4905 -9.979 -9.1765 -7.4445 -13.7198 -25.4523 -21.9535 -25.735 
-21.5116 -17.0942 -15.6654 -12.2469 -15.1586 -16.188 -12.0829 -10.8355 -14.658 -9.443001 -15.2167 -26.0448 -27.3863 -27.55 
-3.2615 -5.766 -1.4985 -6.6585 -2.7415 -5.3905 -1.7695 -12.16972 -3.4985 
-9.3915 -8.026 -9.0305 -9.5905 -7.083 -6.104 -14.92142 -15.66822 
-11.7545 -15.7372 -12.1413 -14.0284 -7.4245 -19.64852 -18.41992 
-19.4657 -18.848 -16.5792 -14.3699 -21.09762 -23.14702 
-22.5765 -23.2859 -16.9207 -28.04302 -24.59612 
-1.4985 -3.8675 -3.43 -2.356 -6.2335 -12.16972 -1.934 -1.4985 -3.158 -5.766 -3.43 -8.971001 -9.705501 -1.4985 -6.0515 -3.4425 -2.9705 -2.7415 -1.934 -1.4985 -4.2285 -1.7565 -6.3755 
-4.976 -6.802 -5.161 -8.5395 -19.27782 -14.10372 -2.6125 -4.178 -8.883 -10.0575 -13.6942 -19.0215 -10.7335 -6.751 -8.924001 -5.896 -4.512 -4.5155 -2.6125 -5.116 -5.173501 -8.492001 
-7.7485 -7.8765 -11.8473 -21.95622 -21.21182 -14.78222 -5.265 -8.9925 -13.5149 -20.3217 -23.7447 -20.0495 -15.986 -9.767 -11.5257 -7.263 -6.4075 -5.133 -5.4395 -5.219 -12.7886 
-8.620501 -15.054 -25.26402 -23.89022 -21.89032 -17.43472 -9.329 -13.7208 -23.7791 -30.3722 -24.7727 -25.302 -19.002 -12.4149 -12.8927 -9.2225 -7.0455 -7.275001 -5.461 -12.9415 
-15.9576 -28.47072 -27.19802 -24.56872 -24.54282 -21.49872 -14.1511 -23.985 -33.8296 -31.4002 -30.0252 -28.318 -21.6499 -13.7819 -14.8522 -9.8015 -8.9445 -7.2805 -13.4529 
