-4.759 
n/a 
n/a 
n/a 
n/a 
-4.759 
n/a 
n/a 
n/a 
n/a 
-4.759 
n/a 
n/a 
n/a 
n/a 
-4.759 
n/a 
n/a 
n/a 
n/a 
-3.1495 -4.2085 -2.742 -4.425 -4.3125 -4.147 -6.129 -6.899 -4.4545 -4.2085 -3.433 -2.4265 -4.6515 -3.3255 -3.7745 -3.355 -1.7565 -1.4985 -3.59 
-7.7005 -7.206501 -8.0175 -8.2955 -7.7535 -10.411 -13.7424 -12.3639 -6.083 -7.758 -4.4115 -6.205 -5.91 -6.872001 -6.2975 -3.725 -2.4195 -4.268 
-10.7595 -12.752 -12.0464 -12.2193 -14.5679 -18.3366 -19.2073 -13.9924 -9.2405 -8.7075 -8.2805 -6.8215 -9.2945 -10.396 -6.3705 -4.0515 -5.009 
-16.305 -16.7809 -15.9702 -19.0337 -22.4935 -23.8015 -20.8358 -17.1499 -10.079 -12.7607 -8.967 -10.354 -12.9361 -10.463 -6.6225 -6.237 
-20.3339 -20.7047 -22.7846 -26.9593 -27.9584 -25.43 -23.9933 -17.9884 -14.266 -13.4472 -12.5007 -13.9956 -13.0031 -10.715 -7.8815 
-4.101 -1.7695 -3.8735 -2.229 -3.9785 -4.417 -4.126 -3.321 -3.1435 -3.4625 -1.7695 -4.628 -4.743 -4.417 
-4.6905 -5.578001 -5.3655 -6.2315 -8.424001 -8.827001 -7.193001 -6.1485 -7.302 -5.0775 -6.618001 -4.7515 -10.4115 
-7.561501 -6.952001 -8.2615 -9.811001 -13.305 -12.5254 -9.801001 -9.686001 -8.745501 -10.389 -6.7625 -10.4105 
-9.948001 -10.208 -13.248 -14.8072 -17.0034 -15.1334 -13.3773 -11.7395 -14.31 -10.5655 -12.8257 
-13.204 -15.2013 -18.2442 -18.5056 -19.6114 -18.7097 -15.4308 -17.304 -14.4865 -16.6287 
-2.0935 -3.6515 -1.4985 -3.307 -4.147 -2.4265 -3.4625 -2.5045 -1.4985 -4.147 -4.4545 -4.2085 0 
-6.091001 -5.974 -4.581 -7.3865 -6.9985 -6.478001 -5.7225 -3.583 -5.27 -7.9735 -6.083 -4.2085 
-7.7135 -9.7705 -9.93 -11.2264 -11.9356 -8.7495 -6.5775 -7.527 -9.2705 -8.920501 -6.083 
-12.1082 -14.9771 -13.7699 -16.1635 -14.2071 -9.5565 -10.9509 -11.8431 -9.861501 -8.920501 
-17.3148 -18.817 -18.707 -18.435 -15.0141 -13.9637 -15.267 -12.4341 -9.861501 
-3.034 -2.7295 -3.6515 -4.33 -1.4985 -3.7745 -4.147 -3.892 -2.3335 -2.186 -4.287 -3.222 -4.628 -4.743 -2.229 -7.015501 -3.4635 -4.4545 -4.2085 0 
-4.536 -5.995 -6.888 -4.900001 -4.753 -6.5925 -6.537001 -6.138 -3.7085 -5.655 -7.185 -8.1505 -4.7515 -6.5015 -9.445001 -11.2006 -9.262 -6.083 -4.2085 
-8.588501 -9.3295 -7.4265 -7.796501 -8.0325 -8.4755 -8.981001 -6.933 -6.9635 -8.355 -12.4397 -8.31 -6.5135 -14.5599 -13.7407 -16.9991 -10.8935 -6.083 
-11.9428 -10.4865 -10.634 -11.3774 -9.263 -11.5001 -10.0965 -10.2535 -9.822001 -13.9271 -12.5992 -9.153 -14.6083 -18.8556 -19.5392 -18.6306 -10.8935 
-13.0998 -13.694 -14.2149 -12.6079 -12.553 -12.6156 -13.417 -13.112 -15.7773 -14.0866 -13.4422 -17.351 -18.904 -24.6541 -21.1707 -18.6306 
