-4.759 
n/a 
n/a 
n/a 
n/a 
-4.759 
n/a 
n/a 
n/a 
n/a 
-4.759 
n/a 
n/a 
n/a 
n/a 
-4.759 
n/a 
n/a 
n/a 
n/a 
-1.4985 -6.614 -3.7965 -1.4985 -5.465 -1.756 -1.4985 -6.4 -5.637 0 -2.9705 -4.897 -1.4985 -3.818 -1.756 -5.2575 -4.7885 -4.35 -1.7565 -1.4985 -3.995 -1.4985 -6.614 -2.186 -6.9855 -2.3345 -1.4985 -7.523 
-7.168 -9.6945 -4.8165 -6.377501 -6.6505 -3.0405 -6.658501 -8.1915 -5.637 -2.9705 -6.4975 -5.8215 -5.0925 -5.451 -6.677 -8.2045 -6.498 -5.3865 -2.4195 -4.712 -5.7605 -7.168 -7.9915 -7.444 -7.0455 -3.233 -7.940001 
-9.8065 -9.861 -9.466001 -7.39 -7.684 -8.235001 -8.5325 -8.1915 -7.969 -6.4975 -7.055 -9.475501 -7.1845 -8.604 -9.838 -9.400001 -6.939001 -6.2025 -5.2205 -6.261001 -9.415001 -8.322001 -10.609 -7.4905 -8.06 -9.869 
-9.935501 -10.0035 -9.640501 -8.1615 -9.381001 -9.6105 -8.5325 -10.2135 -11.7346 -7.055 -10.504 -12.0371 -9.974501 -12.0374 -10.753 -9.71 -7.335001 -8.074501 -6.679501 -9.514501 -9.893001 -11.0677 -10.6795 -8.409 -14.8488 
-10.048 -10.085 -9.868001 -9.497001 -9.697001 -9.6105 -10.4185 -13.9791 -12.2921 -10.504 -13.0656 -14.8271 -13.4821 -12.9524 -11.063 -9.839001 -9.022 -9.368001 -9.632001 -10.033 -12.7627 -11.1382 -11.598 -15.22 
-4.1885 -3.299 -4.2485 -3.931 -3.851 -1.7695 -1.4985 -4.0415 -1.7565 -4.237 -2.5195 -1.4985 -6.614 0 -3.6705 -4.4715 -2.925 -2.742 -4.397 -3.3255 -4.1115 -2.645 -3.1575 -1.4985 -3.873 -3.433 -1.4985 -5.0485 -1.7565 -1.4985 -6.614 -3.325 -1.4985 -4.1115 -2.186 -3.689 0 
-8.0235 -5.627501 -8.2815 -6.4075 -4.0015 -2.7955 -5.1685 -5.0535 -5.66 -6.1245 -3.1695 -7.168 -6.614 -3.6705 -8.0175 -7.019001 -4.3725 -5.4265 -7.25 -7.8505 -7.184 -3.72 -4.1355 -4.7405 -7.0785 -4.3795 -5.937 -5.682 -2.4195 -7.168 -9.186001 -3.898 -4.843 -6.279 -4.993 -3.689 
-10.4855 -9.7705 -10.3675 -6.414 -4.5775 -6.373 -5.5415 -7.47 -7.226 -6.474 -8.9775 -7.168 -9.5495 -8.0175 -9.880501 -8.830501 -7.958001 -8.3335 -11.9564 -11.4086 -8.269501 -5.267 -7.706 -7.703 -7.9795 -8.529 -6.072501 -6.05 -7.571001 -9.564501 -9.4905 -6.178 -6.597 -9.1215 -4.993 
-14.6285 -12.5993 -10.379 -7.3615 -7.8565 -6.671 -7.7185 -8.1315 -7.5975 -13.0494 -8.9775 -10.0095 -13.9551 -9.880501 -11.686 -12.4776 -10.7918 -13.1221 -15.5145 -12.4941 -10.004 -8.744 -10.575 -8.585501 -12.3372 -8.6385 -6.243001 -8.9425 -9.889501 -9.824 -11.7969 -8.432 -9.527 -9.1215 
-17.4573 -12.6108 -11.3265 -10.2635 -7.992 -9.254001 -8.344501 -8.4235 -14.2761 -13.0494 -12.0854 -14.4151 -15.8181 -11.686 -15.3331 -15.3114 -15.5804 -16.6802 -16.6 -14.2286 -13.481 -11.765 -11.4575 -13.06 -12.4467 -8.747001 -9.352001 -11.3804 -10.222 -12.1304 -14.0509 -11.6904 -9.527 
-4.1885 -4.138 -4.237 -3.931 -2.742 -2.489 -3.8755 -2.3345 -6.434 -4.35 -4.237 -5.89 -4.4715 -2.925 -4.4995 -3.325 -4.1115 -4.7175 -3.433 -6.434 -2.186 -3.4915 -5.7865 -1.934 -4.1115 -3.892 0 
-9.466001 -7.182 -6.4555 -6.684501 -3.301 -5.2845 -4.4955 -8.275001 -10.932 -8.194 -7.015 -10.9315 -7.019001 -9.069 -7.478001 -7.435 -8.755501 -5.9815 -10.5865 -8.630001 -4.979 -7.3005 -7.603001 -6.27 -6.547501 -3.892 
-12.642 -9.3835 -8.972 -7.067501 -5.9385 -6.333 -10.9804 -13.1298 -14.776 -10.459 -12.5705 -13.479 -13.4472 -12.3221 -12.0692 -12.532 -10.127 -13.3456 -12.7825 -11.6412 -8.057 -8.618 -12.5064 -9.145501 -6.547501 
-14.8435 -11.9852 -9.3265 -10.7175 -7.233 -13.6029 -15.8352 -16.9738 -17.041 -16.0145 -15.118 -19.9072 -16.7003 -16.9133 -17.1662 -13.9035 -17.7535 -15.5416 -15.7937 -14.7192 -9.491501 -13.9428 -15.3819 -9.145501 
-17.4452 -12.3397 -13.1957 -12.012 -14.7251 -18.4577 -19.6792 -19.2388 -22.5965 -18.562 -21.5462 -23.1603 -21.2915 -22.0103 -18.5377 -21.53 -19.9495 -18.5528 -18.8717 -16.1537 -15.0101 -16.8183 -15.3819 
-4.1885 -3.644 -1.756 -3.299 -3.931 -1.7565 -4.237 -1.7695 -6.868001 -3.8725 -1.7565 -4.237 -1.756 -4.4095 -4.493 0 
-8.441501 -5.373 -4.873 -7.416 -4.616 -5.66 -6.0245 -9.3655 -10.287 -5.1155 -5.66 -5.4575 -5.7315 -9.439 -4.493 
-10.2985 -6.285 -8.938 -8.3015 -7.695001 -7.359 -14.4763 -12.8063 -11.53 -8.903 -6.598 -9.087 -10.7595 -9.439 
-11.2105 -10.064 -9.881001 -11.6039 -9.0325 -16.303 -17.9171 -14.0493 -15.3175 -10.4302 -10.6719 -14.4952 -10.7595 
-14.9895 -11.007 -13.3216 -12.9414 -18.4945 -19.7438 -19.1601 -17.8368 -16.8447 -14.5041 -16.0801 -14.4952 
