-4.759 
n/a 
n/a 
n/a 
n/a 
-4.759 
n/a 
n/a 
n/a 
n/a 
-4.759 
n/a 
n/a 
n/a 
n/a 
-4.759 
n/a 
n/a 
n/a 
n/a 
0 -12.16972 0 -1.4985 -4.2245 -1.7565 -6.557 0 0 -9.5795 -4.649 -5.7265 -3.158 -5.723 0 -2.7405 
-12.16972 -12.16972 -1.4985 -5.219 -4.942 -7.653501 -6.557 0 -9.5795 -14.3651 -11.142 -7.4645 -9.318501 -5.723 -2.7405 
-12.16972 -13.66822 -5.219 -5.361001 -10.0185 -7.653501 -6.557 -9.5795 -14.3651 -20.8581 -12.88 -14.2992 -9.318501 -8.561501 
-13.66822 -17.38872 -5.361001 -10.7551 -10.0185 -7.653501 -16.8259 -14.3651 -20.8581 -22.5961 -19.7147 -14.2992 -12.3268 
-17.38872 -17.53072 -10.7551 -10.7551 -10.0185 -18.1792 -21.6115 -20.8581 -22.5961 -29.4308 -19.7147 -17.3075 
-8.7965 0 -8.392 -8.339001 -4.674 -3.158 -6.592501 
-8.7965 -8.392 -17.262 -13.3248 -6.831 -10.7085 
-17.8413 -17.262 -22.2478 -15.4818 -15.9537 
-26.7113 -22.2478 -24.4048 -24.6045 
-31.6971 -24.4048 -33.5275 
-12.16972 0 -4.649 -5.8635 -5.723 -2.7405 -10.105 0 
-12.16972 -4.649 -9.8015 -9.1075 -8.561501 -13.6209 -10.105 
-16.81872 -9.8015 -13.3431 -12.0956 -20.4161 -13.6209 
-21.97122 -13.3431 -16.3312 -23.9502 -20.4161 
-25.51282 -16.3312 -28.1858 -23.9502 
0 -8.7965 0 -8.392 -4.649 -4.153 -3.158 -3.452 -2.7405 
-8.7965 -8.7965 -8.392 -13.572 -10.254 -7.925501 -6.319 -5.943501 
-8.7965 -17.8413 -13.572 -19.177 -14.0265 -10.5975 -8.361501 
-17.8413 -23.0213 -19.177 -22.9495 -16.6985 -12.64 
-23.0213 -28.6263 -22.9495 -25.6215 -18.741 
