-4.759 
n/a 
n/a 
n/a 
n/a 
-4.759 
n/a 
n/a 
n/a 
n/a 
-4.759 
n/a 
n/a 
n/a 
n/a 
-4.759 
n/a 
n/a 
n/a 
n/a 
-1.4985 -8.6505 -1.7565 -5.1845 -5.6025 -2.7415 -4.3925 -1.934 -4.686 -2.8645 -8.608001 -1.7695 -7.842 -1.934 -4.239 
-9.5175 -9.257 -6.580501 -10.155 -8.384501 -8.101501 -7.124001 -5.8635 -7.9185 -9.779501 -10.177 -9.922501 -10.134 -5.464 
-9.779 -14.067 -12.394 -12.937 -13.8249 -10.147 -10.467 -8.411 -14.9861 -11.3485 -18.554 -12.9405 -13.2835 
-14.6262 -19.8805 -15.176 -18.3774 -15.8704 -13.49 -13.5335 -15.6074 -16.5551 -19.7255 -21.348 -15.976 
-20.4397 -22.6625 -20.6164 -20.4229 -19.2134 -16.5565 -20.7299 -17.1764 -24.9321 -22.5195 -24.3835 
-1.934 -4.239 -3.8655 -3.402 -8.27 -4.174 -4.157 -1.7695 -7.842 -4.2815 -1.7695 -4.686 -3.8655 -3.402 -8.27 -4.174 -4.3925 
-5.464 -8.442501 -7.205501 -12.9964 -12.8708 -7.915501 -5.6485 -9.922501 -12.0735 -4.4915 -7.051001 -8.8725 -7.205501 -12.9964 -12.8708 -8.546501 
-9.411501 -11.9657 -17.0739 -17.5972 -16.6123 -8.750501 -12.6285 -15.039 -12.487 -9.2255 -10.476 -12.3571 -17.0739 -17.5972 -17.2433 
-13.0803 -21.8341 -21.6747 -21.3387 -17.4473 -16.3693 -17.9234 -15.1795 -17.1508 -12.9395 -13.9606 -22.2255 -21.6747 -21.9697 
-22.9487 -26.4349 -25.4162 -22.1737 -25.0661 -21.2618 -18.0639 -19.8433 -20.8648 -16.4241 -23.829 -26.8263 -26.0472 
-5.1845 -5.6025 -4.9595 -1.934 -4.686 -1.7695 -4.239 -3.5725 -3.922 -4.3925 -1.7695 -7.842 0 
-10.155 -11.6598 -6.914001 -5.8635 -6.4655 -6.571001 -8.398001 -7.725 -9.672001 -7.163001 -9.922501 -7.454 
-16.2123 -13.6143 -11.2237 -7.382 -8.5375 -9.948001 -12.7419 -13.6548 -12.5127 -15.145 -10.1465 
-18.1668 -17.924 -12.7422 -10.0334 -12.1031 -14.5691 -18.6717 -16.4955 -20.4947 -15.145 
-22.4765 -19.4425 -15.3936 -13.599 -16.7242 -20.4989 -21.5124 -24.4775 -20.4947 
-1.4985 -5.1845 -4.3105 -4.0145 -2.7415 -4.3925 -2.5045 -4.686 -1.756 -1.934 -4.157 -1.7695 -7.842 -1.934 -4.239 0 
-6.5205 -9.861 -9.035 -6.714 -8.101501 -6.799001 -8.647 -6.3625 -4.0205 -6.12 -5.6485 -9.922501 -10.134 -5.464 -4.239 
-11.9124 -14.8539 -11.9179 -12.7972 -10.123 -13.9393 -10.0925 -8.1315 -8.4945 -9.470501 -12.6285 -12.9405 -13.2835 -5.464 
-16.9053 -17.7368 -18.0011 -14.8187 -17.8969 -15.3848 -11.8615 -12.9223 -11.902 -16.9831 -15.8249 -15.976 -13.2835 
-19.7882 -23.82 -20.0226 -22.5926 -19.3424 -17.1538 -16.6523 -16.3298 -19.4146 -19.7771 -18.8604 -15.976 
