-4.759 
n/a 
n/a 
n/a 
n/a 
-4.759 
n/a 
n/a 
n/a 
n/a 
-4.759 
n/a 
n/a 
n/a 
n/a 
-4.759 
n/a 
n/a 
n/a 
n/a 
-2.925 -3.5395 -4.1465 -2.5045 -4.7285 -1.756 -4.6035 -2.5045 0 -3.718 -4.7135 -4.7285 0 
-5.629001 -8.278 -6.6845 -6.748501 -6.2235 -6.101 -6.935 -2.5045 -3.718 -6.249001 -8.894501 -4.7285 
-10.298 -11.2862 -11.5361 -8.267501 -11.4849 -8.019501 -6.935 -7.396501 -6.249001 -9.558001 -8.894501 
-13.3062 -16.1378 -13.0551 -13.6335 -13.4034 -8.019501 -12.2062 -8.425 -9.558001 -9.558001 
-18.1578 -17.6568 -18.4211 -15.552 -13.4034 -13.6439 -13.2347 -11.9318 -9.558001 
-3.594 -1.7565 -4.1465 -2.186 -3.849 -2.5045 -8.4785 -1.756 -3.074 -4.6035 -2.186 -3.849 -2.5045 -8.4785 -2.356 -3.718 0 0 
-4.857 -5.8335 -6.4185 -4.8565 -6.305 -10.8415 -9.606501 -4.566 -8.6195 -6.672 -4.8565 -6.305 -10.8415 -11.2289 -7.018001 -3.718 0 
-7.5805 -7.804 -8.755501 -7.104 -14.7456 -11.9695 -12.6037 -9.998 -10.5535 -9.4475 -7.104 -14.7456 -13.5919 -15.8909 -7.018001 -3.718 
-9.0425 -10.096 -11.0526 -15.6744 -15.8736 -14.9667 -18.0357 -11.932 -13.329 -11.6754 -15.6744 -17.496 -18.2539 -15.8909 -7.018001 
-11.6725 -12.3931 -19.623 -16.8024 -18.8708 -20.3987 -19.9697 -14.7075 -15.5569 -20.2458 -18.4248 -22.158 -18.2539 -15.8909 
-4.1465 -2.186 -3.9205 -2.5045 -8.4785 -1.756 -4.6035 -2.186 -3.9205 -2.5045 -8.4785 -3.4635 -3.718 
-6.4185 -4.9645 -4.449 -10.8415 -9.606501 -6.101 -6.672 -4.9645 -4.449 -10.8415 -12.3364 -6.335501 
-9.075001 -5.539 -12.5168 -11.9695 -14.1387 -8.22 -9.851001 -5.539 -12.5168 -14.6994 -15.2084 
-9.5115 -14.0916 -13.6448 -16.5017 -16.2577 -11.5322 -10.4 -14.0916 -16.3747 -17.5714 
-18.0161 -15.2196 -18.177 -18.6207 -19.5699 -12.0812 -18.9526 -17.9495 -19.2467 
-1.934 -5.6625 -2.925 -5.6625 -4.1465 -2.5045 -8.4785 -1.756 -4.1465 -2.356 -4.6035 -2.5045 0 -8.231 -3.5005 -8.4785 0 0 
-9.0185 -9.805 -7.655 -10.151 -6.6845 -10.8415 -9.606501 -5.5085 -5.9325 -7.1905 -6.935 -2.5045 -8.231 -12.1401 -12.8292 -8.4785 0 
-13.2664 -14.5876 -12.3295 -12.8772 -15.6291 -11.9695 -13.5462 -7.1555 -9.204 -8.944 -6.935 -11.6529 -12.1401 -21.4688 -12.8292 -8.4785 
-18.049 -19.2621 -15.0557 -21.8218 -16.7571 -15.9092 -15.1932 -10.7052 -11.8085 -8.944 -16.4626 -15.562 -21.4688 -21.4688 -12.8292 
-22.7235 -21.9883 -24.0003 -22.9498 -20.6968 -17.5562 -18.7429 -13.3097 -11.8085 -18.6542 -20.3717 -24.8907 -21.4688 -21.4688 
