-4.759 
n/a 
n/a 
n/a 
n/a 
-4.759 
n/a 
n/a 
n/a 
n/a 
-4.759 
n/a 
n/a 
n/a 
n/a 
-4.759 
n/a 
n/a 
n/a 
n/a 
-4.127 -1.756 -1.4985 -9.293501 0 -10.0455 -3.401 0 -6.899 -7.6985 -1.756 -12.16972 -4.616 -3.676 -10.2105 -12.16972 
-5.780001 -3.0405 -11.8858 -9.293501 -10.0455 -13.5951 -3.401 -6.899 -15.1451 -9.322001 -14.93432 -16.78572 -9.6735 -14.9335 -22.59542 
-7.550001 -13.6376 -11.8858 -19.7066 -13.5951 -13.5951 -11.3986 -15.1451 -16.7686 -22.81532 -19.55032 -21.84322 -21.2898 -27.31842 
-18.5375 -13.6376 -22.2989 -23.2562 -13.5951 -21.5927 -19.6447 -16.7686 -30.26192 -27.43132 -24.60782 -33.45952 -33.67472 
-18.5375 -24.0507 -25.8485 -23.2562 -21.5927 -29.8388 -21.2682 -30.26192 -34.87792 -32.48882 -36.22412 -45.84444 
-2.688 -4.187 -1.756 -3.2615 -4.187 -4.828 -9.330001 -9.1995 -7.217 0 -9.9495 -4.4145 0 -1.756 -9.330001 -5.7815 -9.526 -5.5645 -4.651 -5.111 -3.213 
-7.0455 -6.1 -4.788 -8.9175 -10.543 -14.5584 -18.7813 -16.6197 -7.217 -9.9495 -14.4116 -4.4145 -1.756 -10.884 -15.3633 -16.5465 -15.4013 -11.4627 -10.7366 -9.149 
-8.690001 -9.5495 -10.7175 -14.7377 -20.2734 -24.0097 -26.2015 -16.6197 -17.6383 -14.4116 -14.4116 -6.3245 -10.884 -16.9173 -26.1283 -22.4218 -21.2995 -17.5483 -14.7746 
-12.3167 -15.5154 -16.5377 -24.4681 -29.7247 -31.4299 -26.2015 -27.041 -22.1004 -14.4116 -16.3216 -16.2999 -16.9173 -27.6823 -32.0036 -28.32 -27.3851 -21.5863 
-18.2826 -21.3356 -26.2681 -33.9194 -37.1449 -31.4299 -36.6228 -31.5031 -22.1004 -16.3216 -26.297 -22.3332 -27.6823 -33.5576 -37.9018 -34.4056 -31.4231 
-7.568501 -1.756 -7.745501 -4.3665 -5.9575 -12.16972 0 -9.486501 -7.6985 0 -1.756 -5.9575 -7.702 -3.43 -1.8085 -3.301 -3.098 -1.934 -5.6795 
-8.905001 -9.826 -14.6595 -11.6564 -19.16082 -12.16972 -9.486501 -17.316 -7.6985 -1.756 -8.258 -14.6931 -11.4662 -4.6595 -4.019 -6.3565 -5.081 -7.886 
-17.2857 -16.1182 -22.1806 -24.85972 -19.16082 -21.65622 -17.316 -17.316 -9.322001 -8.258 -17.3754 -18.4573 -12.6957 -6.4745 -6.781 -7.9125 -11.7606 
-23.5494 -23.4081 -35.38392 -24.85972 -28.64732 -29.48572 -17.316 -18.9395 -16.139 -17.3754 -21.1396 -19.6868 -14.5107 -9.0085 -8.2885 -14.9827 
-30.8393 -36.61142 -35.38392 -34.34622 -36.47682 -29.48572 -18.9395 -25.7565 -25.2564 -21.1396 -22.3691 -21.5018 -17.0447 -10.3545 -15.5659 
-5.5105 -8.663501 -4.666 0 -4.7415 -4.1945 -1.756 -5.5105 -4.616 -3.4905 -4.933 -1.7695 -3.676 -2.229 -4.205 0 
-15.3264 -10.082 -4.666 -4.7415 -7.089001 -5.743 -8.1625 -11.142 -8.9795 -8.789001 -6.501 -5.5605 -4.593 -6.5845 -4.205 
-16.7449 -10.082 -8.5325 -7.089001 -8.384501 -12.9115 -14.1062 -15.5055 -14.0994 -10.1305 -10.2435 -6.135 -9.68 -6.5845 
-16.7449 -14.1189 -9.637501 -8.384501 -15.9786 -18.8552 -18.4697 -20.6254 -15.4409 -14.198 -10.7265 -11.7336 -9.68 
-20.7818 -15.2239 -10.009 -15.9786 -21.9223 -23.2187 -23.5896 -21.9669 -19.5084 -14.681 -16.3251 -11.7336 
