-4.759 
n/a 
n/a 
n/a 
n/a 
-4.759 
n/a 
n/a 
n/a 
n/a 
-4.759 
n/a 
n/a 
n/a 
n/a 
-4.759 
n/a 
n/a 
n/a 
n/a 
-1.4985 -4.1755 -3.458 -4.2115 -1.756 -3.16 -5.266 
-4.6635 -4.717 -8.021 -5.4895 -4.9715 -8.3065 
-4.973001 -9.255 -8.675 -7.286 -10.085 
-9.535001 -9.648001 -9.765 -13.3413 
-10.116 -10.752 -16.4819 
-3.473 -1.756 -3.432 -3.8085 -3.458 
-5.055 -5.815 -6.9795 -7.7345 
-9.188001 -10.3675 -12.1849 
-14.2111 -15.9709 
-19.8145 
-4.461 -1.7565 -3.4605 -1.756 -8.7945 
-6.106 -6.0775 -4.9755 -11.5591 
-11.0118 -7.6565 -16.084 
-12.5908 -19.1388 
-24.0731 
-4.1755 -3.458 -3.4605 -1.756 -6.33 0 
-4.717 -8.198501 -4.9755 -7.276 -6.33 
-9.223001 -9.027501 -10.195 -7.276 
-9.847 -14.5158 -10.195 
-15.5819 -14.5158 
