-4.759 
n/a 
n/a 
n/a 
n/a 
-4.759 
n/a 
n/a 
n/a 
n/a 
-4.759 
n/a 
n/a 
n/a 
n/a 
-4.759 
n/a 
n/a 
n/a 
n/a 
-3.8145 -4.698 -3.4185 -3.2785 
-8.8795 -7.448001 -7.914001 
-11.8457 -12.3575 
-16.7552 
n/a 
-3.4185 -1.7565 -4.5375 -9.623 -3.2785 0 
-4.2475 -5.984001 -16.0857 -13.0841 -3.2785 
-8.243501 -18.201 -19.5468 -13.0841 
-21.6471 -21.6621 -19.5468 
-25.1082 -21.6621 
-3.8145 0 -1.4985 -3.4185 -1.7565 -4.698 -3.2785 0 
-3.8145 -1.4985 -5.019 -4.2475 -5.5475 -9.216001 -3.2785 
-5.7485 -5.019 -6.382501 -6.2225 -9.8065 -9.216001 
-9.210501 -6.382501 -7.566 -10.181 -9.8065 
-10.276 -7.566 -12.0337 -10.181 
-3.8145 -4.698 -3.4185 -3.2785 0 
-8.8795 -7.448001 -7.914001 -3.2785 
-11.8457 -12.3575 -7.914001 
-16.7552 -12.3575 
-16.7552 
