-4.759 
n/a 
n/a 
n/a 
n/a 
-4.759 
n/a 
n/a 
n/a 
n/a 
-4.759 
n/a 
n/a 
n/a 
n/a 
-4.759 
n/a 
n/a 
n/a 
n/a 
-1.934 -12.16972 -12.16972 -3.8405 -12.16972 0 -6.3215 0 -9.554501 -2.7415 -5.36 -1.7565 -12.16972 
-15.11012 -24.33944 -16.01022 -17.01262 -12.16972 -6.3215 -6.3215 -9.554501 -12.5396 -9.628501 -6.7645 -14.87542 
-27.27984 -28.17994 -29.18234 -17.01262 -18.49122 -6.3215 -16.7644 -12.5396 -19.4266 -11.111 -20.76542 
-31.12034 -41.35206 -29.18234 -23.33412 -18.49122 -16.7644 -19.7495 -19.4266 -20.9091 -25.11192 
-44.29246 -41.35206 -35.50384 -23.33412 -28.93412 -19.7495 -26.6365 -20.9091 -34.91002 
-9.030001 0 -6.3215 0 -1.756 -10.2775 -4.167 -3.6245 -3.152 -1.4985 -4.0165 -5.36 -1.934 -7.982501 -5.362 0 
-9.030001 -6.3215 -6.3215 -1.756 -13.0421 -14.4445 -7.716001 -6.739 -4.764 -5.149 -7.996 -7.1065 -10.1595 -11.136 -5.362 
-15.7833 -6.3215 -8.1995 -13.0421 -17.2091 -17.9935 -10.354 -8.032001 -8.798 -8.8135 -9.244 -15.9396 -13.438 -11.136 
-15.7833 -8.1995 -19.7312 -17.2091 -20.7581 -20.6315 -11.647 -12.021 -12.5047 -10.159 -18.2367 -19.2181 -13.438 
-17.6613 -19.7312 -23.8982 -20.7581 -23.3961 -21.9245 -15.636 -15.7277 -13.8502 -19.1517 -21.5152 -19.2181 
-12.16972 -6.864 -3.8405 0 -6.5875 0 -6.3215 0 -1.756 -7.193 -2.186 -1.4985 -3.9515 -1.7565 -2.3615 -3.892 0 
-19.03372 -8.532001 -3.8405 -6.5875 -6.5875 -6.3215 -6.3215 -1.756 -8.872 -8.983001 -3.339 -5.059 -5.368 -3.523 -5.6425 -3.892 
-20.70172 -8.532001 -10.7665 -6.5875 -10.007 -6.3215 -8.1995 -8.872 -10.9812 -10.035 -6.498 -5.839 -7.8935 -6.573501 -5.6425 
-20.70172 -15.7886 -10.7665 -10.007 -10.007 -8.1995 -10.6095 -10.9812 -12.0332 -13.194 -6.727 -8.105 -9.261001 -6.573501 
-27.95832 -15.7886 -14.186 -10.007 -11.885 -10.6095 -12.7187 -12.0332 -15.1922 -13.423 -8.703 -9.3715 -9.261001 
-12.16972 0 -6.3215 0 -9.554501 -2.5685 -3.1495 -4.088 -2.4945 -4.1205 -2.5045 -3.9515 -1.7565 -14.8465 -2.229 -3.8405 0 
-12.16972 -6.3215 -6.3215 -9.554501 -12.3666 -4.8995 -6.193 -6.1785 -5.191 -5.3175 -6.5205 -5.368 -11.375 -11.272 -6.798501 -3.8405 
-18.49122 -6.3215 -16.7644 -12.3666 -14.6976 -7.4775 -7.151 -8.9835 -6.498 -8.962501 -7.9455 -15.9871 -13.1965 -17.0205 -6.798501 
-18.49122 -16.7644 -19.5765 -14.6976 -17.2756 -8.429501 -9.721001 -10.1815 -9.620501 -10.5599 -19.0116 -17.6254 -18.6482 -17.0205 
-28.93412 -19.5765 -21.9075 -17.2756 -18.2276 -11.1789 -10.9362 -13.304 -11.4247 -21.626 -20.6499 -23.0771 -18.6482 
