-4.759 
n/a 
n/a 
n/a 
n/a 
-4.759 
n/a 
n/a 
n/a 
n/a 
-4.759 
n/a 
n/a 
n/a 
n/a 
-4.759 
n/a 
n/a 
n/a 
n/a 
-4.426 -1.7565 -1.4985 -3.0835 -4.7285 -4.1555 -3.147 0 
-5.47 -2.4195 -3.535 -6.042 -8.4455 -5.77 -3.147 
-5.9535 -4.6785 -6.335501 -9.523001 -9.541501 -5.77 
-8.021 -7.476501 -10.0095 -10.7035 -9.541501 
-9.983001 -11.3061 -11.3 -10.7035 
-5.2545 -1.756 -2.789 -4.744 -3.5745 -2.3615 -8.807 -4.77 -1.934 -2.9965 -3.4795 
-6.484 -5.3365 -8.328 -7.571501 -5.345 -10.5535 -13.7882 -6.624001 -5.5765 -5.7925 
-10.3285 -9.84 -11.3571 -9.413 -13.9994 -15.5347 -15.6422 -10.9117 -7.341001 
-15.4006 -13.0585 -13.1986 -18.3654 -18.9806 -17.3887 -19.9299 -12.6762 
-18.6191 -14.9 -22.151 -23.3466 -20.8346 -21.6764 -21.6944 
-2.3615 -3.4155 -5.5755 -3.152 -3.8535 -2.3345 -5.2545 -1.756 -2.789 -4.795 -1.7565 -4.9135 -1.934 -2.9965 -3.4795 0 
-5.395 -10.0645 -8.527 -5.945001 -5.069 -7.1485 -6.484 -5.3365 -8.9585 -6.6725 -7.035501 -6.3675 -5.5765 -5.7925 -3.4795 
-12.6288 -13.016 -11.4434 -6.9205 -9.6485 -8.059 -10.3285 -10.586 -9.840501 -12.4795 -8.2115 -10.738 -7.341001 -5.7925 
-15.5803 -15.9324 -12.4189 -11.647 -10.245 -12.1411 -16.1466 -11.468 -16.2703 -13.6555 -13.2098 -12.5025 -7.341001 
-18.4967 -16.9079 -17.1454 -12.2435 -14.6263 -17.9592 -17.0286 -17.8978 -17.4463 -18.6538 -14.9743 -12.5025 
-5.227 -5.054 -2.356 -5.2545 
-8.005 -6.6045 -6.891001 
-8.9755 -11.6405 
-14.1849 
n/a 
