-4.759 
n/a 
n/a 
n/a 
n/a 
-4.759 
n/a 
n/a 
n/a 
n/a 
-4.759 
n/a 
n/a 
n/a 
n/a 
-4.759 
n/a 
n/a 
n/a 
n/a 
-9.4965 -4.4945 -3.0575 -3.158 -5.198 -4.663 0 -1.756 -2.9805 -8.509001 -3.091 -3.5015 0 -4.9225 -2.4945 -5.425 -1.7695 -4.25 -4.8625 
-14.1996 -7.8285 -5.77 -9.0815 -10.841 -4.663 -1.756 -4.3555 -10.382 -12.416 -5.8855 -3.5015 -4.9225 -6.9525 -7.255001 -7.028 -6.6545 -9.686001 
-17.5336 -11.1084 -13.0311 -14.8981 -10.841 -6.41 -4.3555 -12.3222 -14.5862 -15.2105 -5.8855 -9.131001 -6.9525 -12.031 -8.442501 -12.6496 -12.4359 
-20.8135 -18.3695 -18.8477 -14.8981 -12.588 -8.9425 -12.3222 -16.5264 -17.3807 -15.2105 -12.078 -11.4618 -12.031 -13.2185 -14.2291 -18.431 
-28.0746 -24.1861 -18.8477 -16.6451 -15.1205 -16.9316 -16.5264 -19.3209 -17.3807 -21.403 -14.4088 -16.5403 -13.2185 -19.0051 -20.0105 
-3.2615 -7.9465 -5.637 -3.5865 -2.8195 -2.5195 -4.2085 0 -3.1385 -3.8 -2.356 -4.443 0 
-9.9305 -14.0811 -9.6465 -5.753 -5.4635 -6.7085 -4.2085 -3.1385 -7.269001 -6.9845 -6.645 -4.443 
-16.1541 -18.0906 -12.4364 -7.2285 -9.7775 -6.7085 -7.6505 -7.269001 -10.4265 -11.7677 -6.645 
-20.1636 -20.8805 -13.9119 -11.8231 -9.7775 -10.4425 -11.9588 -10.4265 -15.2097 -11.7677 
-22.9535 -22.356 -18.5065 -11.8231 -13.8377 -14.7508 -15.1163 -15.2097 -15.2097 
-1.4985 -3.5865 -1.7565 -4.628 -4.5815 -3.2615 -3.0575 -3.277 -1.7565 -9.451 0 -6.72 0 0 -1.7695 -3.8 -3.091 -3.5865 0 -4.9725 -3.152 -5.012 -1.934 -4.747 0 
-5.009 -5.1005 -6.107501 -7.5445 -7.8715 -6.6095 -5.4945 -4.296 -10.634 -9.451 -6.72 -6.72 0 -1.7695 -5.6265 -7.462 -5.9665 -3.5865 -4.9725 -7.409 -7.389 -7.0225 -6.4735 -4.747 
-5.42 -9.8105 -8.8695 -10.553 -11.6157 -7.227 -6.4765 -10.7175 -10.634 -10.9315 -6.72 -6.72 -1.7695 -5.6265 -8.014501 -8.724001 -5.9665 -10.4425 -7.409 -8.7685 -8.589001 -10.7595 -6.4735 
-10.0885 -10.7525 -10.7595 -14.2972 -12.2332 -7.719 -13.5304 -10.7175 -12.1145 -10.9315 -6.72 -8.0015 -5.6265 -8.014501 -8.986 -8.724001 -13.6633 -12.879 -8.7685 -9.772501 -12.5818 -10.7595 
-10.7655 -12.6425 -14.5037 -14.9147 -12.7252 -14.6297 -13.5304 -12.198 -12.1145 -10.9315 -8.0015 -12.3151 -8.014501 -8.986 -8.986 -16.7698 -16.0998 -14.2385 -9.772501 -14.1607 -12.5818 
-3.2615 -3.0575 -3.277 -5.814 -4.066 -1.7695 -3.2875 0 -1.4985 -4.9225 -2.4945 -3.8 -2.3345 -4.368 0 
-6.6095 -5.4945 -9.708 -10.6215 -4.6735 -5.641 -3.2875 -1.4985 -6.040501 -6.9525 -5.1265 -6.613501 -7.1425 -4.368 
-7.227 -12.3627 -14.6403 -11.229 -8.0825 -5.641 -5.3035 -6.040501 -8.357 -9.3915 -7.759501 -11.7989 -7.1425 
-14.721 -17.295 -15.2478 -14.638 -8.0825 -8.194 -9.913 -8.357 -11.0272 -12.0903 -13.4381 -11.7989 
-19.6533 -17.9025 -18.6568 -14.638 -10.757 -12.9397 -12.2317 -11.0272 -13.726 -17.7689 -13.4381 
