-4.759 
n/a 
n/a 
n/a 
n/a 
-4.759 
n/a 
n/a 
n/a 
n/a 
-4.759 
n/a 
n/a 
n/a 
n/a 
-4.759 
n/a 
n/a 
n/a 
n/a 
-3.1495 -2.9775 -8.889501 -4.4895 -2.4285 -2.871 -2.4285 -3.3715 -4.9225 -3.9765 -2.3335 -2.871 0 
-7.315001 -12.8122 -13.7116 -6.599 -5.3155 -4.4275 -6.253 -7.0565 -8.764501 -4.531 -4.7635 -2.871 
-17.7287 -17.6343 -15.8211 -10.1035 -6.564 -6.899 -10.085 -9.8715 -9.165501 -6.8495 -4.7635 
-22.5508 -19.7438 -19.3256 -11.4094 -9.6055 -10.8546 -12.9 -10.536 -11.578 -6.8495 
-24.6603 -23.2483 -20.6315 -14.4509 -13.6417 -13.6696 -13.5645 -12.9485 -11.578 
-2.3615 -3.939 -1.7695 -12.16972 -2.3345 -12.16972 -2.871 -2.4285 -2.645 
-8.7985 -6.1135 -14.92142 -14.50422 -14.83482 -15.04072 -4.4275 -4.1105 
-11.1988 -20.00762 -17.25592 -27.00454 -17.70582 -16.59722 -4.587 
-25.09292 -22.34212 -29.75624 -29.87554 -19.26232 -16.75672 
-27.42742 -34.84244 -32.62724 -31.43204 -19.42182 
-2.3615 -5.154 -3.881 -2.3345 -1.8085 -12.16972 -2.664 -3.7285 -5.3255 -2.4285 -3.2795 -1.7565 -5.3255 0 
-7.653501 -9.0565 -4.5275 -3.8605 -14.47662 -14.83372 -7.7285 -9.923 -7.831501 -5.2685 -4.4575 -6.804501 -5.3255 
-11.8554 -9.443501 -6.079 -17.23322 -17.14062 -19.89822 -14.0996 -12.4832 -11.0911 -6.082 -8.210501 -6.804501 
-12.2424 -11.2204 -20.15072 -19.89722 -22.20512 -26.26932 -16.6598 -15.7428 -11.9046 -10.2325 -8.210501 
-14.0193 -25.29212 -22.81472 -24.96172 -28.57622 -28.82952 -19.9194 -16.5563 -16.0551 -10.2325 
-3.402 -2.264 -2.3335 -3.509 -2.7295 -3.557 -2.5045 -8.889501 
-3.793 -4.6785 -6.581 -6.2035 -5.115 -6.1615 -11.0805 
-6.160501 -9.49 -10.543 -8.848001 -8.1415 -15.2119 
-10.3605 -13.6976 -13.1875 -11.9679 -17.5703 
-15.4311 -16.3421 -16.3074 -21.3967 
