-4.759 
n/a 
n/a 
n/a 
n/a 
-4.759 
n/a 
n/a 
n/a 
n/a 
-4.759 
n/a 
n/a 
n/a 
n/a 
-4.759 
n/a 
n/a 
n/a 
n/a 
-4.773 -2.186 -2.871 -1.7565 -1.4985 -4.361 -3.319 
-6.884501 -4.247 -3.5385 -2.4195 -5.8175 -8.728001 
-9.290501 -4.411 -3.7675 -6.672 -9.745001 
-9.443001 -4.5655 -8.8865 -10.451 
-9.592 -10.064 -12.7773 
-5.477 -2.0935 -5.632 
-6.799 -6.776 
-6.818 
n/a 
n/a 
-4.806 -3.8315 -2.186 -2.871 -1.7565 -1.4985 -4.361 -3.772 
-5.5635 -5.974 -4.247 -3.5385 -2.4195 -5.8175 -6.857 
-7.6955 -7.917001 -4.411 -3.7675 -6.672 -8.347 
-9.512001 -8.0135 -4.5655 -8.8865 -9.2515 
-9.550501 -8.118501 -10.064 -11.5778 
-7.514501 -3.8315 -2.186 -2.871 -1.7565 -4.361 -3.772 
-11.805 -5.974 -4.247 -3.5385 -5.442 -6.857 
-14.7241 -7.917001 -4.411 -8.802 -7.807 
-16.6671 -8.0135 -9.525001 -11.0646 
-16.7636 -13.7599 -11.8076 
