-4.759 
n/a 
n/a 
n/a 
n/a 
-4.759 
n/a 
n/a 
n/a 
n/a 
-4.759 
n/a 
n/a 
n/a 
n/a 
-4.759 
n/a 
n/a 
n/a 
n/a 
-4.377 -4.3055 -5.923 -5.585 
-8.168 -7.0665 -8.4785 
-9.2875 -9.3055 
-12.9479 
n/a 
-3.2825 -8.613001 -6.341 -5.585 
-13.1927 -15.2326 -9.0455 
-19.8123 -17.9371 
-22.5168 
n/a 
-5.1475 -3.0465 -2.264 -6.648 -5.585 
-9.133 -5.2155 -9.336 -10.1425 
-11.4384 -13.2579 -13.1305 
-19.4808 -17.0524 
-23.2753 
-5.585 -1.7565 -4.3055 -5.923 -2.9705 -4.174 -5.3745 0 
-6.531 -6.1225 -7.0665 -8.753 -5.579 -9.481501 -5.3745 
-9.1445 -7.6175 -9.415 -11.6145 -10.5325 -9.481501 
-9.624001 -9.779 -12.3751 -16.568 -10.5325 
-11.8659 -12.8691 -17.3286 -16.568 
