-4.759 
n/a 
n/a 
n/a 
n/a 
-4.759 
n/a 
n/a 
n/a 
n/a 
-4.759 
n/a 
n/a 
n/a 
n/a 
-4.759 
n/a 
n/a 
n/a 
n/a 
-3.995 -2.229 -4.764 -1.756 -2.95 
-5.324 -7.013 -6.1025 -4.868 
-7.4195 -8.213501 -8.428 
-8.452001 -10.831 
-11.2885 
-3.995 -2.229 -5.8445 -4.6545 -1.756 -4.763 
-5.324 -7.6365 -7.3495 -6.1195 -6.6655 
-9.710501 -9.901001 -8.619 -11.7468 
-11.7496 -11.2359 -14.4631 
-13.0845 -17.08 
-3.995 -4.764 -5.7865 -1.756 -3.1435 -3.8405 
-8.2995 -9.521501 -7.511001 -4.1365 -7.244 
-13.3924 -11.626 -9.9805 -8.548 
-15.4969 -14.0955 -14.392 
-17.9664 -18.507 
-3.995 -7.348001 -3.7575 -4.029 
-10.9575 -10.007 -7.684 
-13.6165 -14.0329 
-17.6424 
n/a 
