-4.759 
n/a 
n/a 
n/a 
n/a 
-4.759 
n/a 
n/a 
n/a 
n/a 
-4.759 
n/a 
n/a 
n/a 
n/a 
-4.759 
n/a 
n/a 
n/a 
n/a 
-6.798501 -4.6545 -1.756 -6.8065 -4.7945 
-9.810501 -6.1195 -8.74 -12.1642 
-11.2755 -13.8213 -14.1611 
-18.9773 -19.2424 
-24.3984 
-3.3715 -4.3625 -3.3715 -5.3135 
-7.132501 -7.711 -7.721001 
-10.1035 -12.4625 
-14.855 
n/a 
-3.043 -3.4915 -4.082 -3.043 -3.4915 -4.4525 
-4.4045 -9.1405 -7.3295 -4.4045 -8.132501 
-9.636001 -12.6366 -8.543501 -9.2845 
-13.2279 -13.8506 -13.6027 
-14.4419 -18.9098 
-3.043 -3.3715 -5.2455 -1.756 -3.043 -3.3715 -5.1695 0 
-4.5235 -7.3195 -6.303 -4.2975 -4.5235 -7.591001 -5.1695 
-8.908 -8.325001 -8.827001 -5.9275 -9.764001 -7.591001 
-10.486 -11.0158 -10.6605 -11.4402 -9.764001 
-13.1768 -12.8493 -16.1732 -11.4402 
