-4.759 
n/a 
n/a 
n/a 
n/a 
-4.759 
n/a 
n/a 
n/a 
n/a 
-4.759 
n/a 
n/a 
n/a 
n/a 
-4.759 
n/a 
n/a 
n/a 
n/a 
-9.821 -3.7865 -3.5865 
-14.1139 -6.3415 
-16.6689 
n/a 
n/a 
-9.821 -3.7865 -3.5865 
-14.1139 -6.3415 
-16.6689 
n/a 
n/a 
-12.16972 -3.7865 -3.5865 0 -3.098 -1.7565 -1.4985 -3.5865 0 
-15.95622 -6.3415 -3.5865 -3.098 -4.3615 -2.4195 -4.809 -3.5865 
-18.51122 -6.3415 -7.145 -4.3615 -4.731 -5.609 -4.809 
-18.51122 -10.281 -8.392 -4.731 -7.7945 -5.609 
-22.45072 -11.528 -9.2605 -7.7945 -7.7945 
-9.821 -3.5865 0 
-10.3745 -3.5865 
-10.3745 
n/a 
n/a 
