-4.759 
n/a 
n/a 
n/a 
n/a 
-4.759 
n/a 
n/a 
n/a 
n/a 
-4.759 
n/a 
n/a 
n/a 
n/a 
-4.759 
n/a 
n/a 
n/a 
n/a 
-1.4985 -4.2105 -1.7565 -1.4985 -3.7075 -2.186 -2.6165 -3.932 -2.0935 -1.4985 -5.8 -1.7695 -4.474 0 
-5.327001 -5.477 -2.4195 -4.6235 -5.825 -3.5105 -5.076 -5.1235 -2.9725 -6.957001 -8.344501 -5.3765 -4.474 
-6.0185 -6.114 -5.468501 -5.975501 -7.327001 -5.609 -6.3855 -6.008 -8.5565 -9.245501 -10.31 -5.3765 
-6.415 -7.712501 -7.247001 -7.586501 -9.846001 -6.7565 -7.3135 -11.81 -10.5535 -11.4306 -10.31 
-7.756001 -8.970501 -8.845 -10.067 -11.0573 -7.6915 -13.2419 -13.807 -12.7386 -11.4306 
-3.7075 -2.186 -4.59 -2.0935 -5.8 -1.7695 -4.397 
-5.825 -5.6565 -4.887 -8.071001 -8.344501 -5.136 
-10.223 -5.732 -11.5563 -10.1385 -12.0112 
-10.4115 -12.7213 -13.6238 -13.9996 
-17.4008 -14.7888 -17.4849 
-1.4985 -3.7075 -2.229 0 -2.6165 -3.932 -1.7695 -4.397 -1.8085 -5.8 0 
-4.6235 -5.5255 -2.229 -2.6165 -5.076 -4.4665 -5.136 -6.4265 -7.007 -5.8 
-5.9985 -5.5255 -4.2275 -5.076 -5.8225 -8.8525 -7.2135 -12.2378 -7.007 
-5.9985 -8.5065 -6.1665 -5.8225 -10.5209 -11.461 -12.9408 -12.2378 
-8.616501 -10.9381 -6.7155 -10.5209 -13.1294 -17.1883 -12.9408 
-3.7075 -4.577 -1.7565 -5.8 -2.3335 -1.7565 -2.871 -4.031 0 
-8.918 -5.99 -7.412001 -8.079 -4.618 -4.521 -5.6145 -4.031 
-10.6215 -12.4861 -9.572001 -10.8323 -7.247001 -8.083501 -5.6145 
-17.1176 -14.6461 -12.4369 -13.4613 -11.0397 -8.083501 
-19.2776 -17.511 -15.0659 -17.254 -11.0397 
