-4.759 
n/a 
n/a 
n/a 
n/a 
-4.759 
n/a 
n/a 
n/a 
n/a 
-4.759 
n/a 
n/a 
n/a 
n/a 
-4.759 
n/a 
n/a 
n/a 
n/a 
-3.0365 -2.186 -2.847 -3.441 -3.6005 -2.0935 -3.599 
-3.66 -4.1045 -6.3655 -7.2755 -4.705 -5.7065 
-4.256001 -7.420001 -9.1035 -8.158501 -8.126 
-7.485001 -9.7635 -10.0785 -11.8499 
-9.763 -10.6 -13.9025 
-12.16972 -6.772 -6.924 
-18.94172 -14.225 
-26.39472 
n/a 
n/a 
-2.9325 -2.186 -1.4985 -5.2885 -1.7695 -3.599 
-3.8335 -3.339 -6.977 -7.326 -5.452 
-4.57 -9.1545 -8.748 -11.5401 
-10.702 -11.0159 -13.1019 
-12.5634 -15.3698 
-2.9325 -2.186 -1.4985 -5.2885 -2.0935 -3.599 
-3.8335 -3.339 -6.977 -7.3665 -5.7065 
-4.57 -9.1545 -9.083501 -11.4227 
-10.702 -11.3514 -13.3837 
-12.8989 -15.6516 
