-4.759 
n/a 
n/a 
n/a 
n/a 
-4.759 
n/a 
n/a 
n/a 
n/a 
-4.759 
n/a 
n/a 
n/a 
n/a 
-4.759 
n/a 
n/a 
n/a 
n/a 
-4.834 -4.906 0 -4.1925 -9.7025 -5.3685 -3.59 
-7.3665 -4.906 -4.1925 -15.3704 -15.1436 -9.736 
-7.3665 -8.2705 -15.3704 -20.8115 -19.5111 
-11.0968 -20.3618 -20.8115 -25.179 
-23.1881 -25.8029 -25.179 
-3.59 -2.9705 -4.3845 -3.188 -3.7405 -1.756 -3.299 -3.6045 -1.7565 -6.543 
-6.172 -7.733001 -8.3315 -7.560501 -6.593 -4.873 -4.5695 -4.455 -7.6295 
-11.4681 -12.072 -13.2526 -11.0318 -9.887501 -6.013 -6.272 -10.1265 
-15.8071 -16.9931 -16.7239 -14.3263 -10.692 -7.5305 -10.702 
-20.7282 -20.4644 -20.0184 -15.1308 -12.2095 -12.0683 
-2.3615 -3.59 -4.9975 -3.188 -2.229 -3.17 -1.756 -3.299 -3.391 -9.7025 0 
-5.0215 -7.6625 -8.063001 -4.279 -4.5735 -6.1635 -4.873 -6.241 -13.6697 -9.7025 
-9.8105 -10.2535 -10.1385 -5.232 -8.153501 -10.01 -7.6325 -17.1501 -13.6697 
-12.4493 -13.0088 -11.1891 -9.3275 -12.8834 -12.8937 -18.8364 -17.1501 
-15.2046 -14.0594 -15.2846 -13.9986 -15.7671 -24.0976 -18.8364 
-3.299 -3.6045 -3.89 -2.4945 -4.3845 -2.5195 -2.3615 -3.59 -1.934 -1.4985 -3.188 
-4.5695 -8.521 -6.903501 -7.744501 -6.644 -4.4095 -5.0215 -5.272 -2.6125 -3.619 
-9.393001 -11.5885 -12.6111 -10.341 -8.813 -7.2425 -6.646 -5.747 -4.377 
-12.8309 -17.2961 -15.2076 -12.51 -9.928 -8.7965 -7.236 -6.1975 
-18.5385 -19.8926 -17.3766 -13.625 -11.482 -9.295501 -9.384 
