-4.759 
n/a 
n/a 
n/a 
n/a 
-4.759 
n/a 
n/a 
n/a 
n/a 
-4.759 
n/a 
n/a 
n/a 
n/a 
-4.759 
n/a 
n/a 
n/a 
n/a 
-3.0415 -2.3335 -2.925 -5.2155 -5.4425 -6.5625 -2.3345 -7.124001 -3.264 -3.135 -3.1385 0 
-4.132 -4.0295 -7.446001 -10.316 -7.282 -8.606001 -9.803 -11.0664 -6.0745 -4.8745 -3.1385 
-5.2485 -8.4685 -12.8091 -13.2581 -8.716001 -16.6355 -13.803 -13.8769 -7.2565 -4.8745 
-10.172 -13.857 -15.7512 -14.6921 -17.2607 -20.6355 -16.6135 -15.0589 -7.2565 
-15.5605 -16.7991 -17.1852 -23.2368 -21.2607 -23.446 -17.7955 -15.0589 
-3.0415 -1.8085 -3.2795 -1.7565 -3.1385 -5.5305 -2.3335 -2.925 -4.532 -1.7695 -5.296 -5.4425 -6.5625 
-5.4025 -4.5305 -4.4575 -4.388 -8.2295 -8.153501 -4.0295 -6.6785 -5.484 -6.671 -11.7603 -7.282 
-7.9215 -4.854 -5.6625 -9.493501 -10.348 -9.666 -7.5695 -6.871 -11.6145 -13.4897 -13.5998 
-8.0515 -6.067 -10.9632 -11.613 -11.8605 -13.3362 -7.669001 -13.2263 -18.4332 -15.3292 
-9.2185 -11.5751 -13.0827 -13.1255 -15.5307 -13.4357 -14.1431 -20.045 -20.2727 
-4.7475 -1.8085 -3.32 -1.7565 -3.1385 -3.5095 -2.925 -2.674 -6.7935 -4.226 -5.4425 -6.5625 -6.303 0 
-6.315001 -5.226501 -4.658 -4.388 -5.482 -5.0625 -4.1785 -9.415 -10.2185 -10.2925 -7.282 -13.6615 -6.303 
-9.809001 -5.656 -7.5795 -6.8545 -6.7295 -6.271 -10.757 -13.0026 -16.6348 -12.3002 -14.9198 -13.6615 
-10.1845 -8.7235 -10.341 -8.030001 -7.758 -13.2031 -14.3446 -19.4189 -18.6425 -19.938 -14.9198 
-12.9214 -11.6324 -11.9579 -9.0185 -14.9861 -16.7907 -20.7609 -21.4266 -26.2803 -19.938 
-3.0415 -4.859 -1.8085 -4.031 -3.135 -3.2795 -1.7565 -3.1385 -2.4945 -4.7135 -2.3335 -5.4425 -6.5625 -3.251 -3.1125 -4.9055 -2.3345 -3.845 
-6.620501 -5.9895 -5.249001 -6.6425 -6.898001 -4.4575 -4.388 -4.588 -6.238501 -6.6915 -8.0585 -7.282 -9.163501 -4.28 -6.4275 -5.839001 -6.6095 
-7.7515 -8.824 -8.213 -10.749 -7.698501 -5.6625 -5.892 -7.535501 -8.5245 -12.8005 -10.4035 -9.541 -10.3895 -7.3255 -6.9485 -9.772 
-10.316 -12.2236 -12.5909 -11.5495 -8.277 -7.598001 -8.8485 -9.788 -14.7347 -15.1455 -12.6625 -10.7832 -13.435 -7.813 -10.7025 
-13.8332 -16.6015 -13.3914 -12.128 -9.9615 -10.7671 -11.1378 -16.102 -17.0797 -17.4045 -13.9047 -13.8287 -13.9225 -11.6902 
