-4.759 
n/a 
n/a 
n/a 
n/a 
-4.759 
n/a 
n/a 
n/a 
n/a 
-4.759 
n/a 
n/a 
n/a 
n/a 
-4.759 
n/a 
n/a 
n/a 
n/a 
-2.4285 -5.743001 -2.186 -1.934 -6.1 -3.8725 -5.835001 -1.934 -1.7695 -1.4985 -4.161 -3.86 
-9.448 -9.074501 -4.0835 -9.3815 -11.117 -10.1995 -8.203001 -4.0395 -2.7955 -5.9785 -7.719 
-12.8861 -11.1278 -12.1576 -14.5603 -17.444 -12.5675 -10.4539 -5.3685 -7.357501 -10.2607 
-14.9394 -19.2019 -17.3364 -20.8873 -19.812 -14.8184 -11.7829 -9.278 -11.8107 
-23.0135 -24.3807 -23.6634 -23.2553 -22.0629 -16.1474 -15.6924 -13.8412 
-1.4985 -3.5965 -2.7765 -2.489 -5.4695 -1.7695 -3.1715 -1.4985 -3.264 -2.3335 -2.186 -1.934 -3.8605 -5.743001 -1.7695 -1.4985 -3.264 -2.3335 -2.186 -1.934 -3.8605 -6.1 -1.756 -3.8055 -1.4985 -3.9105 -3.222 -3.8605 -5.835001 0 
-4.746 -6.2995 -3.495 -6.495 -5.988 -4.257 -4.8205 -4.0935 -5.701 -3.7085 -4.0835 -5.853 -10.195 -8.457001 -2.7955 -4.0935 -5.701 -3.7085 -4.0835 -5.853 -10.1995 -9.008 -5.035501 -4.870501 -4.757 -7.857 -7.319 -10.19 -5.835001 
-6.984 -7.067 -7.655001 -6.7875 -8.641 -5.579 -7.5375 -6.5205 -6.491 -5.576 -8.186501 -10.4425 -10.4505 -9.755001 -5.5625 -6.5205 -6.491 -5.576 -8.186501 -10.4425 -10.4505 -10.404 -6.039001 -8.169001 -8.4175 -10.396 -10.4425 -10.19 
-7.724501 -9.8605 -7.7735 -9.363 -9.1785 -8.259001 -9.8935 -7.6225 -8.37 -8.6315 -10.4425 -10.456 -10.464 -10.437 -7.8025 -7.6225 -8.37 -8.6315 -10.4425 -10.456 -10.464 -10.4555 -8.7665 -9.46 -10.426 -10.4545 -10.4425 
-10.107 -9.906501 -10.3665 -10.2875 -12.2351 -10.315 -10.319 -9.1615 -10.13 -10.442 -10.456 -10.4695 -10.4775 -10.4585 -8.975 -9.1615 -10.13 -10.442 -10.456 -10.4695 -10.4775 -10.469 -10.2035 -10.4355 -10.455 -10.4545 
-3.941 -3.423 -5.743001 -3.1715 -2.356 -6.1 -1.756 -3.5665 -2.4265 -1.934 -5.835001 
-6.455501 -9.1525 -9.0795 -6.907001 -9.8745 -9.008 -5.571 -5.942 -4.3385 -7.7945 
-12.963 -12.5178 -13.1042 -14.8155 -12.9115 -12.8956 -6.548501 -6.631001 -10.2135 
-16.3283 -16.5425 -21.0127 -17.8525 -16.7991 -13.8731 -6.999001 -13.2324 
-20.353 -24.451 -24.0497 -21.7401 -17.7766 -14.3236 -13.713 
-2.4285 -2.7295 -2.7765 -3.333 -1.7695 -3.7085 -5.743001 -4.304 -6.1 -1.756 -3.7085 -2.3335 -2.5045 -5.835001 
-5.539001 -4.065 -5.847 -4.022 -4.19 -10.7335 -10.634 -11.4538 -9.008 -4.9635 -6.0165 -4.976501 -9.429001 
-6.3345 -7.377 -8.5 -6.002501 -11.4172 -15.6245 -17.7838 -14.3618 -12.2881 -7.3785 -8.222 -12.484 
-9.120001 -9.964001 -10.7849 -13.5287 -16.3082 -22.7743 -20.6918 -17.6419 -14.7031 -9.215 -16.2659 
-11.9614 -12.3927 -18.3111 -18.4197 -23.458 -25.6823 -23.9719 -20.0569 -16.5396 -17.4605 
