-4.759 
n/a 
n/a 
n/a 
n/a 
-4.759 
n/a 
n/a 
n/a 
n/a 
-4.759 
n/a 
n/a 
n/a 
n/a 
-4.759 
n/a 
n/a 
n/a 
n/a 
-3.524 -3.1635 -4.415 -4.3645 -4.4665 -4.533 -2.5195 -4.712 -3.7345 -3.969 -1.934 -3.934 -2.356 -2.743 -3.499 -2.4265 -2.186 -4.0705 -3.5285 -1.7695 -3.7345 -2.356 -9.4755 -4.335 0 
-5.462 -8.559501 -9.8505 -9.2145 -9.053501 -6.0555 -7.1965 -6.127501 -6.008 -5.678 -5.185 -6.434501 -5.844 -6.626 -6.2775 -3.292 -7.538501 -8.6675 -5.1755 -5.992001 -5.794 -10.015 -12.436 -4.335 
-11.945 -14.177 -14.8373 -13.9275 -11.0028 -10.223 -7.7315 -10.8394 -8.078501 -8.5235 -7.132501 -9.698501 -8.683001 -9.6595 -6.814 -8.572001 -12.4049 -9.452001 -8.5255 -8.236001 -12.9715 -15.8627 -13.3622 
-17.5625 -19.1638 -19.5503 -15.8768 -15.1703 -10.2945 -12.6636 -12.9099 -11.3144 -10.3545 -10.7175 -12.6365 -12.0425 -10.2665 -12.5426 -13.595 -13.1894 -13.8258 -10.259 -15.6797 -18.8949 -16.0269 
-22.5493 -23.8768 -21.4996 -20.0443 -15.2418 -15.5226 -14.7341 -16.1458 -13.1454 -13.9395 -13.6555 -15.996 -12.6495 -15.9951 -17.5656 -14.3795 -17.5632 -15.5593 -17.7027 -21.6031 -18.8949 
-3.524 -3.1635 -1.4985 -4.415 -4.9875 -2.356 -2.743 -3.1385 -4.541 -4.504 -1.4985 -9.4755 -3.7345 -4.335 -1.7695 -1.4985 -3.38 -3.7345 -3.326 -3.307 -2.5195 -4.712 -3.7345 -3.307 -1.934 -3.934 0 
-5.462 -5.4855 -5.4025 -7.829501 -7.643001 -5.844 -6.107 -7.753 -7.403501 -6.0605 -8.881001 -11.9575 -6.686 -5.5565 -2.7955 -4.4895 -5.935 -6.4715 -5.021501 -6.2815 -7.1965 -6.127501 -5.819 -5.094501 -5.185 -3.934 
-7.431 -9.417 -8.895 -11.3922 -11.3942 -8.4235 -10.6875 -10.9485 -9.053 -12.7035 -10.468 -12.9625 -8.3785 -6.757 -5.7475 -6.1455 -9.2515 -8.476001 -8.1365 -10.7335 -7.7315 -6.1415 -7.0395 -7.316501 -5.185 
-11.9471 -13.0581 -12.5221 -15.1434 -13.9737 -13.353 -14.5868 -12.598 -15.8858 -14.3705 -14.7315 -15.612 -8.998 -9.719501 -6.790501 -9.8395 -10.7035 -11.9842 -12.8815 -11.2685 -7.751 -7.3085 -7.430501 -7.316501 
-15.5882 -16.6852 -16.2733 -17.7229 -18.9032 -17.2523 -16.2363 -19.4308 -17.5528 -18.778 -16.375 -16.2315 -12.6755 -9.824 -11.0765 -11.7535 -14.2117 -16.7292 -13.4165 -11.288 -8.692 -7.435501 -7.430501 
-3.524 -3.1635 0 -3.7345 -4.9875 -4.415 -2.7415 -4.622 -2.5195 -1.4985 -4.712 -3.7345 -3.307 0 -3.934 0 -2.356 -4.2405 -5.77 -4.541 -4.0035 -1.4985 -6.036 0 -9.4755 0 -1.7695 -1.4985 -3.38 -3.7345 -4.0465 0 
-5.462 -3.1635 -3.7345 -5.682 -6.395 -6.821501 -5.66 -6.4445 -3.1695 -6.02 -6.127501 -5.819 -3.307 -3.934 -3.934 -2.356 -5.987 -7.3255 -8.714001 -8.101001 -4.936 -7.0565 -6.036 -7.603001 -7.603001 -1.7695 -2.7955 -4.4895 -5.935 -5.636 -4.0465 
-5.462 -7.9565 -5.682 -6.5 -8.7465 -9.204 -7.4405 -7.071 -7.3475 -6.916 -6.1415 -5.819 -6.984 -3.934 -6.434501 -5.987 -8.85 -10.6465 -12.92 -9.0535 -11.1116 -7.0565 -14.5116 -7.603001 -9.7405 -2.7955 -5.7475 -6.1455 -5.995 -5.636 
-10.186 -9.4715 -6.5 -8.826501 -9.5365 -10.035 -7.9645 -8.619 -7.675 -6.9365 -6.1415 -7.4965 -6.984 -6.434501 -9.6885 -8.85 -12.8602 -14.8525 -13.8725 -15.2667 -11.1116 -15.8961 -14.5116 -9.7405 -10.1575 -5.7475 -6.790501 -6.1635 -5.995 
-10.7575 -10.452 -8.826501 -9.654 -10.2885 -10.229 -9.080501 -8.6225 -7.6975 -6.9365 -7.5 -7.4965 -9.935501 -9.6885 -10.577 -12.8602 -17.0662 -15.805 -20.0857 -15.2667 -19.9512 -15.8961 -16.6491 -10.1575 -10.2135 -6.790501 -6.798 -6.1635 
-3.524 -3.1635 0 -4.415 -4.0435 -1.7565 -3.934 -12.16972 -4.145 -2.743 -3.6765 -9.4755 -6.522501 -4.335 -3.3165 -1.7695 -3.429 -4.541 -1.7695 -3.326 -3.307 0 
-5.462 -3.1635 -4.415 -8.488501 -5.224 -5.16 -17.19212 -16.31472 -7.3195 -7.254 -12.085 -13.535 -11.3571 -7.937 -3.881 -4.032 -9.5275 -6.572001 -5.3825 -5.021501 -3.307 
-5.462 -8.559501 -8.488501 -9.824 -9.217501 -18.99172 -21.33712 -19.48922 -12.3169 -16.2887 -19.245 -19.9652 -14.9591 -8.558001 -7.6065 -9.842001 -11.6665 -10.3815 -8.911501 -5.021501 
-11.945 -12.815 -9.824 -14.1099 -23.32762 -23.13672 -24.51162 -24.48662 -21.3516 -23.1469 -24.749 -23.5672 -15.5801 -12.6269 -13.8305 -12.0048 -15.476 -13.9105 -8.911501 
-16.2005 -14.1505 -14.1099 -28.22002 -27.47262 -26.31122 -29.50902 -33.52132 -28.2098 -28.6509 -28.351 -24.1882 -19.649 -18.8509 -15.9933 -15.8143 -19.005 -13.9105 
