-4.759 
n/a 
n/a 
n/a 
n/a 
-4.759 
n/a 
n/a 
n/a 
n/a 
-4.759 
n/a 
n/a 
n/a 
n/a 
-4.759 
n/a 
n/a 
n/a 
n/a 
-4.5965 0 -9.4315 0 -5.943501 0 
-4.5965 -9.4315 -9.4315 -5.943501 -5.943501 
-14.4182 -9.4315 -15.7342 -5.943501 
-14.4182 -15.7342 -15.7342 
-20.7209 -15.7342 
-4.5965 0 -7.9665 0 -5.943501 0 
-4.5965 -7.9665 -7.9665 -5.943501 -5.943501 
-11.046 -7.9665 -14.2724 -5.943501 
-11.046 -14.2724 -14.2724 
-17.3519 -14.2724 
-4.5965 0 -10.9655 0 -5.943501 0 
-4.5965 -10.9655 -10.9655 -5.943501 -5.943501 
-15.9522 -10.9655 -16.909 -5.943501 
-15.9522 -16.909 -16.909 
-21.8957 -16.909 
-4.5965 0 -8.1735 0 -5.943501 0 
-4.5965 -8.1735 -8.1735 -5.943501 -5.943501 
-13.1602 -8.1735 -15.217 -5.943501 
-13.1602 -15.217 -15.217 
-20.2037 -15.217 
