-4.759 
n/a 
n/a 
n/a 
n/a 
-4.759 
n/a 
n/a 
n/a 
n/a 
-4.759 
n/a 
n/a 
n/a 
n/a 
-4.759 
n/a 
n/a 
n/a 
n/a 
-4.4755 -3.251 -4.187 -4.11 -2.264 -1.4985 -3.995 0 
-7.5565 -8.788501 -9.463 -6.038 -2.9195 -4.712 -3.995 
-13.2134 -13.7235 -11.4754 -6.4485 -6.008 -4.712 
-18.1484 -15.7359 -11.8859 -8.4735 -6.008 
-20.1608 -16.1464 -13.9109 -8.4735 
-12.16972 -2.186 -3.6065 
-14.35572 -5.206 
-17.37572 
n/a 
n/a 
-1.4985 -3.962 -3.188 -3.539 0 -3.539 -1.934 -1.7695 -3.995 0 -3.2875 -2.186 -4.4755 
-4.324 -5.6585 -7.3715 -3.539 -3.539 -5.0485 -4.0395 -5.497 -3.995 -3.2875 -5.4535 -7.356 
-5.719 -8.712 -7.3715 -6.3695 -5.0485 -7.8175 -8.7875 -5.497 -6.87 -5.4535 -10.134 
-8.857 -8.712 -9.5 -8.290501 -7.8175 -13.0673 -8.7875 -9.2025 -9.126 -10.134 
-8.857 -11.2251 -10.318 -10.7175 -13.0673 -13.0673 -13.0646 -11.2959 -14.4657 
-1.4985 -5.101 -3.598 -1.7565 -4.4755 -2.8645 -4.2745 -5.166 0 
-5.9925 -7.170501 -4.922 -5.463 -6.8075 -7.59 -8.913501 -5.166 
-8.271001 -8.085001 -9.658001 -7.708001 -11.9066 -12.6638 -8.913501 
-8.540501 -13.0988 -12.1144 -12.9463 -16.9804 -12.6638 
-13.7397 -15.5552 -17.3527 -18.0201 -16.9804 
