-4.759 
n/a 
n/a 
n/a 
n/a 
-4.759 
n/a 
n/a 
n/a 
n/a 
-4.759 
n/a 
n/a 
n/a 
n/a 
-4.759 
n/a 
n/a 
n/a 
n/a 
-2.8965 -3.1575 -2.3615 0 -2.4265 -2.8645 -3.7965 -1.4985 -3.9675 -1.7565 -4.399 -3.1385 0 
-4.4055 -5.4355 -2.3615 -2.4265 -4.1435 -8.529501 -4.8165 -5.356501 -5.258 -5.3345 -8.1045 -3.1385 
-6.295 -5.4355 -5.3335 -4.1435 -9.9475 -9.715501 -9.180501 -5.832 -7.736001 -8.8855 -8.1045 
-6.295 -7.291501 -6.948 -9.9475 -11.1363 -14.0753 -9.547001 -8.8295 -11.8734 -8.8855 
-8.4455 -8.736 -13.0528 -11.1363 -15.4961 -14.4418 -12.7487 -13.0595 -11.8734 
-3.0835 -4.64 -3.9675 -1.7695 -2.489 -12.16972 
-7.476001 -8.986501 -6.1355 -3.1405 -16.03912 
-12.2857 -10.7605 -7.449501 -16.89362 
-14.0597 -12.0745 -21.47742 
-15.3737 -26.10242 
-4.8215 -2.3615 -2.4265 -3.074 -4.0935 -5.1545 -2.5195 -1.4985 -3.9675 -1.7565 -3.0835 -4.449 0 
-6.504001 -5.3335 -4.605 -5.6755 -9.672001 -7.4065 -3.1695 -5.356501 -5.258 -5.237 -6.87 -4.449 
-8.085001 -7.563 -6.3935 -11.6126 -10.429 -8.1515 -6.7345 -5.832 -9.089001 -8.450001 -6.87 
-9.2895 -9.527 -12.494 -12.3696 -10.51 -11.9313 -7.8625 -9.536 -12.8486 -8.450001 
-11.3485 -15.6641 -13.251 -12.4506 -15.2194 -13.0593 -11.7003 -13.4968 -12.8486 
-2.8965 -3.1575 -2.3615 -2.4265 -4.5295 -3.0835 -4.969 -2.229 -3.9675 -3.074 
-4.4055 -5.4355 -5.3335 -7.58 -7.7905 -8.754001 -8.107 -6.094501 -7.188001 
-6.295 -7.291501 -10.76 -10.0995 -14.046 -12.312 -12.2815 -9.2425 
-8.4455 -12.9164 -13.2795 -16.871 -17.604 -16.4865 -15.4295 
-14.343 -15.4359 -20.051 -20.429 -21.7785 -19.6345 
