-4.759 
n/a 
n/a 
n/a 
n/a 
-4.759 
n/a 
n/a 
n/a 
n/a 
-4.759 
n/a 
n/a 
n/a 
n/a 
-4.759 
n/a 
n/a 
n/a 
n/a 
-6.557 -3.5855 -3.8435 -4.454 
-9.578 -6.891001 -8.062 
-13.7987 -12.1025 
-19.0102 
n/a 
-6.557 -3.5855 -4.109 -5.4345 
-9.578 -7.497001 -8.699501 
-14.4047 -13.0363 
-19.944 
n/a 
-5.1845 -5.74 -3.5855 -1.756 -3.8435 -3.7575 
-5.7465 -9.2215 -4.5585 -4.963 -7.4825 
-9.2255 -9.909 -7.507 -8.593 
-9.915501 -13.8009 -11.4074 
-13.8002 -17.7013 
-6.557 -3.1715 -3.8495 -2.0935 -3.5855 -1.756 -3.433 
-8.42 -6.1445 -5.291 -5.542 -4.5585 -4.5825 
-9.809 -7.5205 -6.991 -6.077 -5.0205 
-9.862 -8.469 -7.208 -6.572001 
-9.976 -8.774 -7.5695 
