-4.759 
n/a 
n/a 
n/a 
n/a 
-4.759 
n/a 
n/a 
n/a 
n/a 
-4.759 
n/a 
n/a 
n/a 
n/a 
-4.759 
n/a 
n/a 
n/a 
n/a 
-1.4985 -4.311 -4.5605 -2.9705 -2.8645 -7.892501 -4.744 -2.8645 -2.664 -4.015 -4.3415 -4.901 -2.229 -3.999 -1.7565 -1.4985 -3.4225 -4.0965 0 
-4.9505 -6.099501 -7.538 -4.6335 -10.8105 -11.5955 -7.7825 -4.7155 -4.926 -7.888 -6.210001 -7.0585 -6.0565 -4.5785 -2.4195 -3.9655 -4.2 -4.0965 
-6.4545 -8.732 -8.7325 -12.8842 -15.8378 -15.0784 -10.0255 -7.3135 -8.365 -10.0385 -8.684501 -11.3514 -6.478 -5.5625 -4.6245 -5.179 -4.2 
-8.802501 -10.2485 -17.1366 -17.5931 -19.0341 -17.3214 -12.6235 -10.0775 -10.4035 -12.513 -13.2364 -11.7729 -7.6775 -7.496 -6.037 -5.179 
-10.3215 -18.6526 -21.6527 -20.7894 -21.2771 -19.9194 -15.3875 -12.331 -12.878 -17.0649 -13.6579 -12.9724 -8.888 -9.0435 -6.037 
-1.4985 -5.847 -4.5605 -2.9705 -4.0935 -7.892501 -4.744 -2.7415 -5.1035 -4.887 -1.934 -1.4985 -3.4225 -4.0965 0 -2.4265 -3.7875 -1.8085 -4.2775 -3.355 -1.7565 -1.4985 -8.427501 -3.638 -3.8465 -4.231 0 
-7.42 -10.784 -7.538 -5.492001 -11.3545 -11.5955 -7.366001 -7.407001 -9.1555 -6.2085 -2.6125 -3.9655 -4.2 -4.0965 -2.4265 -6.494 -4.5035 -4.8285 -7.201 -3.725 -2.4195 -9.6295 -10.177 -7.833501 -8.236501 -4.231 
-12.9276 -13.7615 -10.3051 -13.2899 -16.32 -14.6619 -12.1913 -12.2902 -10.5045 -6.738 -4.464 -5.179 -4.2 -6.836501 -6.494 -7.3485 -7.198 -7.4545 -7.584 -4.0515 -10.674 -11.4104 -14.3725 -12.5279 -8.236501 
-15.9051 -16.5286 -18.2648 -17.9678 -19.0998 -19.4872 -17.0745 -13.6392 -11.034 -9.681 -5.5655 -5.179 -7.039001 -11.8138 -7.3485 -9.903 -10.2805 -7.709001 -7.7645 -12.5838 -12.4549 -15.6059 -19.0669 -12.5279 
-18.6722 -24.4883 -22.7809 -20.7476 -23.9251 -24.3704 -18.4235 -14.1687 -13.977 -10.436 -5.5655 -7.2075 -12.0969 -12.6683 -9.903 -13.0541 -10.6185 -7.8675 -16.5858 -14.3647 -16.6504 -20.3003 -19.0669 
-1.4985 -4.5605 -2.9705 -2.8645 -7.3725 -4.744 -2.674 -1.934 -9.8815 -4.3415 -3.519 -4.055 -1.934 -5.375 
-5.3925 -7.538 -4.6335 -11.84 -12.7111 -6.668001 -5.0615 -12.8219 -14.3452 -5.440001 -5.4475 -5.588 -8.422501 
-8.029501 -8.7325 -13.8716 -17.1786 -14.6351 -9.178 -16.7802 -17.2856 -15.4437 -6.2235 -6.573 -12.6091 
-9.168501 -17.9312 -19.2102 -19.1026 -17.1451 -21.0879 -21.2439 -18.3841 -16.2272 -7.0985 -14.0599 
-18.395 -23.2698 -21.1342 -21.6126 -29.055 -25.5516 -22.3424 -19.1676 -17.1022 -15.2408 
-3.4225 -4.0965 -3.7965 -4.9315 -3.519 -5.0235 -3.9485 -2.356 -7.892501 -4.5605 -4.744 0 
-4.2 -8.1 -8.716001 -7.119 -8.816 -8.7805 -4.311 -10.0275 -12.5885 -8.4565 -4.744 
-8.233 -13.3821 -11.2017 -13.1022 -12.8738 -8.956 -12.409 -15.9201 -16.7711 -8.4565 
-13.6723 -15.8678 -17.1849 -17.16 -13.0493 -17.5468 -18.1765 -19.8161 -16.7711 
-16.158 -21.851 -21.2427 -17.3355 -21.6401 -23.0559 -22.0725 -19.8161 
