-4.759 
n/a 
n/a 
n/a 
n/a 
-4.759 
n/a 
n/a 
n/a 
n/a 
-4.759 
n/a 
n/a 
n/a 
n/a 
-4.759 
n/a 
n/a 
n/a 
n/a 
-1.934 -3.6115 -3.188 -3.8275 -3.498 0 -5.2545 -2.229 -5.2055 -3.9665 -5.2725 -2.3345 -5.7565 -2.229 -3.704 -4.257 -3.9665 -2.5045 -4.176 -2.229 -3.9515 -4.6 0 
-5.603 -5.7875 -4.801 -7.671 -3.498 -5.2545 -6.009501 -7.348001 -9.163 -8.727001 -6.321 -7.389 -6.529 -5.8485 -6.3955 -7.689 -6.2225 -7.106 -6.807 -5.671 -8.058001 -4.6 
-8.39 -5.8365 -9.4405 -7.671 -8.959001 -6.009501 -8.091001 -11.8003 -14.2651 -10.276 -10.476 -8.062 -9.088 -8.347 -9.8675 -10.4185 -10.054 -9.604 -10.1225 -9.012 -8.058001 
-8.496 -9.818001 -9.4405 -13.507 -9.335501 -8.091001 -13.2711 -16.9024 -15.8141 -14.431 -11.149 -10.381 -9.171 -12.0062 -12.7298 -14.25 -13.9136 -13.1545 -13.7275 -9.012 
-12.5923 -9.818001 -15.5289 -13.8835 -11.774 -13.2711 -18.3732 -18.4514 -19.9691 -15.104 -13.468 -10.4 -13.0378 -14.8685 -16.5613 -18.1096 -17.4641 -16.7595 -13.7275 
-2.5045 -1.4985 -3.498 -1.7565 -3.6115 -3.188 -3.8275 0 -1.934 -5.511 -3.9515 -4.6 -7.101501 -4.744 -5.123 -2.356 -5.7565 -10.6255 
-3.1915 -4.0295 -4.005 -5.642 -5.7875 -4.801 -3.8275 -1.934 -8.498501 -10.468 -8.058001 -10.5535 -10.6215 -10.127 -7.8795 -7.505501 -17.3798 
-4.454 -4.188 -7.3475 -8.080001 -5.8365 -4.801 -5.2615 -8.498501 -13.7157 -14.5745 -14.3501 -14.0735 -16.0045 -12.8835 -13.5246 -19.5284 
-4.526 -7.75 -8.963 -8.132501 -5.8365 -7.075 -12.9104 -13.7157 -17.8222 -20.8666 -17.8701 -19.4565 -18.761 -18.5286 -25.5475 
-8.0865 -9.0515 -8.965501 -8.132501 -7.327001 -14.9615 -18.1276 -17.8222 -24.1143 -24.3866 -23.2531 -22.213 -24.4061 -30.5515 
-1.934 -1.4985 -3.498 -1.7565 -1.4985 -3.6115 -3.188 -3.8275 -5.7565 -2.229 -5.222 -3.9665 -5.2725 -5.2055 -3.9665 -1.934 -4.6 0 
-2.6125 -4.0295 -4.005 -2.4195 -4.081 -5.7875 -4.801 -8.394501 -6.529 -7.039001 -8.9215 -8.727001 -8.8695 -9.163 -5.47 -5.568501 -4.6 
-5.101 -4.188 -4.3765 -5.180501 -5.93 -5.8365 -9.302501 -9.291 -9.191501 -11.2931 -13.8298 -12.5422 -13.6128 -10.7345 -9.4905 -5.568501 
-6.413 -4.4925 -6.3655 -6.56 -5.9535 -9.488001 -10.3685 -12.0159 -13.5828 -16.2014 -17.645 -17.2855 -15.1843 -14.755 -9.4905 
-6.826 -6.419 -7.183001 -6.5775 -9.514501 -10.524 -13.0934 -16.4072 -18.4911 -20.0166 -22.3883 -18.857 -19.2048 -14.755 
-2.3345 -1.4985 -3.498 -1.7565 -3.6115 -3.188 -3.8275 0 -5.2545 -2.7415 -5.2725 -1.934 -4.6 -3.9515 -1.7565 -4.176 0 
-3.233 -4.0295 -4.005 -5.642 -5.7875 -4.801 -3.8275 -5.2545 -6.742001 -6.396 -6.51 -5.568501 -8.5185 -5.368 -5.79 -4.176 
-5.098 -4.188 -7.3475 -8.080001 -5.8365 -4.801 -8.1435 -6.742001 -9.229501 -7.1315 -10.7595 -9.452001 -8.941501 -9.167001 -5.79 
-5.1255 -7.75 -8.963 -8.132501 -5.8365 -8.951 -9.366 -9.229501 -10.443 -11.7212 -14.643 -9.513 -13.4317 -9.167001 
-8.354 -9.0515 -8.965501 -8.132501 -9.243501 -10.1905 -11.7993 -10.443 -15.0327 -15.6047 -14.704 -14.9624 -13.4317 
