-4.759 
n/a 
n/a 
n/a 
n/a 
-4.759 
n/a 
n/a 
n/a 
n/a 
-4.759 
n/a 
n/a 
n/a 
n/a 
-4.759 
n/a 
n/a 
n/a 
n/a 
-3.6215 -2.3615 -3.6135 -5.16 -3.0365 -2.4945 -3.7825 -3.535 -5.16 0 
-5.619 -6.1165 -8.0875 -8.1455 -3.688 -5.7115 -6.911 -7.989 -5.16 
-8.7005 -10.2695 -11.4152 -8.758 -5.8285 -8.423 -11.6688 -7.989 
-13.0389 -13.7542 -12.0277 -10.451 -8.578 -13.3612 -11.6688 
-16.5236 -14.3667 -13.7207 -13.2005 -13.5986 -13.3612 
-3.0365 -2.4945 -3.7825 -3.535 -6.066 -3.6215 -1.4985 -3.6135 -5.16 0 
-3.688 -5.7115 -6.911 -8.6905 -9.2925 -4.094 -4.4525 -8.0875 -5.16 
-5.8285 -8.423 -9.953501 -12.109 -9.561001 -7.247 -8.539001 -8.0875 
-8.578 -11.6459 -13.5548 -12.3775 -12.7322 -11.6841 -8.539001 
-11.8833 -15.2472 -13.8233 -15.5487 -17.1693 -11.6841 
-3.0365 -2.4945 -3.7825 -3.535 -6.066 -3.6215 -2.3615 -3.6135 -5.16 0 
-3.688 -5.7115 -6.911 -8.6905 -9.2925 -5.619 -6.1165 -8.0875 -5.16 
-5.8285 -8.423 -9.953501 -12.109 -11.562 -8.7005 -10.2695 -8.0875 
-8.578 -11.6459 -13.5548 -14.3785 -14.6435 -13.0389 -10.2695 
-11.8833 -15.2472 -15.8243 -17.46 -18.9819 -13.0389 
-2.3615 -4.6895 -2.186 -5.139 -2.3345 -2.543 -2.8965 -5.822001 
-7.956 -6.748 -6.0175 -5.2295 -5.61 -5.7795 -8.125 
-8.909 -11.1417 -6.06 -8.2845 -8.763 -11.4364 
-13.4587 -11.1842 -8.965501 -10.1635 -14.5719 
-13.5012 -14.0897 -10.9233 -15.9724 
