-4.759 
n/a 
n/a 
n/a 
n/a 
-4.759 
n/a 
n/a 
n/a 
n/a 
-4.759 
n/a 
n/a 
n/a 
n/a 
-4.759 
n/a 
n/a 
n/a 
n/a 
-9.000501 -6.864 -2.7415 -3.9205 -2.5045 -1.4985 -4.4745 -3.9225 -3.277 0 
-9.5325 -9.5625 -5.733 -4.449 -3.583 -4.774 -7.507501 -5.4525 -3.277 
-10.6895 -12.5886 -6.186501 -5.019001 -6.554 -7.962501 -8.801001 -5.4525 
-14.9298 -13.0421 -6.5985 -8.063001 -9.649 -8.873501 -8.801001 
-15.3833 -13.4541 -9.1885 -11.4006 -10.6625 -8.873501 
-1.4985 -3.17 -3.3235 -3.9205 -6.864 -2.186 -9.000501 -6.864 0 
-3.7115 -5.998 -4.8795 -11.8579 -9.234501 -12.3969 -9.5325 -6.864 
-6.2585 -6.273 -12.7799 -14.2284 -19.6174 -12.9289 -9.5325 
-6.4665 -14.4302 -15.1504 -24.6113 -20.1494 -12.9289 
-14.6319 -16.8007 -25.5333 -25.1433 -20.1494 
-3.458 -1.4985 -7.4885 0 -9.907001 -8.164001 -3.7905 -3.383 -4.4695 
-4.063 -8.1875 -7.4885 -9.907001 -18.2456 -12.4781 -6.03 -6.6995 
-9.9615 -8.1875 -18.0227 -18.2456 -22.5597 -14.7176 -8.515 
-9.9615 -19.1183 -26.3613 -22.5597 -24.7992 -17.2026 
-21.2811 -27.4569 -30.6754 -24.7992 -27.2842 
-3.9225 -3.277 -3.17 -3.6975 -2.7415 -9.000501 -6.864 
-5.4525 -6.322001 -4.1885 -7.594501 -13.1078 -9.5325 
-8.39 -8.1 -8.095 -18.2916 -13.6398 
-10.4265 -12.7615 -18.9491 -18.8236 
-15.088 -23.6156 -19.4811 
