-4.759 
n/a 
n/a 
n/a 
n/a 
-4.759 
n/a 
n/a 
n/a 
n/a 
-4.759 
n/a 
n/a 
n/a 
n/a 
-4.759 
n/a 
n/a 
n/a 
n/a 
-1.934 -1.4985 -3.8385 -1.7565 -5.447 -4.259 -3.0695 -2.4945 -4.648 -3.325 -1.4985 -3.4985 -1.7565 -3.757 -3.6055 -3.8145 -2.186 -4.7925 -3.222 -2.5645 -7.8075 -5.447 -4.259 -3.9035 0 
-2.6125 -4.778501 -4.716001 -9.6815 -9.9205 -6.8465 -4.2085 -6.1895 -6.455 -3.898 -4.798 -4.622 -5.584 -7.788 -7.191501 -5.84 -5.544001 -5.2095 -6.526 -9.3555 -13.6739 -9.9205 -9.807001 -3.9035 
-5.856501 -5.202 -13.4656 -14.4188 -12.508 -8.899 -7.1765 -8.4075 -7.2025 -5.8625 -5.425 -9.026501 -9.995001 -11.7612 -8.818501 -8.1905 -5.673501 -7.412 -13.9422 -15.3035 -18.1474 -15.4685 -9.807001 
-7.006001 -14.1942 -18.2029 -17.0063 -14.5605 -10.213 -9.0825 -8.877501 -9.874201 -5.8915 -9.226501 -13.5539 -13.9682 -13.3882 -10.7025 -8.259 -7.851 -15.343 -19.8902 -19.777 -23.6954 -15.4685 
-16.4336 -18.9315 -20.7904 -19.0588 -15.8745 -12.8156 -9.636001 -11.647 -9.9032 -9.318 -13.8433 -17.5271 -15.5952 -15.2722 -10.771 -10.159 -15.8842 -21.291 -24.3637 -25.325 -23.6954 

n/a 
n/a 
n/a 
n/a 
-3.345 -3.8145 -2.186 -4.7925 -3.222 -5.625 -3.1715 -4.373 -3.999 -3.7875 -2.871 -3.1715 -4.373 -2.5045 -1.4985 -3.8385 -4.648 -2.3345 -1.4985 -4.8935 -3.757 0 
-6.369 -5.84 -5.544001 -5.2095 -8.97 -8.8535 -7.189001 -8.3205 -8 -6.007 -6.0215 -7.189001 -6.8505 -3.583 -4.778501 -8.091001 -5.442 -3.233 -6.074 -10.348 -3.757 
-7.836501 -8.1905 -5.673501 -10.466 -13.78 -13.6648 -12.2291 -12.5137 -10.1305 -9.4005 -10.7656 -10.4425 -8.035001 -6.384 -10.523 -8.2755 -5.5955 -7.3155 -11.8633 -10.348 
-9.359 -8.259 -11.4198 -15.3104 -18.5533 -18.8923 -16.4223 -14.6442 -13.662 -14.3242 -14.0191 -11.627 -10.2535 -12.7717 -10.7075 -9.221001 -9.554501 -13.5628 -11.8633 
-9.432 -13.83 -15.8516 -19.9541 -23.5934 -23.0855 -18.5528 -18.1757 -18.5857 -17.5777 -15.2036 -13.8455 -16.908 -12.9562 -11.653 -13.5088 -16.357 -13.5628 
-3.5435 -3.757 -3.6845 -4.3165 -1.4985 -4.259 -4.0885 -2.5645 -1.7695 -3.0605 -4.259 -3.757 -2.871 -3.8145 0 
-7.043 -8.793501 -8.7025 -6.0215 -4.743 -9.1425 -7.8095 -4.932 -5.446 -8.103001 -7.739501 -7.123 -6.8075 -3.8145 
-12.4971 -14.0571 -9.5655 -10.389 -10.341 -13.2219 -9.894 -7.2815 -10.9861 -11.6977 -11.3395 -10.76 -6.8075 
-17.7607 -14.9201 -14.8938 -15.987 -14.8422 -15.3064 -12.3803 -13.273 -14.5808 -15.2977 -14.9765 -10.76 
-18.6237 -20.2484 -20.4918 -20.4882 -16.9267 -17.7927 -18.3718 -16.8677 -18.1808 -18.9347 -14.9765 
