-4.759 
n/a 
n/a 
n/a 
n/a 
-4.759 
n/a 
n/a 
n/a 
n/a 
-4.759 
n/a 
n/a 
n/a 
n/a 
-4.759 
n/a 
n/a 
n/a 
n/a 
-8.164001 -2.186 -2.871 -1.7565 -1.4985 -3.54 -6.195 -3.0695 -3.84 -6.557 
-10.419 -4.247 -3.5385 -2.4195 -4.529 -8.132501 -8.004001 -7.030001 -11.08 
-12.48 -4.411 -3.7675 -5.1905 -8.3465 -10.082 -12.2711 -15.0272 
-12.644 -4.5655 -5.985 -8.734501 -10.5225 -14.4457 -20.2683 
-12.7985 -6.9535 -10.586 -11.0295 -14.8862 -22.4429 
-12.16972 -2.4945 -3.849 -9.9215 -1.756 -2.925 -2.4945 -7.8005 -1.934 -6.557 
-14.66422 -5.410501 -13.9311 -12.0081 -4.2585 -3.7675 -11.7232 -10.2435 -7.536 
-17.58022 -15.7862 -16.0177 -14.5106 -5.16 -13.2216 -14.1662 -15.8455 
-27.95592 -17.8728 -18.5202 -15.4121 -14.9093 -15.6646 -19.7682 
-30.04252 -20.3753 -19.4217 -25.1614 -17.3523 -21.2666 
-1.4985 -7.4885 -3.152 -1.8085 -3.2795 -1.7565 -5.6655 -1.756 -2.871 -1.7565 -1.4985 -3.54 -4.4695 -3.2795 -1.7565 -5.6655 0 -3.0695 -5.1605 -4.5735 -5.1845 -5.74 0 
-8.1875 -9.4565 -4.9525 -4.5305 -4.4575 -7.101 -6.7545 -4.514 -3.5385 -2.4195 -4.529 -7.673 -7.938 -4.4575 -7.101 -5.6655 -3.0695 -6.829 -8.958 -8.3575 -5.7465 -5.74 
-9.573 -11.3762 -7.279 -4.854 -9.375501 -8.0835 -9.744 -5.218 -3.7675 -5.1905 -8.389 -11.3865 -8.342501 -9.375501 -7.101 -7.4495 -6.829 -9.68 -13.4222 -9.935 -5.7465 
-11.4971 -13.7027 -7.355 -9.922501 -10.486 -11.2786 -10.392 -5.4685 -5.985 -8.7755 -12.1913 -11.791 -13.5749 -9.375501 -8.7345 -9.3655 -9.68 -14.3138 -14.9997 -9.935 
-13.8236 -13.7787 -12.6781 -11.033 -13.6811 -11.9266 -10.5285 -7.805501 -9.040501 -12.6546 -12.5958 -17.0234 -13.5749 -10.3825 -10.7117 -12.4167 -14.3138 -15.8913 -14.9997 
-6.864 -2.186 -2.871 -1.7565 -1.4985 -3.54 -4.6805 -1.934 -10.9935 -3.59 
-9.234501 -4.247 -3.5385 -2.4195 -4.529 -6.573 -6.663 -13.9339 -14.5835 
-11.4675 -4.411 -3.7675 -5.1905 -7.3195 -8.410001 -19.2931 -17.5239 
-11.6315 -4.5655 -5.985 -7.852001 -8.8865 -21.3567 -22.8831 
-11.786 -6.9535 -8.9265 -9.236001 -21.9388 -24.9467 
