-4.759 
n/a 
n/a 
n/a 
n/a 
-4.759 
n/a 
n/a 
n/a 
n/a 
-4.759 
n/a 
n/a 
n/a 
n/a 
-4.759 
n/a 
n/a 
n/a 
n/a 
-4.999 -2.186 -3.691 -2.229 -3.9655 -3.4075 -4.1215 0 
-7.404 -6.444 -5.0855 -5.9895 -7.763 -6.537001 -4.1215 
-9.927501 -6.529 -8.549001 -9.3745 -9.894 -6.537001 
-9.9315 -11.0843 -10.674 -10.7345 -9.894 
-15.3214 -13.2093 -12.034 -10.7345 
-4.654 -4.2725 -2.186 -1.4985 -3.691 -2.229 -3.4075 -3.5065 -1.7565 -9.0205 
-8.932501 -6.3955 -3.339 -5.8135 -5.0855 -5.1175 -7.143001 -5.1305 -11.08 
-11.2523 -7.3915 -7.5725 -7.4235 -6.638 -8.566501 -8.324 -15.4876 
-12.2483 -12.186 -9.2355 -9.279 -9.3585 -10.064 -19.2047 
-17.0428 -13.849 -11.5364 -12.1737 -10.9488 -21.2199 
-4.999 -2.186 -1.4985 -3.9655 -3.4075 -3.5065 -1.7565 -3.691 
-7.404 -3.339 -4.8585 -7.763 -7.143001 -5.1305 -4.930501 
-8.08 -7.3995 -8.609501 -12.0285 -8.324 -9.525001 
-13.0803 -11.3313 -13.0022 -13.2095 -9.856501 
-17.0121 -15.724 -14.1832 -14.742 
-4.2085 -3.9655 -3.4075 -3.5065 -2.186 -12.16972 0 
-8.223001 -7.763 -7.143001 -5.196 -15.56612 -12.16972 
-12.4275 -12.0285 -8.959001 -19.03972 -15.56612 
-16.693 -13.8445 -23.03872 -19.03972 
-18.509 -27.92422 -23.03872 
