-4.759 
n/a 
n/a 
n/a 
n/a 
-4.759 
n/a 
n/a 
n/a 
n/a 
-4.759 
n/a 
n/a 
n/a 
n/a 
-4.759 
n/a 
n/a 
n/a 
n/a 
-2.925 -2.4945 -6.262001 0 -5.003 -5.891 -4.9225 0 
-3.7675 -9.316 -5.742001 -5.003 -10.2435 -9.614 -4.9225 
-11.469 -9.7215 -12.0892 -10.2435 -14.1469 -9.614 
-11.5352 -16.2789 -17.8855 -14.1469 -14.1469 
-18.0926 -22.0752 -21.7889 -14.1469 
-1.934 -2.3615 -6.262001 0 -2.4945 -4.0955 -3.1385 
-3.539 -9.0795 -5.742001 -2.4945 -6.987 -7.1025 
-11.9465 -10.1035 -9.803 -6.987 -9.216001 
-12.3115 -14.1645 -14.1966 -9.216001 
-16.3725 -18.5581 -16.4256 
-6.262001 0 -1.7565 -3.277 -2.4945 -5.003 0 
-5.742001 -1.7565 -4.25 -5.237 -6.7795 -5.003 
-8.189 -4.25 -5.3725 -8.870001 -6.7795 
-10.476 -5.3725 -8.910001 -8.870001 
-11.6295 -8.910001 -8.910001 
-3.9225 -3.277 -6.262001 0 -2.4945 -5.003 
-5.4525 -10.0005 -5.742001 -2.4945 -6.7795 
-11.7185 -10.2235 -9.803 -6.7795 
-11.7185 -14.4311 -14.0091 
-15.9261 -18.6372 
