-4.759 
n/a 
n/a 
n/a 
n/a 
-4.759 
n/a 
n/a 
n/a 
n/a 
-4.759 
n/a 
n/a 
n/a 
n/a 
-4.759 
n/a 
n/a 
n/a 
n/a 
-3.5455 -1.4985 -3.8405 0 -5.7675 -1.7695 -5.883 -1.7565 -3.9725 -7.443 -3.8405 -3.251 -3.7905 -4.36 -3.8405 -2.0935 -6.923 -5.8895 -4.677 -1.756 -2.0935 -6.3215 0 
-3.91 -4.7545 -3.8405 -5.7675 -8.364 -8.568001 -8.826 -5.669 -9.729501 -11.9845 -7.032001 -5.5965 -8.428 -7.8435 -5.434 -9.545 -8.774 -8.31 -6.0955 -4.3175 -8.693501 -6.3215 
-5.4455 -4.7545 -9.8485 -8.364 -10.718 -10.6875 -12.8223 -10.7595 -14.9964 -15.176 -9.352 -10.089 -12.3427 -8.6365 -13.4703 -10.662 -8.906501 -9.737 -8.7655 -11.4599 -8.693501 
-5.4455 -10.3345 -12.5218 -10.718 -12.8375 -14.6838 -17.9128 -16.0264 -18.1879 -17.496 -13.9327 -14.1689 -13.1357 -16.973 -14.5873 -10.774 -10.3685 -12.4782 -16.1903 -11.4599 
-11.3363 -13.0078 -14.8758 -12.8375 -16.8338 -19.7743 -23.1797 -19.2179 -20.5079 -22.0767 -18.0126 -14.9619 -21.4722 -18.09 -14.6993 -12.236 -13.1097 -19.903 -16.1903 
-3.5455 -2.985 -3.8405 -2.5195 -5.7675 -1.7695 -5.883 0 -1.4985 -4.947 -1.7565 -3.9725 -7.443 -2.186 -4.1205 -2.5045 -4.36 -3.8405 -2.0935 -6.923 -5.8895 -4.677 -1.756 -3.074 -2.0935 -6.3215 0 
-5.4465 -7.0805 -5.6585 -8.516001 -8.364 -8.568001 -5.883 -1.4985 -5.933001 -6.2515 -5.669 -9.729501 -9.828001 -5.007 -5.3175 -7.278501 -7.8435 -5.434 -9.545 -8.774 -8.31 -6.0955 -4.566 -5.4025 -8.693501 -6.3215 
-7.716501 -9.9615 -12.6962 -9.057501 -10.718 -8.568001 -7.995501 -5.933001 -6.849 -9.0935 -10.7595 -12.8399 -12.6708 -6.317 -10.1855 -10.564 -8.6365 -13.4703 -10.662 -8.906501 -9.737 -8.738501 -6.212501 -12.2819 -8.693501 
-11.2361 -17.1944 -13.2377 -11.6101 -10.718 -9.673 -12.7294 -6.849 -9.378 -14.5072 -13.8699 -15.6827 -13.9808 -11.5392 -13.471 -11.357 -16.973 -14.5873 -10.774 -10.3685 -12.4512 -10.586 -13.1895 -12.2819 
-18.469 -17.7359 -15.7903 -11.6101 -11.823 -14.5743 -13.6454 -9.378 -14.8189 -17.6176 -16.7127 -16.9927 -19.203 -14.8247 -14.264 -19.6935 -18.09 -14.6993 -12.236 -13.0827 -14.2987 -17.563 -13.1895 
-3.291 -1.4985 -8.013 -4.5055 -9.314501 -2.5195 -17.93722 -2.264 -4.3315 -5.975 -2.9905 -1.4985 -6.864 -4.6825 -8.873 -4.1025 -3.251 -6.2605 -1.934 -2.664 -4.253 -8.013 -3.8275 -1.7565 -5.3775 -1.756 -5.2725 -1.8085 -5.612 -1.7565 -8.013 -5.765 0 
-5.535501 -9.7845 -11.0145 -10.9575 -12.6582 -21.32732 -20.84282 -7.291 -8.4145 -6.647 -4.143 -7.8675 -8.668501 -11.0145 -10.958 -7.501 -7.896501 -7.521 -4.0475 -5.4265 -11.046 -11.046 -5.4695 -6.622001 -6.717 -6.772 -7.048 -7.007 -5.912001 -10.051 -10.985 -5.765 
-13.9899 -12.9752 -17.4665 -14.3012 -31.98942 -24.11472 -25.86982 -10.5325 -8.8415 -7.192 -10.5325 -8.918501 -15.2717 -13.0995 -14.3565 -12.2303 -8.786 -9.5585 -6.23 -12.8921 -14.079 -12.688 -8.2345 -7.883501 -12.3254 -8.284 -10.3745 -7.1475 -15.7045 -13.3072 -10.985 
-17.1806 -19.4272 -20.8102 -33.63242 -34.25342 -29.14172 -29.11132 -10.7765 -9.2075 -14.0337 -11.5835 -15.6221 -17.3567 -16.498 -19.0858 -13.1198 -10.4945 -11.8518 -14.1324 -15.9251 -15.721 -15.453 -9.387 -13.6361 -13.8374 -10.76 -10.4005 -17.3286 -18.9607 -13.3072 
-23.6326 -22.7709 -40.14142 -35.89642 -39.28042 -32.38322 -29.35532 -11.1425 -16.143 -15.0847 -18.2871 -17.7071 -20.7552 -21.2273 -19.9753 -14.8283 -12.7878 -19.7542 -17.1654 -17.5671 -18.486 -16.6055 -15.271 -15.1481 -16.3134 -10.7655 -20.5816 -20.5848 -18.9607 
-1.934 -2.985 -4.1 0 -1.4985 -4.1 -1.7565 -7.443 -2.5195 -1.4985 -3.158 -5.7675 -1.7695 -5.883 -2.7415 -1.8085 -4.36 -3.8405 -2.0935 -6.923 -5.8895 -4.677 -1.756 -6.3215 0 
-4.111 -7.1315 -4.1 -1.4985 -5.0695 -5.164001 -9.262501 -10.504 -3.1695 -4.178 -9.029501 -8.364 -8.568001 -9.024 -3.891 -5.7995 -7.8435 -5.434 -9.545 -8.774 -8.31 -6.0955 -8.437 -6.3215 
-8.569 -7.1315 -5.5905 -5.0695 -5.5715 -13.7288 -12.4681 -11.154 -6.3945 -9.112 -10.348 -10.718 -11.957 -9.781501 -7.4965 -8.48 -8.6365 -13.4703 -10.662 -8.906501 -9.737 -10.4185 -8.437 
-8.569 -8.442 -7.4595 -5.5715 -14.4351 -16.9344 -13.1181 -14.379 -10.298 -10.348 -13.2032 -14.107 -12.7145 -13.5112 -9.344501 -9.084001 -16.973 -14.5873 -10.774 -10.3685 -14.1312 -10.4185 
-10.0445 -10.6735 -8.8325 -14.4351 -17.6407 -17.5844 -16.3431 -18.2825 -10.469 -13.2032 -16.5922 -14.8645 -16.4442 -15.3592 -9.853001 -17.5185 -18.09 -14.6993 -12.236 -14.7627 -14.1312 
