-4.759 
n/a 
n/a 
n/a 
n/a 
-4.759 
n/a 
n/a 
n/a 
n/a 
-4.759 
n/a 
n/a 
n/a 
n/a 
-4.759 
n/a 
n/a 
n/a 
n/a 
-4.7475 -3.17 -1.7565 -1.4985 -5.1845 -6.539001 -3.711 -4.7115 -2.3335 -4.064 -1.7565 -3.3425 -2.8965 -4.2915 0 -3.644 -1.7695 -2.9645 -4.6705 -5.1845 -4.1395 -1.7695 -3.7085 -5.1845 -5.279 0 
-7.552501 -4.179 -2.4195 -6.5205 -13.0179 -10.1855 -8.1785 -5.0065 -6.046 -4.3045 -5.0385 -6.166 -5.294 -4.2915 -3.644 -5.207 -3.812 -7.219501 -10.3105 -9.258501 -4.927 -4.19 -10.2135 -11.7579 -5.279 
-8.082001 -4.497 -7.2335 -15.0693 -16.6644 -14.653 -8.325001 -8.205501 -6.1565 -6.017 -7.8325 -8.4455 -5.294 -8.451 -5.207 -6.5565 -7.7485 -13.2821 -14.3845 -10.1298 -8.562 -10.4505 -16.7869 -11.7579 
-8.243 -9.278501 -15.9495 -18.7158 -21.1319 -14.7995 -11.564 -8.297 -7.6965 -8.8905 -10.081 -8.4455 -9.657001 -10.504 -6.5565 -10.7308 -14.0577 -17.3561 -15.2558 -13.7648 -15.1927 -17.0239 -16.7869 
-13.0699 -18.0931 -19.596 -23.1833 -21.2784 -18.0385 -11.6555 -9.9665 -10.6626 -11.2604 -10.081 -13.2507 -11.734 -11.8535 -10.7308 -17.04 -18.1317 -18.2274 -18.8908 -20.3955 -21.7661 -17.0239 
-2.5045 -1.8085 -3.777 0 -3.3715 -3.8225 -5.1845 -4.8755 -3.9765 -2.4265 -3.1425 -2.489 -3.644 -1.7695 -2.9645 -3.9355 -3.8755 -2.5195 -5.1845 -4.238 -3.9355 -2.3335 -2.4945 -4.521 -1.7695 -4.051 -3.9355 0 
-3.3625 -4.3955 -3.777 -3.3715 -6.435 -9.6225 -9.226 -7.748 -5.083 -4.211 -3.7875 -5.0815 -5.207 -3.812 -6.5865 -7.9945 -5.837501 -7.594501 -10.7335 -6.805 -5.5505 -3.947 -6.144 -5.107 -5.7285 -6.9415 -3.9355 
-4.4445 -4.3955 -6.631001 -6.435 -12.8826 -13.6988 -12.3219 -9.061001 -6.7955 -4.546 -5.685 -6.0955 -6.5565 -7.2415 -11.6277 -9.627 -11.4867 -13.6425 -13.3005 -9.151501 -6.431 -7.345 -6.54 -9.391001 -9.243501 -6.9415 
-4.4445 -6.66 -10.082 -12.8826 -16.9589 -16.7947 -13.6349 -10.3045 -7.0395 -6.1385 -6.4275 -7.262001 -9.7165 -12.4209 -13.2602 -15.2608 -17.5347 -16.2095 -15.647 -10.0075 -9.9505 -7.461 -10.7495 -13.0406 -9.243501 
-6.6625 -10.0925 -16.5296 -16.9589 -20.0548 -18.1077 -14.8784 -10.5485 -8.497001 -6.47 -7.659 -10.328 -15.1167 -14.0534 -18.894 -21.3088 -20.1017 -18.556 -16.503 -13.527 -10.2475 -11.9833 -14.3991 -13.0406 
-3.0415 0 -2.4265 -2.186 -1.4985 -4.9955 -1.7565 -1.4985 -5.1845 -5.2685 -2.3335 -2.7295 -2.9645 -4.521 -3.9355 -1.7695 -2.8965 -3.6885 -2.5195 -5.1845 -4.179 0 
-3.0415 -2.4265 -3.292 -3.339 -5.567 -5.5465 -2.4195 -6.5205 -10.382 -7.931001 -4.056 -4.8405 -8.035501 -8.267 -5.513 -4.497 -6.119 -6.2775 -7.594501 -10.147 -4.179 
-4.551 -3.292 -4.5995 -6.781 -5.8075 -6.2575 -7.2335 -12.4334 -13.0445 -9.795501 -6.188001 -9.7995 -10.5975 -9.6385 -8.4565 -8.0795 -9.1195 -11.9027 -13.056 -10.147 
-5.318 -4.5995 -6.885 -6.918 -6.3465 -11.6541 -13.3136 -15.0959 -14.909 -12.0397 -11.6048 -12.3615 -11.969 -12.8318 -12.6102 -11.3744 -14.7819 -17.3642 -13.056 
-7.0425 -6.885 -6.972 -7.141 -11.8027 -17.7342 -15.9761 -16.9604 -17.1532 -17.4565 -14.1668 -13.733 -15.1623 -16.9855 -15.9051 -17.0368 -20.2434 -17.3642 
-3.0415 -2.3335 -3.135 -1.7565 -5.1845 -4.168 -3.1385 -4.4955 0 -3.8755 -1.4985 -1.4985 -4.225 -4.59 -1.7565 -5.1845 -3.9355 -2.0935 -2.8965 -4.2915 -3.9355 
-4.132 -4.88 -3.9195 -6.580501 -10.841 -8.247 -7.5065 -4.4955 -3.8755 -5.275 -4.935 -4.7995 -9.553 -8.117001 -6.580501 -8.764 -5.6875 -4.726501 -5.294 -7.7655 
-6.9125 -5.513 -10.287 -13.08 -14.92 -12.89 -7.5065 -9.2425 -5.275 -8.557 -8.3625 -10.3475 -12.8598 -13.1724 -9.76 -10.204 -8.765 -7.142 -9.536501 
-7.5895 -12.3965 -16.7759 -17.159 -19.563 -12.89 -12.4997 -10.534 -8.557 -12.0717 -13.9821 -13.6543 -17.9152 -16.3519 -11.2942 -13.2815 -10.01 -12.0407 
-14.6908 -18.8854 -20.8549 -21.802 -19.563 -17.8832 -13.7912 -13.816 -12.0717 -17.6913 -17.2889 -18.7097 -21.0947 -17.8861 -14.3717 -14.5265 -15.3681 
