-4.759 
n/a 
n/a 
n/a 
n/a 
-4.759 
n/a 
n/a 
n/a 
n/a 
-4.759 
n/a 
n/a 
n/a 
n/a 
-4.759 
n/a 
n/a 
n/a 
n/a 
-3.8735 -2.186 -1.8085 -3.355 -1.7565 -1.4985 -3.237 -3.4635 -3.959 -3.2795 -1.756 -2.4265 -2.186 -2.664 -5.0265 -3.59 -4.5675 -2.356 -1.4985 -4.1805 -3.59 0 
-5.949 -3.164 -4.6195 -3.725 -2.4195 -4.1875 -7.7705 -7.536501 -7.8975 -4.9795 -3.949 -3.292 -3.8555 -6.953 -8.3815 -7.535 -6.5465 -3.1615 -4.733 -8.522 -3.59 
-6.8155 -5.552 -4.725 -4.0515 -5.078001 -8.088501 -12.3229 -12.2796 -9.6595 -7.149 -4.7355 -5.11 -8.2735 -8.8145 -12.6497 -10.4345 -7.5035 -6.419001 -8.955 -8.522 
-8.9945 -5.599 -5.0485 -6.693501 -9.254001 -13.0391 -17.066 -14.0416 -11.9406 -7.8415 -6.6605 -9.901001 -10.5864 -13.1859 -15.5492 -11.5545 -10.7595 -10.3675 -8.955 
-9.017 -5.804 -7.6985 -11.3291 -14.288 -17.7822 -18.828 -16.3227 -12.6331 -9.679001 -11.7499 -12.0769 -14.9578 -16.0854 -16.6692 -14.8105 -14.708 -10.3675 
-3.8735 -2.186 -1.8085 -3.4185 -1.7565 -4.241 -4.4165 -4.39 -3.254 -1.756 -2.4265 -3.4405 -2.6165 -4.9395 -1.7695 -2.9995 -3.2795 
-5.949 -3.164 -4.1435 -4.2475 -5.321 -6.8265 -9.404 -8.124001 -5.103 -3.949 -4.5365 -3.7415 -6.0595 -5.127501 -4.358 -6.106 
-6.8155 -5.1045 -4.5105 -8.441 -8.045 -10.4425 -13.4588 -9.943001 -6.996 -5.9215 -4.8645 -6.3685 -6.2265 -6.713 -7.162 
-8.769501 -5.159 -8.578501 -11.749 -11.8184 -14.4973 -15.2778 -11.9262 -9.037001 -6.263 -7.319 -6.5195 -6.9375 -8.460501 
-8.903501 -9.646 -12.0859 -15.5224 -15.8732 -16.3163 -17.261 -13.9672 -9.316001 -8.919001 -7.523 -7.123001 -8.735001 
-3.8735 -2.186 -1.4985 -3.4185 -1.7565 -3.8225 -4.6555 -3.959 -1.756 -2.4265 -2.186 -1.4985 -4.129 -3.4185 -1.7565 -12.16972 
-5.949 -3.339 -5.019 -4.2475 -5.142 -7.008 -8.9445 -5.173 -3.949 -3.292 -3.339 -5.424 -6.6455 -4.2475 -14.87542 
-7.04 -7.1445 -6.382501 -8.856 -8.595 -9.324 -10.2185 -7.307 -4.7355 -4.5995 -6.7085 -9.9475 -9.303501 -18.17902 
-11.3619 -7.680501 -10.6595 -12.815 -10.4675 -10.719 -12.3525 -7.8245 -6.074 -8.001 -11.9142 -10.4145 -23.54422 
-11.8979 -11.8739 -15.1907 -14.6875 -11.8625 -12.853 -12.87 -9.160501 -9.279 -13.7659 -12.3812 -24.55022 
-3.8735 -3.564 -4.5735 -3.959 -3.515 -2.871 -3.32 -3.59 -1.756 -3.5645 -3.515 -3.59 -2.4945 -1.4985 -4.129 -3.959 0 
-7.48 -5.74 -9.2115 -7.505 -6.6585 -6.3585 -8.271 -5.017 -4.7635 -7.886001 -7.386001 -5.948 -3.9315 -5.424 -9.752001 -3.959 
-9.9205 -9.6485 -12.9699 -12.0889 -10.66 -11.8455 -10.459 -8.7985 -9.242001 -12.2484 -10.4185 -7.5975 -7.422 -10.702 -9.752001 
-13.9652 -13.6501 -17.5538 -16.0904 -16.147 -14.0335 -14.2405 -13.6508 -13.7868 -15.2809 -12.4666 -11.2492 -13.4036 -10.702 
-17.9668 -18.234 -21.5553 -21.5774 -18.335 -17.815 -19.0928 -18.1956 -16.8193 -17.329 -16.1183 -17.2308 -13.4036 
