-4.759 
n/a 
n/a 
n/a 
n/a 
-4.759 
n/a 
n/a 
n/a 
n/a 
-4.759 
n/a 
n/a 
n/a 
n/a 
-4.759 
n/a 
n/a 
n/a 
n/a 
-6.1555 -3.618 -3.676 -4.698 -3.618 -2.229 -3.915 -3.4605 
-9.451501 -7.752501 -9.474501 -8.458501 -5.7365 -5.349 -5.1545 
-14.7662 -15.0432 -13.3108 -10.9234 -8.3725 -6.211 
-22.0569 -18.8795 -15.7757 -13.5594 -9.597501 
-25.8932 -21.3444 -18.4117 -14.7844 
-4.698 -3.618 -2.186 -3.676 -4.698 -3.618 -4.584 -3.873 
-8.458501 -5.4505 -6.1435 -9.474501 -8.458501 -9.214001 -9.219 
-10.419 -10.2235 -13.0452 -13.3108 -14.4009 -13.9174 
-15.192 -18.0062 -16.8815 -19.2532 -19.1043 
-22.9747 -21.8425 -22.8239 -23.9566 
-4.698 -3.618 -2.186 -3.676 -2.229 -3.915 -4.698 -3.618 -3.4605 
-8.458501 -5.4505 -6.1435 -4.593 -5.349 -9.1295 -8.458501 -6.4335 
-10.419 -10.2235 -6.430501 -8.179001 -10.543 -13.1298 -11.6204 
-15.192 -10.252 -9.495501 -13.7304 -14.5433 -16.2917 
-15.2205 -13.4562 -15.3521 -17.7307 -17.7052 
-4.698 -3.618 -2.186 -1.4985 -4.494 -3.618 -2.0935 -1.4985 -3.4975 -4.698 0 
-8.458501 -5.4505 -3.339 -5.902 -8.365001 -5.4245 -2.9725 -4.3125 -8.073 -4.698 
-10.419 -6.761001 -7.3265 -9.915501 -10.164 -6.278 -5.8615 -9.745001 -8.073 
-11.7295 -11.4783 -11.995 -11.8209 -11.2203 -9.790001 -11.5934 -9.745001 
-16.4468 -16.1468 -13.9004 -12.8772 -14.7323 -15.6515 -11.5934 
