-4.759 
n/a 
n/a 
n/a 
n/a 
-4.759 
n/a 
n/a 
n/a 
n/a 
-4.759 
n/a 
n/a 
n/a 
n/a 
-4.759 
n/a 
n/a 
n/a 
n/a 
-3.845 0 -3.948 -3.594 -4.51 
-3.845 -3.948 -7.2805 -8.1875 
-7.3485 -7.2805 -12.6778 
-11.985 -12.6778 
-17.3823 
-3.999 0 -3.6065 -3.9755 -1.7565 -3.594 -3.759 
-3.999 -3.6065 -5.153 -4.312 -4.791 -6.1355 
-9.030001 -5.153 -5.1935 -7.558 -7.4345 
-10.355 -5.1935 -8.1595 -10.6287 
-10.366 -8.1595 -11.5138 
-4.4675 0 -3.3715 -3.319 -1.7565 -3.594 0 
-4.4675 -3.3715 -7.602501 -4.165 -4.791 -3.594 
-8.534 -7.602501 -7.992501 -7.456501 -4.791 
-12.91 -7.992501 -11.4636 -7.456501 
-13.3 -11.4636 -11.4636 
-3.999 0 -4.0725 -3.7865 -3.618 
-3.999 -4.0725 -7.627501 -6.696 
-8.153 -7.627501 -11.3018 
-12.3978 -11.3018 
-16.0721 
