-4.759 
n/a 
n/a 
n/a 
n/a 
-4.759 
n/a 
n/a 
n/a 
n/a 
-4.759 
n/a 
n/a 
n/a 
n/a 
-4.759 
n/a 
n/a 
n/a 
n/a 
-3.915 -3.4605 -1.7565 -3.757 -1.7565 -3.8735 
-5.1545 -5.245501 -5.584 -4.5665 -5.112 
-5.7 -9.2005 -6.9095 -7.1095 
-9.429501 -9.714001 -8.536 
-9.8035 -11.5575 
-3.915 -3.4605 -1.7565 -3.757 -1.7565 -3.8735 
-5.1545 -5.245501 -5.584 -4.5665 -5.112 
-5.7 -9.2005 -6.9095 -7.1095 
-9.429501 -9.714001 -8.536 
-9.8035 -11.5575 
-4.1865 -3.757 -3.915 -3.4605 
-7.5595 -8.18 -5.1545 
-12.6589 -9.6595 
-14.1384 
n/a 
-3.915 -3.4605 -1.7565 -4.1865 -3.757 0 
-5.1545 -5.245501 -5.463 -7.5595 -3.757 
-5.7 -8.491501 -9.582001 -7.5595 
-8.578501 -13.3529 -9.582001 
-13.8269 -13.3529 
