-4.759 
n/a 
n/a 
n/a 
n/a 
-4.759 
n/a 
n/a 
n/a 
n/a 
-4.759 
n/a 
n/a 
n/a 
n/a 
-4.759 
n/a 
n/a 
n/a 
n/a 
-5.1845 -6.844 -4.891 -1.756 -8.469001 -4.628 -4.743 -3.5435 -1.7695 -3.0785 -1.934 -3.522 -4.0395 -1.4985 -3.8275 -3.8675 -2.186 -4.0225 -1.7695 -3.88 0 
-6.9655 -9.699 -6.593 -11.2336 -13.8848 -4.7515 -7.819 -5.157001 -3.9555 -5.132 -5.0285 -8.995501 -6.023 -4.726 -8.989 -5.4765 -5.1295 -4.9235 -6.765501 -3.88 
-10.2535 -11.852 -16.7588 -16.6494 -14.0083 -7.830501 -9.0605 -7.005 -6.0075 -9.284 -10.3475 -10.7994 -9.0135 -10.389 -10.735 -9.243501 -5.8335 -10.622 -6.765501 
-12.4065 -22.0178 -22.1746 -16.7729 -17.0873 -9.068501 -10.9611 -8.984501 -10.2485 -14.6614 -12.1514 -13.7899 -15.2183 -12.135 -14.502 -9.8015 -11.965 -10.622 
-22.5723 -27.4336 -22.2981 -19.8519 -18.3253 -10.9687 -12.9406 -13.2949 -15.6259 -16.4653 -15.1419 -19.9947 -16.9643 -15.902 -15.06 -16.7016 -11.965 
-1.4985 -3.3985 -3.522 -6.1495 -5.2035 -5.9985 -2.3345 -1.4985 -4.4925 -3.5435 -3.458 -1.4985 -5.3745 -4.891 -1.7565 -5.1845 -6.844 -1.756 -1.4985 -4.628 -5.939 -3.5435 -4.066 -3.222 -3.9665 
-5.436 -5.6165 -8.434 -8.764501 -8.879001 -6.3615 -3.233 -6.922501 -8.4235 -7.537001 -4.063 -6.2355 -7.061501 -6.8725 -6.580501 -6.9655 -8.4585 -3.0405 -6.298 -5.9615 -7.053 -7.487 -5.776 -5.515 
-7.680501 -10.9523 -10.757 -12.6692 -9.009501 -7.642 -9.025001 -9.677 -12.8162 -8.214001 -8.717001 -7.2945 -7.1715 -7.181 -7.1625 -8.5825 -9.158501 -7.811501 -6.5895 -7.0565 -11.6391 -8.7405 -6.636 
-13.4799 -13.2753 -14.6617 -12.7997 -9.5605 -13.9054 -10.4765 -14.0875 -13.4932 -13.096 -8.950001 -7.3705 -7.185 -7.202001 -8.790001 -9.227 -9.911 -8.086 -7.161001 -11.6448 -12.8926 -10.341 
-15.8029 -17.18 -14.7922 -13.3507 -16.0055 -15.3569 -14.887 -14.7645 -18.3752 -13.329 -9.066501 -7.3795 -7.2055 -8.8795 -9.2805 -9.923 -9.999001 -8.539001 -11.9441 -12.8983 -14.4931 
-1.934 -3.3985 -3.522 -5.3745 -4.891 -1.7565 -5.1845 -6.844 -4.0555 -3.222 -4.241 -3.8675 -2.356 -1.4985 -3.0785 -1.7565 -9.165 -3.5435 0 
-4.924 -5.6165 -9.268001 -7.061501 -6.8725 -6.580501 -6.9655 -10.4945 -5.5095 -7.5395 -6.448501 -5.006 -3.1615 -4.779 -5.1815 -11.1415 -13.2253 -3.5435 
-6.7025 -11.7863 -11.2434 -7.1715 -7.181 -7.1625 -10.7025 -11.9485 -10.7025 -10.7565 -7.566501 -5.546 -5.297501 -5.2205 -14.9907 -15.2018 -13.2253 
-13.1599 -13.7617 -11.3534 -7.185 -7.202001 -10.749 -12.1565 -17.1415 -13.9195 -11.8745 -7.9795 -9.141001 -5.3145 -15.0715 -19.051 -15.2018 
-15.1353 -13.8717 -11.3669 -7.2055 -10.7575 -12.203 -17.3495 -20.3585 -15.0375 -12.2875 -12.1589 -9.157001 -15.1753 -19.1318 -19.051 
-2.356 -1.4985 -3.0785 -1.7565 -4.4925 -3.5435 -1.934 -3.6525 -3.522 -2.925 -4.3285 -1.4985 -3.8275 -3.458 -5.1845 -8.584001 -4.891 0 -6.899 -4.891 
-3.1615 -4.779 -5.1815 -6.074 -8.4235 -5.3395 -6.195 -5.76 -6.8755 -6.912001 -5.5935 -4.726 -6.105 -8.607 -15.0629 -13.9 -4.891 -6.899 -12.8004 
-5.297501 -5.2205 -10.096 -9.071501 -10.6187 -9.618501 -8.1335 -10.078 -10.5325 -7.5435 -9.366501 -6.6875 -9.793501 -18.9816 -20.3789 -13.9 -13.0548 -12.8004 
-5.3145 -10.1105 -13.1663 -11.9817 -14.8977 -11.7114 -13.0223 -13.735 -11.164 -10.7575 -11.4978 -10.5035 -20.5873 -24.2976 -20.3789 -22.0638 -18.9562 
-10.159 -13.1846 -16.0765 -16.2607 -16.9906 -16.6002 -16.6793 -14.3665 -14.378 -12.8888 -15.3138 -21.5555 -25.9033 -24.2976 -28.5427 -27.9652 
