-4.759 
n/a 
n/a 
n/a 
n/a 
-4.759 
n/a 
n/a 
n/a 
n/a 
-4.759 
n/a 
n/a 
n/a 
n/a 
-4.759 
n/a 
n/a 
n/a 
n/a 
-3.5455 -3.676 -2.229 -3.502 -3.641 -3.307 -1.7565 -6.7455 -4.3355 -1.7695 -5.189 -1.4985 -8.3105 -2.543 -3.748 0 
-4.521501 -4.593 -5.944 -5.219 -6.733001 -4.8035 -8.2475 -11.8104 -6.504001 -7.0105 -6.753 -10.575 -11.3205 -5.124001 -3.748 
-6.145 -8.4835 -7.394 -9.2665 -8.848001 -12.2057 -13.452 -13.9789 -12.3694 -10.0155 -16.1803 -13.585 -13.9015 -5.124001 
-9.885 -9.828 -11.8667 -11.5957 -16.6694 -17.4102 -15.6205 -19.8443 -15.3744 -19.4428 -19.1903 -16.166 -13.9015 
-11.5631 -14.3007 -14.1959 -19.4171 -21.8739 -19.5787 -21.4859 -22.8493 -24.8017 -22.4528 -21.7713 -16.166 
-5.569 -4.2715 -3.183 -3.7515 -2.543 -3.748 -4.702 
-11.7631 -7.3095 -6 -6.4805 -5.124001 -6.243 
-14.8011 -10.159 -8.7815 -8.842501 -7.554 
-17.6506 -13.2299 -10.382 -11.4635 
-20.7215 -14.8304 -13.003 
-2.4265 -3.0835 -4.305 -2.264 -1.8085 -3.535 -4.5905 -3.347 -2.356 -4.8655 -2.95 -4.837 0 -3.894 -2.356 -1.4985 -4.1735 -3.9965 -3.347 -3.43 -1.7695 -3.218 
-5.6355 -6.731501 -5.377 -3.5925 -4.294 -7.856501 -7.928 -5.869 -6.918 -7.947001 -5.888 -4.837 -3.894 -4.7015 -3.1615 -4.445 -8.493 -6.5235 -7.381001 -4.647 -4.45 
-7.539001 -7.791501 -6.5695 -5.739 -8.151501 -10.7025 -10.3545 -10.354 -10.2755 -9.305501 -5.888 -8.386001 -4.7015 -5.2815 -5.8725 -8.6705 -11.4652 -10.6345 -8.3105 -7.089 
-9.017 -8.986501 -9.442501 -10.057 -10.7325 -10.7845 -10.771 -13.7115 -10.769 -9.305501 -10.0815 -9.015 -5.2815 -8.988001 -10.238 -11.7917 -15.5762 -11.564 -12.1839 
-10.0995 -12.2597 -13.8679 -10.765 -10.7855 -10.79 -14.1285 -14.205 -10.769 -13.861 -10.3945 -9.410001 -8.988001 -13.4913 -13.605 -15.9027 -16.5057 -15.4374 
-1.934 -1.4985 -3.502 -3.75 -1.7565 -3.5455 -3.676 -5.569 -5.818 -1.8085 -3.2795 -1.7565 -3.8375 -1.934 -1.4985 -3.9195 -1.7565 -4.1385 -2.9705 -2.8645 -2.7455 -2.543 -3.748 -4.702 -1.756 -2.645 -3.1575 -2.3335 0 
-2.6125 -4.5955 -5.0795 -5.188 -4.8635 -4.521501 -8.9585 -13.3096 -6.460001 -4.5305 -4.4575 -6.4865 -5.7375 -2.6125 -4.631001 -4.7565 -6.1825 -7.4905 -4.6335 -5.9665 -5.4485 -5.124001 -6.243 -6.175 -3.898 -3.72 -4.92 -2.3335 
-5.258 -5.9935 -6.4645 -7.7675 -5.453 -10.254 -16.8565 -13.9516 -10.0065 -4.854 -8.713 -8.530001 -6.104 -5.191 -4.871 -8.796 -10.298 -8.858001 -7.3265 -7.784 -7.1655 -7.554 -7.838 -8.4355 -5.4925 -5.7945 -4.92 
-6.441501 -6.829 -9.477501 -9.038501 -11.7009 -17.339 -17.4985 -17.4981 -10.033 -9.068501 -10.085 -8.8075 -8.339001 -5.239 -8.9305 -13.7949 -11.6655 -11.469 -9.051001 -8.9595 -9.2865 -9.0965 -9.6925 -8.631001 -7.371 -5.7945 
-7.0715 -10.15 -10.255 -15.5914 -18.7859 -17.981 -21.045 -17.5246 -14.3357 -10.396 -10.334 -11.5121 -8.342 -8.972501 -14.3186 -15.1624 -14.2765 -13.1935 -10.254 -11.3217 -10.8142 -10.992 -9.726501 -10.7271 -7.371 
