-4.759 
n/a 
n/a 
n/a 
n/a 
-4.759 
n/a 
n/a 
n/a 
n/a 
-4.759 
n/a 
n/a 
n/a 
n/a 
-4.759 
n/a 
n/a 
n/a 
n/a 
-4.4935 -3.8315 
-5.732 
n/a 
n/a 
n/a 
-12.16972 -9.907001 0 -4.4935 -3.8315 
-22.07672 -9.907001 -4.4935 -5.732 
-22.07672 -14.5609 -5.732 
-26.73062 -15.7994 
-27.96912 
-12.16972 -9.907001 0 -1.4985 -3.3755 -1.7565 -3.8315 -2.0935 -4.5995 
-22.07672 -9.907001 -1.4985 -4.057 -4.5295 -5.5375 -6.192 -7.4735 
-22.07672 -11.5659 -4.057 -5.3375 -8.2635 -7.7485 -12.5024 
-23.73562 -14.1244 -5.3375 -9.0815 -11.2021 -14.2753 
-26.29412 -15.4049 -9.0815 -12.2073 -17.7289 
-12.16972 -9.907001 0 -3.8315 -1.934 -4.5995 
-22.07672 -9.907001 -3.8315 -5.652 -6.5385 
-22.07672 -13.8989 -5.652 -9.882501 
-26.06862 -15.7194 -9.882501 
-27.88912 -19.9499 
