-4.759 
n/a 
n/a 
n/a 
n/a 
-4.759 
n/a 
n/a 
n/a 
n/a 
-4.759 
n/a 
n/a 
n/a 
n/a 
-4.759 
n/a 
n/a 
n/a 
n/a 
-1.4985 -4.326 -4.4685 -1.7565 -1.4985 -5.3885 -4.145 -2.186 -4.281 -2.5045 0 -7.5605 -4.4685 
-5.48 -7.446 -6.2805 -2.4195 -7.283501 -7.994 -5.9935 -5.650001 -5.893 -2.5045 -7.5605 -10.265 
-7.963 -9.248501 -6.6 -8.148001 -8.892501 -9.683001 -8.6265 -7.0835 -5.893 -10.6605 -10.265 
-9.4455 -9.657001 -13.1435 -9.865001 -10.078 -12.461 -10.7025 -7.0835 -14.4098 -13.365 
-9.744 -16.3975 -14.8605 -11.0505 -13.0066 -14.537 -10.7025 -15.8641 -17.1143 
-5.3885 -4.145 -3.958 -2.3345 -3.091 -3.098 0 
-7.994 -8.739 -6.619 -4.9475 -5.256001 -3.098 
-13.0218 -11.6344 -9.266001 -7.369 -5.256001 
-15.9172 -14.2814 -11.9369 -7.369 
-18.5642 -16.9523 -11.9369 
-5.3885 -4.326 -4.145 -2.7415 -4.281 -2.3345 -3.091 -3.098 
-9.679001 -7.2065 -6.754 -5.383 -6.1225 -4.9475 -5.256001 
-10.6495 -9.923 -8.739 -6.9395 -8.3525 -7.369 
-13.366 -11.9702 -10.5809 -8.855 -10.233 
-15.4132 -13.8121 -12.4964 -10.9305 
-5.965 -10.2505 -10.536 -2.186 -4.281 -2.0935 -1.934 -12.16972 
-17.0403 -20.7865 -13.3676 -5.650001 -5.835 -4.7945 -15.11012 
-27.5763 -23.6181 -16.8316 -6.6265 -9.4255 -18.78382 
-30.4079 -27.0821 -17.8081 -10.127 -23.37762 
-33.8719 -28.0586 -21.3086 -24.11052 
