-4.759 
n/a 
n/a 
n/a 
n/a 
-4.759 
n/a 
n/a 
n/a 
n/a 
-4.759 
n/a 
n/a 
n/a 
n/a 
-4.759 
n/a 
n/a 
n/a 
n/a 
-3.0365 -2.4945 -6.0115 0 -5.943501 0 -5.1845 0 -8.854 0 -12.16972 0 -6.055 0 -12.16972 0 -12.16972 0 -9.877001 0 -5.81 0 -10.1165 0 -8.7015 0 -9.366 0 -5.9975 0 -6.8945 0 -9.8795 
-3.688 -9.728001 -6.0115 -5.943501 -5.943501 -5.1845 -5.1845 -8.854 -8.854 -12.16972 -12.16972 -6.055 -6.055 -12.16972 -12.16972 -12.16972 -12.16972 -9.877001 -9.877001 -5.81 -5.81 -10.1165 -10.1165 -8.7015 -8.7015 -9.366 -9.366 -5.9975 -5.9975 -6.8945 -6.8945 -9.8795 
-11.7589 -9.728001 -7.3545 -5.943501 -7.969501 -5.1845 -9.883 -8.854 -21.49892 -12.16972 -18.22472 -6.055 -19.32892 -12.16972 -24.33944 -12.16972 -22.04672 -9.877001 -15.9924 -5.81 -16.9375 -10.1165 -18.918 -8.7015 -18.4429 -9.366 -15.6011 -5.9975 -9.995501 -6.8945 -17.7784 
-11.7589 -11.1448 -7.3545 -7.969501 -7.969501 -9.883 -9.883 -21.49892 -21.49892 -18.22472 -18.22472 -19.32892 -19.32892 -24.33944 -24.33944 -22.04672 -22.04672 -15.9924 -15.9924 -16.9375 -16.9375 -18.918 -18.918 -18.4429 -18.4429 -15.6011 -15.6011 -9.995501 -9.995501 -17.7784 
-13.1757 -11.1448 -8.616501 -7.969501 -10.66 -9.883 -22.59152 -21.49892 -27.55392 -18.22472 -31.49864 -19.32892 -31.49864 -24.33944 -34.21644 -22.04672 -28.16212 -15.9924 -27.1199 -16.9375 -25.739 -18.918 -28.6594 -18.4429 -24.678 -15.6011 -19.5991 -9.995501 -21.2014 
-3.45 -2.4945 -6.0115 0 -5.943501 0 -5.1845 0 -5.7865 0 -5.7385 0 -6.055 0 -6.015 0 -6.399 0 -5.81 0 -6.5235 0 -6.336 0 -5.648 0 -5.9975 0 -10.738 0 -7.7825 0 -7.378 -3.843 
-5.354 -9.728001 -6.0115 -5.943501 -5.943501 -5.1845 -5.1845 -5.7865 -5.7865 -5.7385 -5.7385 -6.055 -6.055 -6.015 -6.015 -6.399 -6.399 -5.81 -5.81 -6.5235 -6.5235 -6.336 -6.336 -5.648 -5.648 -5.9975 -5.9975 -10.738 -10.738 -7.7825 -7.7825 -7.378 -10.841 
-12.9751 -9.728001 -7.3545 -5.943501 -7.969501 -5.1845 -6.51 -5.7865 -7.8935 -5.7385 -8.165 -6.055 -7.718 -6.015 -8.964001 -6.399 -8.0245 -5.81 -8.9525 -6.5235 -9.0065 -6.336 -9.444501 -5.648 -9.452001 -5.9975 -17.7771 -10.738 -18.5205 -7.7825 -15.6281 -10.841 
-12.9751 -11.1448 -7.3545 -7.969501 -7.969501 -6.51 -6.51 -7.8935 -7.8935 -8.165 -8.165 -7.718 -7.718 -8.964001 -8.964001 -8.0245 -8.0245 -8.9525 -8.9525 -9.0065 -9.0065 -9.444501 -9.444501 -9.452001 -9.452001 -17.7771 -17.7771 -18.5205 -18.5205 -15.6281 -19.0911 
-14.3919 -11.1448 -8.616501 -7.969501 -8.452001 -6.51 -8.151 -7.8935 -8.3395 -8.165 -9.5445 -7.718 -9.977501 -8.964001 -10.61 -8.0245 -9.037001 -8.9525 -9.044001 -9.0065 -13.2776 -9.444501 -13.5393 -9.452001 -21.4812 -17.7771 -25.5596 -18.5205 -26.3661 -19.0911 
-2.925 -2.4945 -6.0115 0 -5.943501 0 -5.1845 0 -5.7865 0 -3.641 -5.6305 0 -6.055 0 -5.648 0 -6.015 0 -6.399 0 -5.81 0 -8.5495 0 -6.336 0 -5.989501 0 -5.9975 0 -10.8685 0 -5.92 
-3.7675 -9.728001 -6.0115 -5.943501 -5.943501 -5.1845 -5.1845 -5.7865 -5.7865 -3.641 -6.0325 -5.6305 -6.055 -6.055 -5.648 -5.648 -6.015 -6.015 -6.399 -6.399 -5.81 -5.81 -8.5495 -8.5495 -6.336 -6.336 -5.989501 -5.989501 -5.9975 -5.9975 -10.8685 -10.8685 -5.92 
-11.2264 -9.728001 -7.3545 -5.943501 -7.969501 -5.1845 -6.51 -5.7865 -10.5535 -6.0325 -6.0325 -10.8845 -6.055 -9.141001 -5.648 -8.131001 -6.015 -8.964001 -6.399 -8.0245 -5.81 -10.985 -8.5495 -11.0145 -6.336 -9.935501 -5.989501 -10.523 -5.9975 -17.9076 -10.8685 -16.7885 
-11.2264 -11.1448 -7.3545 -7.969501 -7.969501 -6.51 -6.51 -10.5535 -12.945 -6.0325 -11.8939 -10.8845 -9.141001 -9.141001 -8.131001 -8.131001 -8.964001 -8.964001 -8.0245 -8.0245 -10.985 -10.985 -11.0145 -11.0145 -9.935501 -9.935501 -10.523 -10.523 -17.9076 -17.9076 -16.7885 
-12.6432 -11.1448 -8.616501 -7.969501 -8.452001 -6.51 -12.5584 -12.945 -12.945 -11.8939 -11.8939 -13.9705 -9.141001 -10.335 -8.131001 -12.1584 -8.964001 -10.61 -8.0245 -14.5173 -10.985 -13.45 -11.0145 -14.614 -9.935501 -14.5806 -10.523 -22.7907 -17.9076 -23.8276 
-3.1495 -6.0115 0 -5.943501 0 -5.1845 0 -6.015 0 -3.641 -5.6305 -3.6885 0 -6.055 0 -5.648 0 -6.399 0 -5.81 0 -6.077 -3.6885 0 -5.611 -2.3085 0 -6.4455 0 -5.9975 0 -10.8685 -1.756 -3.074 -12.16972 0 
-10.4265 -6.0115 -5.943501 -5.943501 -5.1845 -5.1845 -6.015 -6.015 -3.641 -6.0325 -9.567 -3.6885 -6.055 -6.055 -5.648 -5.648 -6.399 -6.399 -5.81 -5.81 -6.077 -10.361 -3.6885 -5.611 -8.2045 -2.3085 -6.4455 -6.4455 -5.9975 -5.9975 -10.8685 -12.6245 -4.566 -16.24412 -12.16972 
-10.4265 -7.3545 -5.943501 -7.969501 -5.1845 -8.599501 -6.015 -10.5975 -6.0325 -10.442 -9.567 -8.421 -6.055 -9.141001 -5.648 -10.0715 -6.399 -8.0245 -5.81 -12.898 -10.361 -10.361 -9.478001 -8.2045 -8.2045 -10.404 -6.4455 -10.3415 -5.9975 -17.9076 -12.6245 -15.4345 -17.92212 -16.24412 
-11.7695 -7.3545 -7.969501 -7.969501 -8.599501 -8.599501 -10.5975 -12.989 -10.442 -10.442 -14.5563 -8.421 -9.141001 -9.141001 -10.0715 -10.0715 -8.0245 -8.0245 -12.898 -17.182 -10.361 -16.1505 -12.9489 -8.2045 -16.5446 -10.404 -10.3415 -10.3415 -17.9076 -19.6636 -15.4345 -28.79062 -17.92212 
-11.7695 -8.616501 -7.969501 -10.298 -8.599501 -14.1512 -12.989 -17.3985 -10.442 -15.4313 -14.5563 -11.939 -9.141001 -13.8811 -10.0715 -11.8082 -8.0245 -16.4303 -17.182 -17.182 -16.1505 -19.6214 -12.9489 -16.5446 -16.5446 -14.3 -10.3415 -22.2516 -19.6636 -22.4736 -28.79062 -28.79062 
