-4.759 
n/a 
n/a 
n/a 
n/a 
-4.759 
n/a 
n/a 
n/a 
n/a 
-4.759 
n/a 
n/a 
n/a 
n/a 
-4.759 
n/a 
n/a 
n/a 
n/a 
-7.607 0 -2.5685 -5.814 -2.7765 -3.43 -4.091 
-7.607 -2.5685 -8.002501 -8.6005 -7.613501 -7.5315 
-10.9075 -8.002501 -11.695 -14.5041 -11.8118 
-16.3415 -11.695 -17.5986 -18.7024 
-20.034 -17.5986 -21.7969 
-4.138 -2.5685 -1.4985 -3.3885 -3.8995 -10.178 -3.1575 -1.756 -3.0365 0 
-7.4095 -3.7015 -4.494 -7.052501 -15.3253 -13.4413 -6.6335 -4.484 -3.0365 
-8.539001 -7.319 -8.8695 -19.1217 -18.5886 -16.9173 -9.147501 -4.484 
-12.8991 -10.025 -21.3939 -22.385 -22.0646 -19.4313 -9.147501 
-15.6051 -23.4442 -24.6572 -25.861 -24.5786 -19.4313 
-1.4985 -3.3785 -5.058 -1.7565 -2.5685 -3.7205 -2.7765 -2.489 -4.1585 -2.5045 -2.985 -9.6765 -4.821 -4.0415 
-4.4495 -7.878 -5.5855 -3.938 -5.4355 -6.9465 -3.495 -5.7385 -7.0505 -5.065001 -14.0261 -14.7363 -7.7495 
-8.6955 -8.088 -7.475 -7.664001 -9.5015 -7.3365 -7.036 -7.9075 -10.0505 -16.3241 -19.0859 -17.6648 
-8.856501 -9.484501 -11.3718 -10.7495 -9.869 -11.5829 -9.026501 -10.6465 -21.3096 -21.3839 -22.0144 
-10.476 -13.3733 -14.4573 -11.117 -14.1758 -13.5734 -11.9899 -21.9056 -26.3694 -24.3124 
-2.3615 -2.7765 -2.489 -3.264 -2.5045 -3.8225 -3.913 -3.2955 -2.0935 -4.138 -3.16 
-4.876 -3.495 -5.406 -5.7165 -6.269 -6.698501 -7.559 -4.307 -5.6095 -8.2325 
-5.155 -6.025001 -7.6595 -10.575 -9.851001 -9.673 -8.7345 -8.106501 -9.081501 
-7.9555 -8.266001 -12.467 -14.157 -12.8623 -11.1667 -12.6382 -11.8385 
-9.8415 -13.1557 -16.049 -17.1683 -14.356 -15.0704 -16.3702 
