-4.759 
n/a 
n/a 
n/a 
n/a 
-4.759 
n/a 
n/a 
n/a 
n/a 
-4.759 
n/a 
n/a 
n/a 
n/a 
-4.759 
n/a 
n/a 
n/a 
n/a 
-7.657001 -5.121 -4.06 -3.9875 -4.302 -7.5495 
-9.348001 -8.351001 -6.420001 -8.219 -8.362 
-11.9326 -11.1402 -10.013 -11.5745 
-14.8062 -14.7332 -12.398 
-18.3992 -17.1182 
-3.5075 -4.1495 -3.9565 -2.186 -4.06 -1.934 -1.4985 -3.5075 -4.042 -4.302 
-5.262 -7.271001 -5.683001 -4.672 -4.483 -2.6125 -5.2065 -5.418 -7.987 
-7.657001 -9.521501 -7.147 -5.13 -4.937 -6.2815 -6.9045 -9.059501 
-9.958501 -10.405 -7.691 -5.522 -7.922 -7.884501 -10.2035 
-10.844 -10.949 -8.319501 -8.446 -9.501501 -11.6027 
-3.5075 -4.1495 -2.229 -3.9565 -1.934 -3.5075 -4.042 -2.229 -4.302 -1.934 -5.3885 
-5.262 -5.214001 -5.691 -5.259 -5.182 -5.418 -5.436 -6.624 -6.9635 -6.4035 
-5.4265 -6.719501 -6.859 -7.688001 -6.925 -5.962 -9.726001 -8.415501 -11.7838 
-6.739 -7.772501 -9.075001 -9.307 -7.546 -9.964001 -11.6271 -13.4992 
-7.7955 -10.028 -10.0645 -9.695001 -11.7642 -11.8651 -16.7108 
-1.4985 -4.1495 -3.9565 -1.934 -2.3615 -3.729 0 
-6.228001 -7.271001 -5.259 -3.539 -6.068501 -3.729 
-9.5775 -8.383 -7.2985 -6.8745 -6.068501 
-11.1027 -10.4945 -10.396 -6.8745 
-13.2142 -14.5226 -10.396 
