-4.759 
n/a 
n/a 
n/a 
n/a 
-4.759 
n/a 
n/a 
n/a 
n/a 
-4.759 
n/a 
n/a 
n/a 
n/a 
-4.759 
n/a 
n/a 
n/a 
n/a 
-2.4265 -3.7965 -5.1845 -4.4615 -8.27 -1.756 -6.4735 
-5.329 -9.621 -7.859 -13.8849 -9.508 -8.2355 
-11.6167 -12.3827 -17.9132 -15.1229 -16.0061 
-14.3784 -22.4369 -19.1512 -21.621 
-24.4326 -23.6749 -25.6493 
-3.1385 -4.4615 -5.1845 -3.6885 -3.152 -3.849 -8.27 0 
-7.1225 -9.26 -7.323501 -7.349501 -5.9565 -12.2796 -8.27 
-10.4425 -11.4944 -11.4859 -9.918 -14.7893 -12.2796 
-12.9217 -15.6568 -14.0544 -18.7508 -14.7893 
-17.0841 -18.2253 -22.8872 -18.7508 
-6.4735 0 -8.27 
-6.4735 -8.27 
-15.7119 
n/a 
n/a 
-1.4985 -3.1385 -3.0695 -4.8845 -5.1845 -2.4945 -8.27 0 
-4.2575 -4.286 -6.434501 -9.272 -8.622001 -10.035 -8.27 
-5.1225 -8.967501 -10.292 -12.8679 -16.4111 -10.035 
-9.932 -13.0982 -13.8879 -20.657 -16.4111 
-14.1921 -16.6941 -21.677 -20.657 
