-4.759 
n/a 
n/a 
n/a 
n/a 
-4.759 
n/a 
n/a 
n/a 
n/a 
-4.759 
n/a 
n/a 
n/a 
n/a 
-4.759 
n/a 
n/a 
n/a 
n/a 
-2.4265 -2.7415 -6.827 -2.5045 -12.16972 -1.934 -1.4985 -4.795 -7.485 
-3.681 -10.082 -8.697001 -15.59162 -14.10372 -2.6125 -5.8135 -13.5388 
-11.2241 -11.952 -22.03772 -17.52562 -14.78222 -6.819 -14.8193 
-13.0941 -25.29272 -23.97172 -18.20412 -18.98872 -16.5526 
-26.43482 -27.22672 -24.65022 -22.41062 -28.72232 
-3.5455 -1.4985 -4.795 -4.153 -1.4985 -3.2875 -2.7415 -3.849 -2.5045 -12.16972 0 
-3.91 -5.8135 -6.281 -5.544001 -4.127 -5.934 -5.431 -6.305 -15.59162 -12.16972 
-7.751 -6.643 -7.4375 -7.692 -6.1715 -8.175 -7.509501 -19.49572 -15.59162 
-8.139501 -7.61 -9.222 -8.4245 -8.397501 -10.248 -21.18802 -19.49572 
-8.9505 -9.417 -9.8225 -10.5325 -10.6735 -23.92652 -21.18802 
-1.934 -1.4985 -4.795 -4.153 -2.3335 -2.7415 -1.4985 -4.281 -3.2875 -1.7565 -6.6975 
-2.6125 -5.8135 -6.281 -6.551001 -4.2725 -4.063 -5.8575 -7.943 -4.3315 -8.098001 
-6.819 -6.643 -8.7885 -8.1425 -5.387 -8.588 -9.594501 -8.673 -10.304 
-7.101 -8.884501 -10.0715 -9.047001 -10.609 -12.6944 -10.4367 -14.8105 
-9.360001 -10.243 -10.6665 -14.3892 -14.7154 -13.5366 -16.5742 
-1.934 -4.795 -4.153 -2.3335 -2.186 -3.849 -12.16972 0 
-7.2925 -6.281 -6.551001 -3.7085 -4.8565 -16.17932 -12.16972 
-7.979001 -8.7885 -7.764501 -6.549 -17.46782 -16.17932 
-10.9161 -10.0195 -10.7575 -19.38812 -17.46782 
-12.1471 -13.0125 -23.59662 -19.38812 
