-4.759 
n/a 
n/a 
n/a 
n/a 
-4.759 
n/a 
n/a 
n/a 
n/a 
-4.759 
n/a 
n/a 
n/a 
n/a 
-4.759 
n/a 
n/a 
n/a 
n/a 
-4.522 -2.742 -5.096 -8.901 -7.190001 0 -3.034 -1.4985 -4.536 -5.5265 0 
-6.8335 -7.5505 -10.862 -9.822001 -7.190001 -3.034 -3.947 -6.001 -8.451 -5.5265 
-12.1024 -13.9007 -11.783 -9.822001 -9.872001 -3.947 -8.052 -9.573 -8.451 
-18.4526 -14.8217 -11.783 -12.504 -11.1126 -8.052 -12.247 -9.573 
-19.3736 -14.8217 -14.465 -13.7446 -15.2176 -12.247 -12.247 
-7.190001 -4.978 -2.3335 -2.95 -3.8385 -1.7565 -1.4985 -3.3975 -1.756 -2.356 -3.091 -4.284 -1.756 -3.5385 -2.229 -5.096 -12.16972 -12.16972 0 
-12.9788 -7.026 -4.8245 -7.2565 -4.716001 -2.4195 -4.584001 -4.713 -4.553 -4.513 -4.863 -5.261001 -4.993 -4.2445 -7.3855 -17.51692 -24.33944 -12.16972 
-15.0268 -10.0556 -9.002001 -7.998001 -5.204 -5.405 -5.878 -7.555501 -6.468 -5.7775 -5.7805 -6.54 -5.8005 -10.733 -20.47802 -29.68664 -24.33944 
-18.0564 -14.2331 -9.128501 -8.347 -7.184501 -6.603 -8.427 -9.021001 -7.9195 -6.358 -6.813 -8.9575 -12.7188 -23.82552 -32.64774 -29.68664 
-22.2339 -14.3596 -9.274 -10.4517 -8.193501 -9.217 -10.028 -10.476 -8.852 -7.4655 -9.323501 -16.1722 -25.81132 -35.99524 -32.64774 
-3.034 -7.190001 -4.4665 -4.359 -2.5195 -1.4985 -4.7855 -1.4985 -3.8385 -1.7565 -1.4985 -3.3975 -3.9485 -2.356 -3.091 -3.3975 -3.499 -2.742 -3.6785 0 -8.901 -7.190001 0 
-10.6885 -10.8215 -10.1555 -6.507 -3.1695 -5.798 -6.7455 -4.778501 -4.716001 -2.4195 -4.584001 -7.226001 -4.311 -4.513 -5.146 -5.114501 -5.682 -5.549 -3.6785 -8.901 -9.822001 -7.190001 
-14.32 -16.5105 -12.3035 -7.1495 -7.4765 -7.454 -10.0925 -5.202 -5.204 -5.405 -8.080501 -7.462501 -6.101 -6.092 -7.096 -7.2335 -8.885 -5.549 -13.5423 -9.822001 -9.822001 
-20.009 -18.6585 -12.946 -12.0677 -9.1165 -11.0002 -10.7085 -5.5205 -7.184501 -8.9665 -8.43 -8.905001 -7.6695 -8.387501 -9.2795 -9.826001 -8.885 -15.892 -14.4633 -9.822001 
-22.157 -19.301 -17.8642 -13.7077 -12.6773 -11.6162 -10.7905 -7.362 -11.0586 -9.094001 -9.8585 -10.6741 -9.163501 -10.7694 -11.9232 -9.826001 -19.345 -16.813 -14.4633 
-3.034 -7.190001 -2.186 -12.16972 0 -1.4985 -3.8385 -1.7565 -1.4985 -3.545 -3.9485 -2.356 -4.284 -3.5385 -3.6785 -8.901 -7.190001 
-10.6885 -8.7165 -15.56612 -12.16972 -1.4985 -4.778501 -4.716001 -2.4195 -4.401 -7.187 -4.311 -6.641001 -7.370501 -7.327 -13.5423 -9.822001 
-12.215 -22.59262 -15.56612 -13.66822 -4.778501 -5.202 -5.204 -5.1065 -7.955 -7.3255 -8.2545 -9.290001 -11.4422 -17.4426 -14.4633 
-26.09112 -22.59262 -17.06462 -16.94822 -5.202 -5.5205 -7.523 -8.596001 -8.0755 -11.5916 -11.0599 -13.3209 -21.5578 -18.3636 
-26.09112 -24.09112 -20.34462 -17.37172 -5.5205 -7.782001 -11.2397 -8.7585 -12.5956 -14.397 -15.0908 -23.4365 -22.4788 
