-4.759 
n/a 
n/a 
n/a 
n/a 
-4.759 
n/a 
n/a 
n/a 
n/a 
-4.759 
n/a 
n/a 
n/a 
n/a 
-4.759 
n/a 
n/a 
n/a 
n/a 
-4.8085 -3.8195 -2.7455 -5.4425 -6.5625 
-6.085001 -6.007 -8.507 -7.282 
-7.313001 -12.3725 -10.533 
-13.8861 -14.3985 
-15.9121 
-3.815 -3.8195 -2.7455 -6.8025 -6.5625 
-5.729 -6.007 -9.953501 -7.786 
-7.217 -13.819 -10.937 
-15.3278 -14.8025 
-16.3113 
-4.8085 -3.8195 -2.0935 -9.1835 -6.5625 0 -3.098 0 
-6.085001 -6.066 -9.514501 -9.251 -6.5625 -3.098 -3.098 
-8.433001 -13.926 -12.103 -9.601001 -10.6605 -3.098 
-16.6124 -16.2441 -12.1744 -14.3258 -10.6605 
-18.8733 -16.2441 -16.8992 -14.3258 
-4.8085 -2.264 -5.4425 -6.5625 
-6.2965 -8.51 -7.282 
-12.9315 -10.281 
-14.7025 
n/a 
