-4.759 
n/a 
n/a 
n/a 
n/a 
-4.759 
n/a 
n/a 
n/a 
n/a 
-4.759 
n/a 
n/a 
n/a 
n/a 
-4.759 
n/a 
n/a 
n/a 
n/a 
-2.7835 -3.0365 -2.186 -2.847 -4.0395 -1.7565 -5.579 -3.115 -2.3615 0 -1.4985 -6.229 -1.7565 -1.4985 -3.7075 -1.756 -4.4515 -3.1425 -4.397 -3.819 -1.934 -3.2495 -3.9765 0 
-4.4665 -3.66 -4.1045 -7.1245 -4.862 -7.5245 -8.821001 -4.312 -2.3615 -1.4985 -7.704 -7.506 -2.4195 -4.6235 -5.318 -6.289 -7.438001 -5.7215 -7.0255 -5.237 -4.821 -4.974 -3.9765 
-4.811501 -4.256001 -8.118 -8.598001 -11.1174 -10.6215 -10.168 -4.312 -4.913 -7.704 -8.139501 -7.703 -5.468501 -5.845 -6.5745 -9.124001 -10.5975 -8.326 -8.028501 -7.710001 -6.262 -4.974 
-5.5375 -8.1285 -9.610001 -15.0788 -14.2144 -11.9685 -10.168 -6.134 -11.3191 -8.139501 -8.2675 -7.8975 -6.535 -6.978001 -9.414001 -12.2539 -13.202 -9.521501 -10.5425 -8.507 -6.262 
-9.319 -9.618501 -16.1388 -18.1758 -15.5614 -11.9685 -11.99 -12.6199 -11.7546 -8.2675 -8.5915 -8.2375 -7.430501 -9.522 -12.5269 -14.8584 -14.3975 -12.1431 -11.5227 -8.507 
-2.7835 -2.3615 -5.8445 -2.186 -2.6165 -3.0365 0 -1.4985 -5.349 -1.756 -4.365 -6.229 -2.742 -4.474 -3.819 -1.934 -3.6055 -3.2495 -3.9765 0 
-4.535 -7.923 -7.216 -3.5105 -5.528501 -3.0365 -1.4985 -6.1475 -6.7745 -5.9355 -6.7795 -8.801001 -5.6185 -7.144 -5.237 -4.8595 -5.7205 -4.974 -3.9765 
-10.172 -8.8645 -8.689 -6.3665 -5.528501 -5.28 -6.1475 -7.7675 -7.914501 -8.24 -9.637 -9.5365 -8.067 -8.115 -7.1705 -7.7025 -6.391 -4.974 
-10.7565 -10.1595 -11.9044 -6.3665 -7.244 -10.044 -7.7675 -8.698 -8.344001 -10.543 -10.23 -12.042 -9.638 -9.1095 -8.4735 -8.726501 -6.391 
-12.0515 -13.3749 -11.9044 -7.855 -12.1776 -11.664 -8.698 -9.625501 -10.6465 -11.136 -12.7355 -13.613 -10.3175 -10.661 -9.426001 -8.726501 
-2.7835 -2.3615 -6.884501 -2.186 -2.6165 -3.0365 0 -3.321 -4.365 -4.4155 -1.756 -5.349 -4.4155 -2.742 -4.397 -3.819 -1.934 -2.341 -3.9765 0 
-4.535 -9.514501 -9.550001 -3.5105 -5.528501 -3.0365 -3.321 -8.528 -6.259 -6.5975 -6.9265 -6.686501 -7.376 -5.4265 -7.0255 -5.237 -4.9255 -4.7385 -3.9765 
-12.043 -12.322 -10.4285 -6.3665 -5.528501 -6.214001 -8.528 -10.5498 -8.1645 -9.418 -8.547501 -8.684501 -9.606001 -7.7995 -8.028501 -8.1505 -6.3755 -4.7385 
-14.8505 -13.2005 -13.2845 -6.3665 -7.536 -11.9134 -10.5498 -12.4553 -9.538 -9.550501 -10.553 -10.2865 -12.077 -9.4965 -11.3116 -9.135501 -6.3755 
-15.729 -16.0565 -13.2845 -7.934501 -13.6642 -13.9352 -12.4553 -13.8288 -9.5655 -11.7256 -12.155 -12.7575 -13.774 -12.7472 -12.2966 -9.135501 
-1.934 -1.4985 -3.7575 -3.3755 -4.0325 -2.186 -3.074 -1.934 -4.4515 
-2.6125 -4.9525 -8.125 -7.864501 -5.7275 -4.156 -4.93 -7.154 
-6.349501 -9.161001 -12.6338 -9.334001 -7.921 -6.1545 -10.31 
-10.107 -13.7952 -14.1033 -11.8285 -9.903001 -12.1461 
-14.8512 -15.2647 -16.5978 -13.8105 -16.0868 
