-4.759 
n/a 
n/a 
n/a 
n/a 
-4.759 
n/a 
n/a 
n/a 
n/a 
-4.759 
n/a 
n/a 
n/a 
n/a 
-4.759 
n/a 
n/a 
n/a 
n/a 
-4.447 -2.186 -4.517 -3.3255 -9.811501 0 -4.422 0 -4.245 0 -5.089 0 -3.8195 -1.756 -4.1745 0 
-6.643 -5.7375 -6.682 -14.1014 -9.811501 -4.422 -4.422 -4.245 -4.245 -5.089 -5.089 -3.8195 -5.2095 -5.479 -4.1745 
-10.7053 -7.4505 -17.7939 -14.1014 -14.2599 -4.422 -9.307501 -4.245 -8.211 -5.089 -7.986 -5.2095 -6.045001 -5.479 
-12.4183 -18.7352 -17.7939 -18.5498 -14.2599 -9.307501 -9.307501 -8.211 -8.211 -7.986 -10.0475 -6.045001 -6.045001 
-23.703 -18.7352 -22.2423 -18.5498 -19.1454 -9.307501 -13.4175 -8.211 -11.5176 -10.0475 -10.883 -6.045001 
-4.447 -2.186 -3.2825 -5.479 -7.175 -4.7285 -4.1455 0 -5.1415 0 -4.245 0 -4.379 0 -4.3225 0 -4.1745 -4.4495 0 
-6.643 -5.0055 -8.445001 -14.0696 -12.4367 -6.35 -4.1455 -5.1415 -5.1415 -4.245 -4.245 -4.379 -4.379 -4.3225 -4.3225 -4.1745 -6.632 -4.4495 
-9.443001 -8.896 -17.2756 -19.3313 -14.0582 -6.35 -10.022 -5.1415 -9.086 -4.245 -8.0115 -4.379 -8.863001 -4.3225 -7.1355 -6.632 -6.632 
-13.6011 -18.0926 -22.5373 -20.9528 -14.0582 -12.5535 -10.022 -9.086 -9.086 -8.0115 -8.0115 -8.863001 -8.863001 -7.1355 -10.3192 -6.632 
-22.7977 -23.3543 -24.1588 -20.9528 -20.2617 -12.5535 -14.1323 -9.086 -13.6777 -8.0115 -13.0141 -8.863001 -10.718 -10.3192 -10.3192 
-12.16972 0 -4.126 -3.645 0 -4.245 0 -4.3225 0 -3.46 -3.645 0 -3.074 -4.548 -4.447 -3.645 0 
-12.16972 -4.126 -8.102 -3.645 -4.245 -4.245 -4.3225 -4.3225 -3.46 -6.395 -3.645 -3.074 -6.8435 -10.4602 -7.627501 -3.645 
-16.29572 -8.102 -8.102 -8.303 -4.245 -7.797001 -4.3225 -6.679501 -6.395 -6.395 -6.635 -6.8435 -13.2687 -13.6407 -7.627501 
-20.27172 -8.102 -13.1332 -8.303 -7.797001 -7.797001 -6.679501 -8.3745 -6.395 -9.495501 -9.9615 -13.2687 -16.4492 -13.6407 
-20.27172 -13.1332 -13.1332 -12.3042 -7.797001 -9.901001 -8.3745 -8.3745 -9.495501 -12.912 -16.6551 -16.4492 -16.4492 
-4.447 -2.186 -8.9495 -1.934 -3.3715 -4.029 -3.2775 -2.5045 -4.938 -4.0905 0 -3.9075 -3.837 0 -4.245 0 -4.535 0 -4.6695 0 -1.756 -4.1745 0 
-6.643 -10.8415 -11.3951 -4.622 -5.29 -6.7155 -3.678 -7.9265 -9.182001 -4.0905 -3.9075 -6.144 -3.837 -4.245 -4.245 -4.535 -4.535 -4.6695 -4.6695 -1.756 -5.479 -4.1745 
-15.8093 -13.2871 -14.0831 -5.569 -7.7045 -6.769001 -8.175501 -12.5805 -9.182001 -8.015 -6.144 -6.144 -8.489 -4.245 -7.556001 -4.535 -8.9595 -4.6695 -6.2095 -5.479 -5.479 
-18.2549 -15.9751 -15.0301 -7.768001 -7.8345 -11.7327 -13.2483 -12.5805 -13.2951 -10.3771 -6.144 -11.4504 -8.489 -7.556001 -7.556001 -8.9595 -8.9595 -6.2095 -7.549001 -5.479 
-20.9429 -16.9221 -17.2291 -7.870501 -12.8824 -16.8055 -13.2483 -16.6936 -15.6572 -10.3771 -11.4504 -11.4504 -12.603 -7.556001 -12.9553 -8.9595 -10.089 -7.549001 -7.549001 
