-4.759 
n/a 
n/a 
n/a 
n/a 
-4.759 
n/a 
n/a 
n/a 
n/a 
-4.759 
n/a 
n/a 
n/a 
n/a 
-4.759 
n/a 
n/a 
n/a 
n/a 
-3.324 -4.554 0 -4.7455 0 -4.278 
-8.028 -4.554 -4.7455 -4.7455 -4.278 
-8.028 -10.119 -4.7455 -6.5305 
-13.816 -10.119 -6.5305 
-13.816 -11.904 
-4.8575 0 -4.7455 0 -4.278 
-4.8575 -4.7455 -4.7455 -4.278 
-6.843 -4.7455 -6.5305 
-6.843 -6.5305 
-7.778 
-4.042 -4.6495 0 -4.7455 0 -4.278 
-9.7425 -4.6495 -4.7455 -4.7455 -4.278 
-9.7425 -10.8625 -4.7455 -6.5305 
-16.2509 -10.8625 -6.5305 
-16.2509 -12.6475 
-8.044001 
n/a 
n/a 
n/a 
n/a 
