-4.759 
n/a 
n/a 
n/a 
n/a 
-4.759 
n/a 
n/a 
n/a 
n/a 
-4.759 
n/a 
n/a 
n/a 
n/a 
-4.759 
n/a 
n/a 
n/a 
n/a 
-2.5645 -3.9755 -12.16972 -9.053 
-7.012501 -17.19462 -21.22272 
-20.89462 -26.24762 
-29.94762 
n/a 
-1.4985 -3.2825 -4.953 -2.186 -4.7925 -3.222 -3.8445 -3.9035 0 
-3.712 -8.495001 -6.739 -5.544001 -5.2095 -6.272 -7.0075 -3.9035 
-8.7075 -10.434 -9.7635 -5.673501 -6.762 -7.6965 -7.0075 
-10.476 -13.4585 -9.8 -7.122 -7.9445 -7.6965 
-13.5005 -13.495 -11.3787 -8.125 -7.9445 
-3.8445 -3.9755 -2.186 -11.128 -9.594501 
-6.8335 -6.486 -14.5244 -20.7225 
-9.932501 -19.2776 -24.1189 
-22.7241 -28.8721 
-32.3186 
-3.8445 -3.9755 -1.7565 -3.5905 -5.1845 -5.87 
-6.8335 -4.312 -5.224 -8.0375 -10.907 
-6.8925 -8.491 -9.572001 -14.1966 
-11.2065 -13.0348 -15.7403 
-15.7503 -19.2031 
