-4.759 
n/a 
n/a 
n/a 
n/a 
-4.759 
n/a 
n/a 
n/a 
n/a 
-4.759 
n/a 
n/a 
n/a 
n/a 
-4.759 
n/a 
n/a 
n/a 
n/a 
-2.4265 -2.742 -4.3185 -1.4985 -3.9355 -2.4285 -8.692 
-4.095 -5.702 -5.2455 -4.8035 -5.4415 -10.4855 
-6.933 -6.3325 -7.433 -6.709 -14.8083 
-7.6255 -9.252501 -9.4145 -16.4476 
-10.7801 -11.277 -19.4779 
-3.1435 -4.0935 -3.9355 -1.756 -5.1375 
-8.7845 -7.1665 -5.2215 -6.679 
-11.9085 -8.698 -7.0895 
-13.44 -10.1265 
-14.8685 
-5.1375 -1.756 -3.6185 
-6.2955 -6.199 
-9.627001 
n/a 
n/a 
-2.3615 -3.5795 -3.9355 -1.756 -5.1375 0 
-6.612 -7.308001 -5.2215 -6.679 -5.1375 
-10.4595 -8.776501 -7.0895 -6.679 
-11.928 -11.0523 -7.0895 
-14.2038 -11.0523 
