-4.759 
n/a 
n/a 
n/a 
n/a 
-4.759 
n/a 
n/a 
n/a 
n/a 
-4.759 
n/a 
n/a 
n/a 
n/a 
-4.759 
n/a 
n/a 
n/a 
n/a 
-4.065 -4.9225 -3.2955 -1.4985 -4.8005 -3.6885 -3.458 -5.1845 -4.6805 -1.756 -6.6585 -4.6805 -1.934 -3.9535 -1.7565 -6.6585 -11.128 -2.186 -9.9635 -3.098 -4.0385 -3.519 -3.5015 -1.934 -6.6585 -5.512 -4.065 -3.1385 -4.9385 -2.3335 -3.074 
-8.524 -8.405001 -4.8715 -5.281 -8.423 -7.056 -8.607 -9.292 -6.0645 -8.602501 -12.0976 -6.663 -6.644 -5.163 -8.343 -18.5451 -13.314 -11.8125 -13.8425 -7.3015 -6.646 -8.1915 -4.704 -7.809 -12.9291 -8.8055 -6.6145 -8.237 -7.506001 -5.496 
-12.2019 -9.153501 -9.537001 -10.044 -12.9963 -12.4732 -13.2107 -10.299 -13.8676 -14.2566 -14.0801 -12.0032 -7.513 -12.6067 -20.5404 -20.7311 -23.5325 -15.315 -16.974 -8.3745 -11.8293 -9.8505 -10.434 -14.5368 -16.2226 -11.7484 -12.126 -11.1869 -10.4505 
-12.9504 -13.9228 -14.4908 -14.7165 -18.4135 -17.0769 -14.2177 -18.1021 -19.5217 -16.2391 -19.4203 -12.8722 -15.0371 -24.8041 -22.7264 -30.9496 -26.443 -18.4465 -19.1398 -13.9886 -13.4883 -15.5355 -17.1618 -17.8303 -19.1655 -17.2599 -15.0759 -14.1314 
-17.7197 -18.8766 -19.1633 -20.1337 -23.0172 -18.0839 -22.0208 -23.7562 -21.5042 -21.5793 -20.2893 -20.3963 -27.2345 -26.9901 -32.9449 -33.8601 -29.5745 -20.6123 -24.7539 -15.6476 -19.1733 -22.2633 -20.4553 -20.7732 -24.677 -20.2098 -18.0204 
-7.746 -3.2955 -1.4985 -10.033 -3.9225 -1.4985 -6.4735 -1.756 -1.4985 -8.643001 -1.756 -4.9385 -1.4985 -11.039 -3.9535 -3.4425 0 -1.756 -7.125 -2.229 -4.015 -3.5435 -3.4425 -6.2335 -10.128 -1.934 -5.512 -1.756 -4.423 -3.325 -2.985 -3.4985 
-10.0645 -4.8715 -10.66 -14.0397 -4.463 -7.190001 -7.646501 -3.0405 -9.649 -10.038 -6.501 -5.916501 -13.7093 -15.4325 -7.3535 -3.4425 -1.756 -8.9335 -8.963501 -6.022 -7.380001 -6.8485 -10.459 -17.2361 -12.3218 -6.92 -7.411 -5.934 -7.816501 -5.788 -6.239 
-12.0751 -14.1446 -14.6667 -14.5802 -8.937 -8.261001 -8.578501 -11.4008 -11.0602 -14.783 -7.2625 -18.6753 -18.0248 -19.254 -7.3535 -4.9015 -8.9335 -10.647 -12.8347 -9.7355 -11.327 -14.5208 -21.4616 -19.4299 -17.3078 -7.9385 -12.076 -9.690001 -10.1465 -6.919 
-21.3482 -18.1513 -15.2072 -19.0542 -9.933001 -8.845 -17.3164 -12.812 -15.8052 -15.5445 -20.1307 -22.9908 -21.8463 -19.254 -8.712501 -12.8682 -10.647 -14.5182 -16.5482 -13.6811 -18.9993 -25.5234 -23.6554 -24.4159 -18.3263 -12.8097 -15.832 -12.2884 -11.2775 
-25.3549 -18.6918 -19.6812 -20.0502 -10.7375 -17.7539 -18.7276 -17.557 -16.5667 -28.4127 -24.4462 -26.8123 -21.8463 -20.6594 -16.9794 -14.5817 -14.5182 -18.2317 -20.4938 -21.3534 -30.0019 -27.7172 -28.6414 -25.4344 -23.1975 -16.5657 -18.4304 -13.4194 
-12.16972 -3.2345 -1.4985 -4.319 -3.6135 -3.222 -1.4985 -7.988 -3.9725 -1.756 -8.803 -10.3435 -4.732 -2.3335 -2.95 -1.4985 -3.307 -1.7565 -1.4985 -6.6585 -4.0935 -12.16972 0 -12.16972 -3.6825 -7.384 -3.2345 -3.672 -6.2335 -8.840501 -7.492001 -1.934 -5.512 -4.196 -6.55 -1.4985 -4.628 -8.1295 0 
-15.40422 -4.328 -5.231501 -7.751 -7.295 -3.7835 -9.135 -12.4857 -5.5515 -10.66 -19.3825 -15.8067 -7.120501 -4.8245 -4.514 -4.581 -4.8035 -2.4195 -9.0305 -11.5106 -17.35202 -12.16972 -12.16972 -15.85222 -12.1635 -11.1997 -7.147 -11.0833 -15.9486 -16.6613 -8.387501 -6.92 -10.8215 -12.2974 -8.139501 -6.298 -14.2129 -8.1295 
-16.49772 -7.9645 -9.666 -12.0959 -8.101001 -11.7834 -13.9361 -14.0647 -15.2881 -21.2395 -24.8457 -18.1952 -7.950001 -5.870501 -7.8865 -5.081501 -5.2765 -10.0745 -14.0614 -24.76912 -17.35202 -24.33944 -15.85222 -24.33322 -15.9792 -15.1122 -15.1515 -20.7984 -23.7694 -17.5568 -13.5357 -12.7653 -18.9229 -13.8869 -13.1492 -16.2635 -14.2129 
-20.13422 -12.6282 -14.0109 -12.9019 -16.3915 -16.5845 -15.5151 -23.8013 -25.8676 -26.7027 -27.2342 -19.0247 -9.093501 -8.859 -8.6785 -5.3855 -13.6437 -15.1054 -27.31992 -24.76912 -29.52174 -28.02194 -24.33322 -28.14892 -19.8917 -23.1167 -24.8666 -28.6192 -24.6649 -22.705 -19.381 -20.8667 -20.5124 -18.8966 -23.1147 -16.2635 
-24.79792 -16.9731 -14.8169 -21.1924 -21.1926 -18.1635 -25.2517 -34.3808 -31.3308 -29.0912 -28.0637 -20.1682 -12.1008 -9.553 -9.0755 -13.8979 -18.6746 -28.36392 -27.31992 -36.93884 -33.20424 -36.50294 -28.14892 -32.06142 -27.8962 -32.8318 -32.6874 -29.5147 -29.8131 -28.5503 -27.4824 -22.4562 -25.5221 -28.8621 -23.1147 
-4.231 -1.4985 -4.065 -5.692 -1.756 -4.9385 -1.4985 -6.3665 -4.0965 -2.9705 -2.7415 -4.06 -1.934 -3.7745 -9.4645 -1.756 -2.7415 -2.6165 -3.325 -1.4985 -7.4245 -5.362 -1.934 -5.512 
-6.0505 -4.824 -10.5865 -7.2995 -6.501 -5.916501 -7.741501 -9.975 -6.984 -4.512 -5.9455 -4.483 -5.196 -14.5252 -10.4595 -4.4655 -4.266 -5.85 -3.898 -9.295 -13.9873 -6.478001 -6.92 
-9.239 -10.66 -12.194 -12.5601 -7.2625 -12.7075 -10.304 -12.9119 -8.189501 -7.186 -6.534 -6.77 -17.0591 -15.5202 -13.6208 -6.0095 -7.318 -6.294001 -12.4021 -15.8578 -15.1033 -12.09 
-15.1748 -12.2675 -17.4546 -13.3216 -14.1629 -15.27 -13.2409 -14.1174 -10.322 -7.728001 -9.281 -18.7073 -18.0541 -18.6815 -15.1648 -8.804 -7.817 -15.4889 -18.9649 -16.9738 -20.7153 
-16.7823 -17.5281 -18.2161 -20.222 -16.7254 -18.2069 -14.4464 -16.2499 -10.608 -10.389 -21.2225 -19.7023 -21.2154 -20.2255 -17.9593 -9.3175 -17.0933 -22.0517 -20.0809 -22.5858 
