-4.759 
n/a 
n/a 
n/a 
n/a 
-4.759 
n/a 
n/a 
n/a 
n/a 
-4.759 
n/a 
n/a 
n/a 
n/a 
-4.759 
n/a 
n/a 
n/a 
n/a 
-4.031 -2.0935 -2.3335 -2.186 -1.4985 -3.0835 -3.5015 -1.7695 -2.489 -4.0865 -2.3345 -1.4985 -3.228 -4.153 -9.618 -2.186 -4.38 0 
-4.8935 -4.488501 -3.7085 -3.339 -3.535 -5.07 -4.5585 -3.1405 -6.337501 -5.434 -3.233 -3.9575 -6.1045 -14.6536 -12.1068 -7.561001 -4.38 
-6.5075 -6.410501 -4.897 -4.8925 -5.213 -6.6435 -5.835 -6.721 -6.8165 -6.3765 -6.373 -6.1835 -17.1463 -17.1424 -17.4818 -7.561001 
-7.0295 -7.238 -6.806 -7.189 -6.703501 -8.219001 -9.6485 -7.0595 -7.692 -9.521001 -9.450001 -17.2601 -19.6351 -22.5174 -17.4818 
-7.963 -9.528501 -8.736 -7.791501 -8.237 -10.0375 -9.939501 -8.087501 -10.9541 -12.598 -20.9112 -19.7489 -25.0101 -22.5174 
-1.4985 -4.031 -4.0995 -2.3615 -2.186 -2.3335 -1.934 -1.4985 -3.228 -4.153 -4.38 -2.7415 -1.4985 -3.0835 -3.5015 -1.7695 -2.489 -4.0865 -2.3345 -5.3085 
-4.771 -6.4225 -5.738 -3.5005 -3.9765 -4.468 -2.6125 -3.9575 -6.1045 -8.786501 -7.328 -4.063 -3.535 -5.07 -4.5585 -3.1405 -6.337501 -5.434 -7.4455 
-6.671 -7.1985 -6.930501 -5.7225 -5.8485 -5.0815 -4.7305 -6.1835 -11.2792 -10.0965 -8.384001 -5.12 -5.213 -6.6435 -5.835 -6.721 -6.8165 -8.885 
-7.3855 -7.724 -7.406001 -7.522 -6.4415 -6.808 -6.811 -11.393 -12.5892 -11.3045 -9.212501 -7.446001 -6.703501 -8.219001 -9.6485 -7.0595 -10.5425 
-7.8505 -8.051001 -8.9975 -8.123 -8.1265 -8.9315 -12.1311 -12.703 -13.7972 -12.133 -11.7515 -8.769001 -8.237 -10.0375 -9.939501 -11.0399 
-3.433 -4.38 -2.7415 -1.4985 -3.0835 -3.5015 -4.4465 -2.3345 -5.3085 -1.934 -3.228 -4.153 
-8.471001 -7.328 -4.063 -3.535 -5.07 -8.5695 -4.897501 -7.4455 -6.8945 -5.4695 -6.1045 
-9.6845 -8.384001 -5.12 -5.213 -10.0575 -9.160001 -8.4405 -8.9375 -11.295 -8.62 
-10.624 -9.212501 -7.446001 -10.0675 -10.7454 -12.9818 -9.2335 -13.5224 -14.4455 
-11.4525 -11.7515 -13.2939 -10.755 -14.5672 -13.7748 -14.0036 -16.6729 
-3.433 0 -4.031 -2.186 -4.38 -4.4465 -5.3085 -2.5045 -5.462 -3.5015 -1.934 -3.814 -4.153 0 
-3.433 -4.031 -5.555 -7.561001 -9.941 -9.525501 -7.941 -8.0895 -8.354 -4.704 -5.544 -6.542 -4.153 
-8.068001 -5.555 -11.635 -13.788 -15.1148 -12.4084 -13.8792 -11.5643 -9.752501 -9.019501 -8.9615 -6.542 
-8.978001 -11.635 -17.862 -18.9618 -17.9977 -18.3466 -17.354 -12.9628 -14.0928 -12.7206 -8.9615 
-15.2198 -17.862 -23.0358 -21.8447 -23.9359 -21.8214 -18.7525 -17.3031 -17.7939 -12.7206 
