-4.759 
n/a 
n/a 
n/a 
n/a 
-4.759 
n/a 
n/a 
n/a 
n/a 
-4.759 
n/a 
n/a 
n/a 
n/a 
-4.759 
n/a 
n/a 
n/a 
n/a 
-3.3985 -2.7035 0 -3.7925 -4.9225 -2.4945 -4.493 -2.3345 -1.4985 -3.2495 -4.6165 -4.8345 -2.9705 -2.186 -3.429 -3.5015 -1.934 -6.04 -1.934 -4.474 
-5.443501 -2.7035 -3.7925 -9.679001 -6.9525 -6.256001 -5.523 -3.233 -4.1915 -7.5495 -9.3395 -7.231 -3.89 -6.478001 -4.918 -4.704 -7.1995 -7.79 -5.7135 
-5.443501 -5.955 -9.679001 -11.709 -9.925 -7.068501 -6.4215 -6.112 -8.7535 -12.6409 -12.2836 -8.668501 -8.5635 -9.305 -5.58 -9.9505 -8.768001 -8.344501 
-10.298 -12.2293 -11.709 -14.6815 -11.2691 -7.9395 -9.317 -10.5855 -13.9089 -15.585 -13.7211 -13.481 -10.3345 -10.0105 -10.5225 -11.7066 -10.2035 
-16.5723 -14.2593 -14.6815 -16.0256 -12.1401 -10.9854 -13.9041 -15.7409 -16.853 -17.0225 -18.5336 -15.252 -11.04 -14.953 -12.7364 -13.1421 
-3.3985 -6.496 -3.1385 -3.3155 -4.493 -1.934 -1.4985 -3.2495 -4.8995 -3.995 -6.1115 -2.3335 -4.0875 -3.5015 -1.934 -6.04 0 
-8.695001 -8.976501 -6.4805 -8.318501 -5.1865 -2.6125 -4.1915 -8.211 -9.5415 -7.661 -8.267 -5.637 -5.143 -4.704 -7.1995 -6.04 
-14.819 -13.9 -9.092001 -9.029 -6.0855 -5.6215 -9.1485 -13.146 -13.6977 -9.6775 -10.5325 -6.0175 -5.692 -9.9505 -7.1995 
-18.243 -16.5115 -9.708 -9.608001 -8.743501 -10.6335 -14.1139 -17.3022 -15.7142 -11.876 -10.719 -6.4845 -10.6735 -9.9505 
-20.8545 -17.1275 -10.556 -12.266 -14.2907 -15.5989 -18.2701 -19.3187 -17.9127 -12.0625 -11.186 -11.6348 -10.6735 
-3.3985 -2.7035 -1.934 -4.474 -6.04 -3.291 -3.291 -2.95 -3.2345 -1.4985 -3.873 -5.4785 -4.675 -1.4985 -3.7925 -4.9225 0 
-5.443501 -5.1845 -5.7135 -7.6985 -9.807001 -6.021501 -5.0635 -6.4605 -4.328 -4.7405 -9.772501 -10.9075 -6.366 -5.824 -9.679001 -4.9225 
-7.8595 -9.495001 -9.288501 -11.9991 -12.7613 -9.002001 -8.06 -7.7185 -7.7555 -10.2535 -15.2353 -12.5985 -11.1873 -12.5171 -9.679001 
-12.4732 -13.163 -13.7687 -14.9534 -15.7418 -12.1323 -9.2305 -10.6215 -13.5955 -15.7163 -16.9263 -17.4198 -17.8804 -12.5171 
-16.1412 -17.6432 -16.723 -17.9339 -18.8721 -13.3028 -12.2145 -16.4615 -19.0583 -17.4073 -21.7476 -24.1129 -17.8804 
-3.3985 -2.7035 0 -1.934 -1.4985 -3.251 -1.7695 -3.251 -5.2805 -2.3335 -4.548 -1.934 -9.9545 -3.8375 -1.7565 -4.474 -2.645 -3.1575 -3.7925 -3.1385 -4.424 
-5.443501 -2.7035 -1.934 -2.6125 -4.617001 -3.664 -5.2 -9.410501 -7.3925 -5.731501 -5.3885 -12.8949 -13.9178 -5.3875 -6.192 -7.514 -3.72 -5.835501 -6.814 -6.278501 
-5.443501 -5.1845 -2.6125 -5.381001 -6.356 -5.7055 -9.561001 -11.6715 -8.446501 -6.383 -16.8944 -16.8582 -15.4678 -8.7215 -8.9975 -8.6145 -5.924 -7.838 -9.0415 
-7.8595 -5.9735 -5.381001 -7.315001 -7.3135 -9.561001 -11.8866 -12.7255 -8.802 -18.1119 -20.8577 -18.4082 -18.8018 -11.66 -9.738 -10.382 -7.8495 -9.633501 
-8.4245 -9.169001 -7.315001 -8.7075 -10.717 -11.8866 -12.9406 -13.081 -20.8227 -22.0752 -22.4077 -21.7422 -21.7403 -12.4005 -11.5055 -12.3075 -9.639 
