-4.759 
n/a 
n/a 
n/a 
n/a 
-4.759 
n/a 
n/a 
n/a 
n/a 
-4.759 
n/a 
n/a 
n/a 
n/a 
-4.759 
n/a 
n/a 
n/a 
n/a 
-3.1495 -4.8025 -3.468 -4.299 -1.4985 -9.3225 -4.717 -3.321 -3.676 -2.229 -4.6895 -3.8275 -4.4665 0 -2.5685 -3.2295 -3.7825 -5.233 -3.468 -3.613 -2.3615 
-7.842 -8.7255 -8.43 -5.682 -11.9148 -14.5513 -8.182 -7.6245 -4.593 -7.035501 -7.198501 -7.767 -4.4665 -2.5685 -4.661 -6.0445 -10.228 -8.736501 -7.4585 -5.4065 
-12.2966 -14.3081 -10.1 -16.4453 -17.1436 -18.0163 -12.6871 -8.4925 -10.041 -9.415501 -11.982 -7.767 -7.045501 -4.661 -9.2215 -13.5422 -13.7315 -13.2558 -9.436001 
-17.8792 -15.9781 -20.8633 -21.6741 -20.6086 -22.5214 -13.5551 -13.9751 -12.421 -13.9246 -11.982 -9.978001 -7.580501 -9.2215 -16.6136 -17.0457 -18.2508 -15.2333 
-19.5492 -26.7414 -26.0921 -25.1391 -25.1137 -23.3894 -19.0377 -16.3551 -16.9301 -13.9246 -14.193 -10.7225 -12.8132 -16.6136 -20.1171 -21.565 -20.2283 
-2.264 -1.4985 -4.299 -2.3345 -3.1495 -3.468 -3.8755 -4.101 -3.8275 -1.934 -3.676 -1.756 -2.8965 -3.7825 -5.233 -3.959 -3.918 
-2.9195 -5.463 -6.064 -5.217 -6.167 -7.451 -8.2015 -7.710001 -5.2615 -4.7985 -5.0365 -3.751 -6.405 -10.228 -10.0575 -7.77 
-6.764501 -7.33 -8.788 -8.301001 -9.908001 -11.9348 -12.0481 -9.054501 -7.672 -6.0785 -7.0035 -7.8525 -13.0405 -15.0525 -13.8685 
-8.829 -10.218 -12.0222 -12.1846 -14.429 -15.7814 -13.3926 -11.4676 -9.005 -8.088 -11.9566 -15.2166 -17.865 -18.8635 
-11.805 -13.4522 -15.9058 -16.7056 -18.2756 -17.1259 -15.8057 -12.8006 -11.1863 -13.3987 -19.3207 -20.0411 -21.676 
-1.4985 -4.101 -4.5165 -3.9535 -1.934 -3.676 -3.851 -1.7695 -1.4985 -4.299 -2.264 -1.4985 -5.87 -4.717 -2.3345 -1.4985 -5.3105 -1.756 -3.7825 -3.959 -3.325 -5.362 -3.074 -3.918 -1.934 -1.4985 -5.3105 0 
-4.997 -8.102501 -8.1415 -5.3325 -4.7985 -7.574 -4.0015 -2.7955 -5.463 -5.322001 -2.9195 -7.637 -10.1345 -7.1525 -3.233 -7.3865 -6.4135 -5.3135 -6.5535 -6.8285 -9.421 -8.707001 -6.644 -6.013 -2.6125 -7.3865 -5.3105 
-9.218 -12.1273 -9.2235 -8.312 -8.39 -7.6245 -4.5775 -6.831 -6.2565 -5.951 -9.1835 -12.3607 -12.97 -8.3865 -9.112 -8.473001 -10.634 -8.35 -9.012001 -13.5507 -13.1872 -12.4678 -7.701 -6.572001 -8.888 -7.3865 
-13.436 -13.2093 -12.4012 -12.2007 -8.43 -8.1995 -8.6155 -7.3435 -6.738 -12.6484 -14.1586 -15.1962 -14.204 -14.5761 -10.1855 -12.8261 -13.6705 -11.0007 -16.1686 -17.3169 -16.948 -13.5248 -8.074 -13.2683 -8.888 
-14.518 -16.387 -16.2899 -12.2407 -8.929001 -12.3635 -9.361501 -8.101501 -13.6876 -17.6235 -16.9941 -16.4302 -20.3936 -15.6496 -14.7552 -15.8626 -16.3212 -18.1573 -19.9348 -21.0777 -18.005 -13.8978 -14.9561 -13.2683 
-2.3615 -6.442 -4.39 -3.43 -4.319 -3.7015 -8.2215 -4.717 -2.9705 -2.7415 -1.4985 -4.0195 -1.7565 -2.8195 -3.8275 -1.934 -3.676 -3.074 -3.7825 -4.9175 -3.959 -6.442 -2.356 -2.3615 -3.4225 -4.39 0 
-9.361 -11.6552 -8.0205 -8.976001 -5.442 -12.913 -13.3813 -7.654 -4.512 -4.063 -5.06 -4.874001 -5.102 -7.4925 -5.2615 -4.7985 -7.004 -7.252 -8.592001 -9.156 -10.9315 -8.150001 -4.2185 -7.035 -4.7525 -4.39 
-14.6586 -15.2857 -13.7543 -10.477 -15.4347 -18.0728 -16.3183 -8.6225 -5.831 -6.658 -5.29 -8.118 -10.3095 -9.3325 -7.672 -7.8915 -11.5134 -12.1341 -13.3537 -16.4725 -12.6395 -10.2683 -9.2145 -8.139 -4.7525 
-18.2891 -21.0195 -15.2553 -20.4697 -20.5945 -21.0098 -17.2868 -9.738501 -8.0705 -6.785 -9.2795 -14.4445 -12.1495 -12.123 -11.085 -12.5331 -16.3955 -16.8958 -20.6702 -18.1805 -14.7578 -15.2643 -10.1595 -8.139 
-24.0229 -22.5205 -25.248 -25.6295 -23.5315 -21.9783 -18.4028 -12.078 -8.131001 -11.1921 -16.0066 -16.2845 -14.94 -15.536 -15.7266 -17.4152 -21.1572 -24.2123 -22.3782 -20.2988 -19.7538 -16.2093 -10.1595 
