-4.759 
n/a 
n/a 
n/a 
n/a 
-4.759 
n/a 
n/a 
n/a 
n/a 
-4.759 
n/a 
n/a 
n/a 
n/a 
-4.759 
n/a 
n/a 
n/a 
n/a 
-5.1845 -5.74 -3.873 -3.9515 -3.873 -3.9515 -3.5025 -3.5435 
-5.7465 -9.120001 -8.303 -8.472501 -8.303 -7.528 -7.911 
-9.1715 -14.3496 -13.2008 -10.5865 -12.2563 -12.9153 
-14.3983 -19.2474 -15.3148 -14.5398 -17.6436 
-19.2961 -21.3614 -19.2681 -19.9271 
-6.557 -12.16972 0 -3.4605 -2.0935 -5.436 
-19.41612 -12.16972 -3.4605 -5.0435 -7.875 
-19.41612 -15.63022 -5.0435 -11.414 
-22.87662 -17.21322 -11.414 
-24.45962 -23.58372 
-6.557 -8.234 -6.557 -8.234 -3.4605 
-10.784 -15.538 -10.784 -12.4415 
-18.088 -19.765 -14.9915 
-22.315 -23.9725 
-26.5225 
-6.557 -4.7615 -3.482 -3.915 -3.5435 -3.4605 -2.0935 -4.7615 -3.482 
-12.0079 -9.1905 -7.108 -6.427 -6.471001 -5.0435 -7.2625 -9.1905 
-16.4369 -12.9819 -10.684 -7.607 -7.655001 -10.0995 -12.0543 
-20.2283 -16.5579 -11.864 -8.0985 -13.4508 -14.9825 
-23.8043 -17.7379 -12.3555 -14.8013 -18.3338 
