-4.759 
n/a 
n/a 
n/a 
n/a 
-4.759 
n/a 
n/a 
n/a 
n/a 
-4.759 
n/a 
n/a 
n/a 
n/a 
-4.759 
n/a 
n/a 
n/a 
n/a 
-8.918501 -1.756 -3.644 -4.2655 -1.7565 -3.8475 -5.045 -1.4985 -3.9005 -1.7565 -2.925 -1.756 -3.539 0 
-10.451 -5.6485 -8.2325 -6.026 -5.437 -9.597 -6.222 -4.797 -6.763 -5.167 -4.335 -5.2365 -3.539 
-14.3435 -10.354 -10.1635 -9.755501 -11.6935 -10.7316 -9.838 -7.573501 -10.316 -6.948 -5.3815 -5.2365 
-19.049 -12.346 -14.2552 -16.2384 -12.8281 -14.3476 -12.6145 -11.2881 -11.4784 -7.6615 -5.3815 
-21.041 -16.4377 -20.7381 -17.373 -16.4441 -17.1241 -16.3291 -12.4505 -12.1919 -7.6615 
-5.891 -4.5085 -2.5045 -4.517 -1.934 -6.645 -1.934 -1.4985 -3.8475 0 -5.891 -3.402 -4.461 -1.756 -4.9085 -3.9535 0 
-9.959001 -6.879 -6.3905 -5.145 -8.3435 -8.342501 -2.6125 -5.09 -3.8475 -5.891 -7.641 -7.6335 -5.934501 -6.3425 -9.766001 -3.9535 
-13.0811 -9.846001 -6.6355 -12.4045 -10.1765 -8.934501 -6.397 -5.09 -9.2005 -7.641 -10.19 -9.1265 -8.5965 -11.503 -9.766001 
-16.0481 -10.054 -14.2802 -14.2375 -10.6675 -12.8218 -6.397 -11.3046 -11.1375 -10.19 -11.4266 -12.0279 -14.2888 -11.503 
-16.2561 -17.7825 -16.1132 -14.7285 -14.5548 -12.8218 -12.7396 -13.2416 -13.6865 -11.4266 -14.328 -17.7202 -14.2888 
-1.4985 -5.891 -4.1695 -1.934 -6.645 -4.3195 -1.4985 -3.918 -2.0935 -5.891 -3.2 -1.756 -4.4605 -1.756 -5.1595 -1.934 -2.8705 -3.8475 
-6.9925 -9.7745 -5.8275 -8.3435 -9.854501 -5.1515 -4.8715 -5.5555 -8.442501 -6.864 -4.5345 -6.680501 -5.6125 -6.019 -6.8075 -4.1055 -5.611 
-10.5745 -11.4325 -13.2466 -11.755 -10.2365 -8.210501 -6.561501 -12.3089 -10.1815 -7.936501 -9.406 -7.970001 -6.0405 -7.1985 -8.723001 -6.071001 
-12.2325 -18.8516 -16.6581 -12.137 -13.5893 -8.6085 -13.6565 -14.0479 -11.254 -13.0998 -10.8439 -8.154 -7.2085 -8.884501 -10.9215 
-19.6516 -22.2631 -17.0401 -15.4898 -13.9873 -15.8539 -15.3955 -15.1204 -16.4173 -14.5377 -11.0279 -9.305501 -8.899501 -11.1878 

n/a 
n/a 
n/a 
n/a 
