-4.759 
n/a 
n/a 
n/a 
n/a 
-4.759 
n/a 
n/a 
n/a 
n/a 
-4.759 
n/a 
n/a 
n/a 
n/a 
-4.759 
n/a 
n/a 
n/a 
n/a 
-5.036 -3.8225 -4.6555 -1.756 -5.148 -2.871 -1.7565 -1.4985 -3.355 0 
-8.774 -7.008 -5.774 -6.4275 -8.720501 -3.5385 -2.4195 -4.951 -3.355 
-11.25 -8.4855 -11.4089 -9.7915 -9.266001 -3.7675 -6.329 -4.951 
-12.8687 -14.374 -14.7729 -10.278 -9.415001 -8.324 -6.329 
-18.7572 -17.738 -15.2594 -10.4385 -14.0527 -8.324 
-1.4985 -2.985 -3.2785 -2.186 -1.8085 -3.4185 -1.7565 -3.8225 -4.6555 -4.39 -1.756 -1.4985 -5.148 
-4.1115 -4.88 -5.773 -3.164 -4.1435 -4.2475 -5.142 -7.008 -9.287001 -5.675 -3.0405 -6.224501 
-5.686501 -7.3405 -6.6035 -5.1045 -4.5105 -8.856 -8.595 -9.995001 -10.3755 -6.516 -7.6845 
-7.59 -8.335501 -9.029 -5.159 -9.199 -12.815 -11.736 -10.558 -11.5335 -9.779 
-8.785501 -9.966001 -9.068001 -9.7735 -13.0616 -15.956 -12.299 -12.0424 -14.7965 
-2.871 -1.7565 -1.4985 -5.124 -4.834 -3.959 -1.756 -5.148 0 
-3.5385 -2.4195 -6.665501 -10.784 -7.1085 -5.173 -6.4275 -5.148 
-3.7675 -7.681001 -13.2123 -13.0585 -8.166 -8.903501 -6.4275 
-9.832001 -14.2824 -15.4868 -14.116 -12.2105 -8.903501 
-16.7382 -16.5569 -16.5443 -18.1605 -12.2105 
-8.8585 -4.6555 -4.39 -1.756 -5.148 -2.4945 -3.499 0 
-11.9595 -9.287001 -5.675 -6.4275 -7.9025 -5.685 -3.499 
-14.237 -10.3755 -8.263 -8.243 -10.634 -5.685 
-14.9412 -13.2805 -9.9455 -11.0815 -10.634 
-18.1726 -14.963 -12.784 -11.0815 
