-4.759 
n/a 
n/a 
n/a 
n/a 
-4.759 
n/a 
n/a 
n/a 
n/a 
-4.759 
n/a 
n/a 
n/a 
n/a 
-4.759 
n/a 
n/a 
n/a 
n/a 
-2.3615 -3.193 -2.186 -4.1205 -1.7695 -3.002 -5.1805 -2.5045 -7.219 0 
-5.0835 -5.2605 -5.007 -5.1155 -5.5605 -9.167001 -6.8345 -9.273001 -7.219 
-6.8245 -7.8975 -5.68 -9.26 -12.3193 -11.0894 -10.298 -9.273001 
-8.9735 -8.6265 -9.901 -16.334 -14.2417 -14.5529 -10.298 
-9.484 -13.1273 -16.975 -18.2564 -17.7052 -14.5529 
-2.3615 -3.193 -2.7415 -4.7815 -1.7695 -2.489 -5.1805 -2.5045 -7.219 0 
-5.0835 -5.7205 -6.3505 -5.3125 -3.1405 -6.4485 -6.8345 -9.273001 -7.219 
-7.1595 -9.696 -6.6085 -5.514 -6.999001 -7.7615 -10.298 -9.273001 
-11.4736 -9.746 -6.8425 -10.328 -8.279 -11.4262 -10.298 
-11.5236 -10.315 -11.7905 -11.8794 -12.0755 -11.4262 
-3.0415 -2.7295 -3.849 -2.3335 -3.193 -2.186 -5.1805 -2.5045 -6.263 
-4.5875 -6.1875 -6.559 -5.214 -5.2605 -6.3525 -6.8345 -8.6875 
-7.5505 -8.356001 -8.7725 -7.0335 -7.272 -7.4865 -10.31 
-9.9455 -10.4185 -10.8088 -9.869 -8.623501 -10.575 
-12.008 -12.4548 -13.6443 -10.158 -11.7316 
-4.426 -1.7565 -1.4985 -3.6115 -4.7285 -4.1555 -3.147 -2.3335 -3.193 -5.12 -2.5045 -1.8085 -7.219 0 
-5.47 -2.4195 -4.081 -6.5495 -8.4455 -5.77 -5.4685 -5.214 -7.446 -7.9505 -3.3625 -9.4855 -7.219 
-5.9535 -5.180501 -6.670501 -9.978001 -9.541501 -8.932501 -8.521501 -10.634 -10.9653 -9.4855 -12.0191 -9.4855 
-8.462501 -7.797 -10.054 -11.0524 -12.704 -12.3263 -14.0811 -14.1533 -12.5003 -18.1827 -12.0191 
-10.2375 -11.2985 -11.1648 -14.2149 -16.0978 -17.8859 -17.6004 -15.6883 -21.1975 -18.1827 
