-4.759 
n/a 
n/a 
n/a 
n/a 
-4.759 
n/a 
n/a 
n/a 
n/a 
-4.759 
n/a 
n/a 
n/a 
n/a 
-4.759 
n/a 
n/a 
n/a 
n/a 
-2.3335 -5.7405 -8.031 
-8.422001 -14.9853 
-18.0998 
n/a 
n/a 
-1.934 -2.3615 -3.8685 -3.0365 -2.7415 -2.847 -3.8275 
-3.539 -5.351501 -6.802 -4.2225 -4.8165 -6.5325 
-6.216 -8.226501 -7.941 -4.944 -8.084001 
-8.698 -9.402 -8.564501 -8.1315 
-9.861 -10.16 -11.8716 
-3.1495 -4.2695 -3.152 -4.3895 -3.034 -3.0365 -2.186 -2.847 -4.299 0 
-6.032001 -6.6305 -6.313001 -6.8295 -5.0555 -3.66 -4.1045 -7.416501 -4.299 
-7.805501 -9.4525 -8.801001 -9.0205 -5.3475 -4.256001 -8.4775 -7.416501 
-10.6757 -11.8111 -11.1198 -9.2065 -6.111001 -8.568501 -8.4775 
-13.0343 -14.1299 -11.3058 -9.8765 -9.276501 -8.568501 
-1.934 -2.3615 -2.95 -2.6165 -5.688 -2.3335 -4.238 
-3.539 -4.4645 -5.76 -7.1715 -8.005501 -7.144501 
-6.3285 -7.0115 -11.0004 -9.209001 -12.9559 
-9.321501 -12.8869 -13.0379 -14.232 
-15.3203 -14.9244 -18.0609 
