-4.759 
n/a 
n/a 
n/a 
n/a 
-4.759 
n/a 
n/a 
n/a 
n/a 
-4.759 
n/a 
n/a 
n/a 
n/a 
-4.759 
n/a 
n/a 
n/a 
n/a 
-3.047 0 -6.019 -5.74 -4.432 -4.328 -3.254 
-3.047 -6.019 -9.3075 -10.304 -4.899 -8.2685 
-9.3675 -9.3075 -13.9071 -10.4525 -8.4515 
-12.8186 -13.9071 -14.0556 -14.005 
-17.4182 -14.0556 -17.6081 
-3.868 0 -3.254 -1.7565 -5.1845 -5.74 -4.156 -4.328 -3.968 
-3.868 -3.254 -4.0065 -6.580501 -5.7465 -8.1495 -6.2095 -9.445 
-7.288501 -4.0065 -9.036 -6.961501 -8.152 -8.168 -10.733 
-7.484001 -9.036 -10.209 -9.3795 -8.17 -13.6145 
-13.4931 -10.209 -12.819 -9.416501 -13.6147 
-3.61 -2.5045 0 -1.4985 -3.254 -1.7565 -6.557 -4.156 -5.0075 0 
-4.1825 -2.5045 -1.4985 -4.4095 -4.0065 -7.653501 -9.4685 -7.372 -5.0075 
-4.1825 -3.1915 -4.4095 -4.8735 -10.66 -10.7495 -13.9247 -7.372 
-4.6695 -6.626 -4.8735 -11.8388 -13.756 -15.0659 -13.9247 
-7.0015 -6.836501 -11.8388 -14.9348 -18.0724 -15.0659 
-2.9635 0 -3.254 -1.7565 -4.156 -5.0075 -1.934 -6.557 
-2.9635 -3.254 -4.0065 -5.985001 -7.372 -6.449 -7.536 
-5.7305 -4.0065 -8.496 -8.259001 -8.915 -12.7538 
-6.5555 -8.496 -9.078501 -9.777501 -15.3546 
-12.0986 -9.078501 -10.3815 -16.3225 
