-4.759 
n/a 
n/a 
n/a 
n/a 
-4.759 
n/a 
n/a 
n/a 
n/a 
-4.759 
n/a 
n/a 
n/a 
n/a 
-4.759 
n/a 
n/a 
n/a 
n/a 
-2.4265 -3.074 -3.793 -1.934 -5.3885 0 -6.251 0 -6.3215 0 -6.873 0 -6.7905 0 -7.166501 0 
-4.605 -6.259501 -4.752 -6.4035 -5.3885 -6.251 -6.251 -6.3215 -6.3215 -6.873 -6.873 -6.7905 -6.7905 -7.166501 -7.166501 
-8.432 -6.87 -9.3585 -6.4035 -7.337 -6.251 -8.556001 -6.3215 -8.8855 -6.873 -9.2565 -6.7905 -10.0715 -7.166501 
-9.925 -11.6653 -9.3585 -9.427501 -7.337 -8.556001 -8.556001 -8.8855 -8.8855 -9.2565 -9.2565 -10.0715 -10.0715 
-14.6743 -11.6653 -12.9313 -9.427501 -9.212 -8.556001 -9.657001 -8.8855 -10.4425 -9.2565 -13.0651 -10.0715 
-2.4265 -2.186 -4.467 -2.5195 -5.3885 0 -7.955501 0 -6.3215 0 -9.829 0 -6.7905 -1.756 -8.191501 0 
-3.292 -5.8915 -6.128 -7.26 -5.3885 -7.955501 -7.955501 -6.3215 -6.3215 -9.829 -9.829 -6.7905 -8.7295 -9.9485 -8.191501 
-7.082 -8.049 -12.0039 -7.26 -10.3545 -7.955501 -10.533 -6.3215 -17.0389 -9.829 -16.6953 -8.7295 -17.0552 -9.9485 
-9.243501 -14.0915 -12.0039 -12.6786 -10.3545 -10.533 -10.533 -17.0389 -17.0389 -16.6953 -18.6343 -17.0552 -17.0552 
-15.4722 -14.0915 -17.4225 -12.6786 -10.729 -10.533 -21.2504 -17.0389 -23.9052 -18.6343 -26.96 -17.0552 
-3.1495 -4.467 -5.3885 0 -8.861501 0 -6.3215 0 -6.873 0 -8.6335 0 -1.756 -7.166501 0 
-7.842 -11.2211 -5.3885 -8.861501 -8.861501 -6.3215 -6.3215 -6.873 -6.873 -8.6335 -8.6335 -1.756 -8.9135 -7.166501 
-14.8183 -11.2211 -15.2178 -8.861501 -15.7194 -6.3215 -8.8855 -6.873 -16.2275 -8.6335 -10.61 -8.9135 -8.9135 
-14.8183 -21.0504 -15.2178 -15.7194 -15.7194 -8.8855 -8.8855 -16.2275 -16.2275 -10.61 -17.7675 -8.9135 
-24.6476 -21.0504 -22.0757 -15.7194 -18.2834 -8.8855 -18.6708 -16.2275 -18.204 -17.7675 -17.7675 
-2.4265 -2.186 -3.793 -2.5195 -5.3885 0 -7.955501 0 -6.3215 0 -6.873 0 -6.7905 -1.756 -7.166501 0 
-3.292 -5.3225 -6.4805 -7.26 -5.3885 -7.955501 -7.955501 -6.3215 -6.3215 -6.873 -6.873 -6.7905 -8.7295 -8.9135 -7.166501 
-6.444 -8.092501 -9.124001 -7.26 -10.3545 -7.955501 -10.533 -6.3215 -8.8855 -6.873 -9.2565 -8.7295 -16.0202 -8.9135 
-9.401501 -11.1496 -9.124001 -12.6786 -10.3545 -10.533 -10.533 -8.8855 -8.8855 -9.2565 -11.7231 -16.0202 -16.0202 
-12.5556 -11.1496 -15.202 -12.6786 -10.729 -10.533 -13.097 -8.8855 -10.4425 -11.7231 -19.0138 -16.0202 
