-4.759 
n/a 
n/a 
n/a 
n/a 
-4.759 
n/a 
n/a 
n/a 
n/a 
-4.759 
n/a 
n/a 
n/a 
n/a 
-4.759 
n/a 
n/a 
n/a 
n/a 
-2.664 -4.4525 -1.7695 -3.5015 -1.934 -4.1865 -3.9675 0 
-7.2575 -5.610001 -5.0115 -4.704 -5.967 -6.6535 -3.9675 
-8.434 -9.389001 -6.7105 -8.5515 -7.993 -6.6535 
-12.392 -10.4605 -11.0734 -9.808001 -7.993 
-13.4635 -15.235 -12.3299 -9.808001 
-4.1865 -4.2465 -4.725 -2.186 -3.2955 -2.0935 -3.469 -3.4795 -3.393 0 -1.756 -2.4265 -3.0465 -1.8085 -3.299 -3.8685 -3.074 
-7.378 -11.1415 -7.432501 -4.348001 -4.307 -5.214 -6.654 -4.3425 -3.393 -1.756 -3.949 -5.695 -4.1205 -4.4725 -7.092501 -6.9925 
-14.9286 -13.849 -9.887501 -5.274 -7.2435 -8.0115 -9.492001 -4.3425 -5.1685 -3.949 -8.0255 -7.125 -6.815001 -7.5645 -10.2865 
-17.6361 -16.304 -10.9549 -8.261001 -10.5752 -11.2515 -9.492001 -6.339 -6.388 -8.0255 -9.581 -9.763 -9.525001 -11.0893 
-20.0911 -17.3714 -13.9419 -11.6543 -13.8152 -11.2515 -10.576 -7.5345 -11.0585 -9.581 -12.479 -12.5384 -13.2442 
-1.934 -4.1865 -3.9675 -4.725 -2.186 -4.946 -1.8085 -4.5735 -3.9825 
-5.967 -6.6535 -9.776001 -7.432501 -6.8885 -5.884 -7.467501 -8.722 
-7.993 -12.9996 -12.5509 -12.456 -7.730501 -12.2552 -11.831 
-14.4555 -15.7745 -17.5744 -13.298 -14.4339 -16.6187 
-17.2304 -20.798 -18.4164 -20.0014 -18.7974 
-4.725 -3.7875 -3.469 -3.393 -1.934 -3.5015 -1.934 -4.1865 -3.9675 
-9.689001 -7.064 -5.4495 -5.2805 -4.5885 -4.704 -5.967 -6.6535 
-12.9747 -8.330501 -6.983 -9.0795 -6.092 -8.5515 -7.993 
-14.2412 -10.2446 -11.2804 -11.5192 -10.2175 -9.808001 
-16.1553 -14.542 -13.7201 -15.6447 -11.474 
