-4.759 
n/a 
n/a 
n/a 
n/a 
-4.759 
n/a 
n/a 
n/a 
n/a 
-4.759 
n/a 
n/a 
n/a 
n/a 
-4.759 
n/a 
n/a 
n/a 
n/a 
-2.5045 -1.4985 -4.2245 -1.7565 -7.228 -7.7435 -1.756 -1.4985 -9.662001 -1.7565 -7.403 -7.0385 0 -7.1905 -2.7415 -1.7565 -6.5425 -4.2705 -2.4265 -2.7415 -3.5455 -3.091 -5.362 -2.3335 -1.4985 -7.16 -4.518 -2.985 -5.226 -1.7565 -3.519 
-3.583 -5.219 -4.942 -8.838 -8.5115 -9.0455 -3.0405 -10.0515 -10.573 -8.5965 -8.0885 -7.0385 -7.1905 -9.4995 -5.591001 -7.835001 -10.348 -6.9635 -3.681 -6.1695 -5.242001 -6.61 -7.788001 -3.3515 -7.3275 -10.5535 -6.59 -8.244 -6.5115 -5.03 
-6.819 -5.361001 -9.584001 -9.4055 -9.762501 -10.007 -8.887 -8.9715 -13.206 -9.045501 -8.0885 -15.032 -9.4995 -12.6288 -10.204 -10.361 -13.041 -7.957 -6.375 -7.436 -7.358001 -8.482 -8.569 -8.9495 -10.575 -12.6255 -9.091001 -9.6905 -9.0105 
-6.885 -10.3605 -10.599 -10.4865 -10.7525 -15.524 -9.4835 -12.639 -11.508 -9.045501 -16.2306 -17.341 -12.6288 -17.2418 -13.1196 -13.054 -14.0345 -10.122 -7.574501 -8.963 -8.8625 -8.9895 -14.3124 -12.396 -12.647 -15.1265 -10.1115 -10.497 
-12.3345 -10.7705 -11.68 -11.4765 -16.504 -15.94 -12.292 -11.2945 -10.85 -17.3768 -18.5396 -20.4703 -17.2418 -20.1574 -15.8126 -14.0475 -16.1995 -11.6307 -8.986501 -9.057501 -9.1675 -14.7803 -17.7589 -14.468 -15.148 -16.147 -11.0254 
-3.7925 0 -6.933001 -3.8405 -2.7415 -4.5475 -3.8405 -2.5045 -3.543 -3.135 -3.1385 
-3.7925 -6.933001 -8.9175 -6.0775 -8.123 -7.0425 -5.834 -5.323 -7.985001 -4.8745 
-11.6743 -8.9175 -11.2273 -11.8948 -10.9526 -9.1365 -8.1825 -8.527 -9.5205 
-13.6588 -11.2273 -17.0446 -14.7244 -13.0466 -11.7742 -11.6941 -10.2167 
-15.9686 -17.0446 -19.8742 -16.8184 -15.6843 -15.2858 -13.3838 
-3.6705 -2.871 -3.998 -2.186 -3.0365 -2.3335 -7.044 -3.8405 -2.7415 -1.4985 -4.5475 -3.7515 0 
-6.038 -6.568 -6.1505 -4.5415 -5.474 -10.016 -11.4123 -6.0775 -4.063 -5.662001 -7.793 -3.7515 
-9.4375 -8.068501 -8.121 -6.9025 -13.6977 -14.3843 -13.6493 -7.3195 -8.484501 -8.0045 -7.793 
-10.7185 -10.151 -10.389 -15.3702 -18.066 -16.6213 -14.8913 -11.827 -10.368 -8.0045 
-12.801 -12.624 -18.8567 -19.7385 -20.303 -17.8633 -19.3988 -13.7105 -10.368 
-3.4765 -3.929 -3.0365 -2.186 -3.571 -3.992 -12.16972 -3.8405 -2.186 -4.5475 -3.7515 
-4.589 -5.627 -3.66 -5.0315 -7.067 -17.40952 -16.01022 -5.629 -7.378 -7.793 
-6.1375 -6.2205 -5.811 -8.870001 -21.17912 -21.25002 -17.79872 -10.4265 -10.348 
-6.697001 -8.549 -9.2445 -23.29692 -25.01962 -23.03852 -22.59622 -13.7411 
-9.263 -12.0927 -23.85942 -27.13742 -26.80812 -27.83602 -25.91082 
