-4.759 
n/a 
n/a 
n/a 
n/a 
-4.759 
n/a 
n/a 
n/a 
n/a 
-4.759 
n/a 
n/a 
n/a 
n/a 
-4.759 
n/a 
n/a 
n/a 
n/a 
-3.5455 -4.6335 -5.675 -1.4985 -3.935 -1.7695 -3.959 -4.87 -4.431 -1.756 -4.434 -1.4985 -5.233 -5.2875 -2.356 -3.5035 0 
-8.6245 -8.9355 -6.7545 -5.785 -5.7105 -6.2225 -9.745501 -10.0545 -6.1095 -5.863 -5.8565 -6.387 -10.862 -7.801001 -6.1235 -3.5035 
-13.2639 -9.6375 -11.3854 -8.0055 -10.8459 -12.9466 -15.2024 -11.7314 -9.495501 -7.05 -10.259 -13.2786 -13.3755 -11.8679 -6.1235 
-13.9659 -14.2684 -13.6059 -13.4641 -17.57 -18.4035 -16.8793 -15.1174 -9.907001 -11.8511 -17.1506 -15.7921 -17.4424 -11.8679 
-18.5968 -16.4889 -19.0645 -20.1882 -23.0269 -20.0804 -20.2653 -15.5289 -15.8693 -18.7427 -19.6641 -19.859 -17.4424 
-3.5455 -2.229 -4.02 -3.9875 -1.7695 -1.4985 -4.3705 -4.87 -1.756 -3.074 -3.498 -1.7565 -1.4985 -5.309 -2.3345 -3.5035 
-6.485001 -5.611 -8.264 -4.6185 -2.7955 -5.6335 -7.961 -6.157001 -4.566 -7.1075 -4.005 -2.4195 -6.3065 -7.4855 -4.959 
-9.750501 -9.606501 -8.830001 -5.601 -6.785501 -9.0965 -9.72 -9.061501 -8.704 -8.613001 -4.3765 -7.093501 -8.578501 -9.913 
-13.7964 -9.788501 -9.606001 -8.943501 -10.2485 -11.3573 -12.6245 -13.2173 -9.908501 -9.465501 -9.878901 -9.194501 -11.1254 
-13.9784 -10.5375 -13.0423 -12.6231 -12.4417 -14.2618 -16.7803 -14.4218 -10.722 -15.1783 -11.9799 -11.8414 
-1.4985 -4.6335 -1.7565 -1.4985 -3.5455 -4.523 -1.4985 -4.3705 -6.56 -1.7565 -3.468 -2.5045 -3.3235 -2.5045 -1.7695 -3.498 -1.4985 -5.233 -1.934 -3.676 0 
-5.8 -6.1985 -2.4195 -4.554 -9.005001 -5.856 -5.6335 -10.3105 -6.903501 -5.649 -5.6845 -3.7105 -3.8485 -4.334 -4.8045 -5.105 -6.387 -6.341001 -4.7985 -3.676 
-6.64 -6.5315 -5.4405 -9.5185 -10.404 -10.76 -11.8913 -10.654 -11.811 -7.679501 -6.348 -3.8545 -5.489 -8.195001 -5.6915 -9.027 -8.6365 -7.602 -4.7985 
-7.067501 -9.339001 -10.451 -10.7615 -15.308 -17.0178 -12.2348 -15.5615 -13.8415 -8.495001 -6.493 -5.4915 -9.101501 -8.883 -9.126 -11.1889 -9.964001 -7.602 
-9.439 -14.6807 -11.694 -15.6655 -21.5658 -17.3613 -17.1423 -17.592 -14.657 -8.539001 -7.907 -9.1025 -9.948501 -12.3353 -11.4983 -12.5164 -9.964001 
-1.4985 -5.7745 -4.6335 -5.231 -1.4985 -4.1265 -2.5195 -3.4625 -4.7925 -5.088 -1.756 -3.074 -5.62 -1.4985 -3.3755 -2.0935 -5.01 -4.6395 -2.664 -3.498 -1.7695 -5.233 
-7.4935 -10.405 -9.341001 -6.16 -4.572001 -6.5675 -5.0975 -7.043 -9.953501 -6.3615 -4.566 -7.941501 -6.334001 -4.057 -4.9855 -7.383 -9.8345 -6.6955 -5.1155 -5.0505 -6.822001 
-9.418 -12.5415 -9.984501 -9.540001 -6.8225 -8.925 -8.7475 -12.7986 -11.4562 -9.51 -9.282001 -8.033 -6.385 -5.619 -10.1595 -12.7819 -11.9777 -7.4495 -5.5875 -8.187 
-9.8365 -10.8597 -13.3645 -9.763 -9.456 -12.7558 -14.4489 -14.3013 -14.6047 -14.2778 -9.326 -8.049001 -6.463 -10.702 -15.5584 -14.9251 -12.7317 -7.4545 -8.302 
-12.2637 -15.6437 -13.5875 -12.4579 -13.3134 -18.4572 -15.9516 -17.4498 -19.3725 -14.3218 -9.3365 -8.0965 -11.8384 -16.1009 -17.7016 -15.6791 -12.7367 -9.896 
