-4.759 
n/a 
n/a 
n/a 
n/a 
-4.759 
n/a 
n/a 
n/a 
n/a 
-4.759 
n/a 
n/a 
n/a 
n/a 
-4.759 
n/a 
n/a 
n/a 
n/a 
-11.6535 -4.522 -2.3615 -4.8085 -3.8195 -2.9705 -2.7415 -4.296 -2.3345 -2.3335 -3.3035 
-14.6746 -7.077001 -6.448 -6.085001 -6.3255 -4.512 -5.78 -4.81 -5.2215 -6.0745 
-17.4578 -9.2025 -8.021 -8.402 -7.445 -7.135 -6.1855 -7.694 -7.6035 
-19.5833 -11.3113 -9.8065 -9.619501 -8.995501 -7.427001 -9.473001 -9.193501 
-21.6921 -13.0968 -10.6245 -10.6235 -9.249001 -10.6335 -11.0271 
-11.6535 -4.522 -1.4985 -4.8085 -3.8195 -2.9705 -4.296 -2.3335 -4.5675 
-14.6746 -5.9715 -5.941 -6.085001 -6.3255 -6.5465 -6.9435 -7.1665 
-16.3523 -8.543501 -7.1755 -8.402 -10.001 -9.016001 -11.9701 
-18.9243 -9.521501 -9.568501 -12.3019 -12.5615 -14.1228 
-19.9023 -11.9877 -13.5554 -14.8624 -17.6683 
-3.943 -4.296 -2.3615 -4.8085 -3.8195 -1.756 -4.522 -2.3345 -15.3945 
-8.213 -6.5185 -6.448 -6.085001 -5.2095 -5.7985 -5.076 -14.7975 
-10.038 -9.127501 -8.021 -7.495 -9.208 -6.1825 -17.4416 
-12.647 -10.75 -10.085 -11.9097 -9.554501 -18.9177 
-14.2695 -12.814 -14.4997 -12.2562 -22.3787 
-2.664 -3.3035 -4.296 -2.3615 -3.1935 -1.756 -12.495 -2.7415 -4.522 -2.4265 0 
-5.4325 -7.276501 -6.5185 -4.397 -4.9285 -14.8282 -15.8955 -6.1335 -7.198501 -2.4265 
-12.0859 -9.344001 -8.1805 -6.5595 -18.0952 -18.5355 -19.2875 -9.207001 -7.198501 
-14.1534 -11.0746 -9.7795 -22.2388 -23.0431 -21.9275 -22.361 -9.207001 
-15.884 -12.6736 -25.5888 -25.5081 -26.4351 -25.001 -22.361 
