-4.759 
n/a 
n/a 
n/a 
n/a 
-4.759 
n/a 
n/a 
n/a 
n/a 
-4.759 
n/a 
n/a 
n/a 
n/a 
-4.759 
n/a 
n/a 
n/a 
n/a 
-2.4265 -2.7415 -5.259 -1.934 -4.5275 -3.0105 
-3.681 -7.241 -7.6235 -6.483 -8.019 
-8.389 -8.933001 -12.6169 -10.0315 
-10.13 -14.001 -16.1654 
-15.3608 -17.5495 
-1.934 -3.0105 -7.152 -2.4945 -4.4755 
-4.827 -10.335 -9.4245 -6.2685 
-12.5443 -13.1799 -13.5603 
-15.3892 -17.3157 
-19.525 
-4.63 -4.4755 -1.934 -4.5275 -1.934 -3.0105 0 
-7.882 -6.256 -6.483 -6.7875 -4.827 -3.0105 
-9.303 -10.348 -8.5745 -8.960501 -4.827 
-13.5884 -12.7703 -10.8327 -8.960501 
-16.0107 -15.0285 -10.8327 
-4.63 -1.934 -4.5275 -1.934 -3.0105 0 
-5.8555 -6.483 -6.7875 -4.827 -3.0105 
-11.2929 -8.5745 -8.960501 -4.827 
-13.3844 -10.8327 -8.960501 
-15.6426 -10.8327 
