-4.759 
n/a 
n/a 
n/a 
n/a 
-4.759 
n/a 
n/a 
n/a 
n/a 
-4.759 
n/a 
n/a 
n/a 
n/a 
-4.759 
n/a 
n/a 
n/a 
n/a 
-4.566 0 -12.16972 -12.16972 0 -3.0835 -4.0275 -3.6505 -1.934 -5.7865 0 -3.2495 -5.8505 -4.894 -3.222 -5.1845 0 
-4.566 -12.16972 -24.33944 -12.16972 -3.0835 -6.8765 -6.8435 -5.299 -7.417 -5.7865 -3.2495 -7.3255 -11.6551 -5.669 -8.3545 -5.1845 
-17.14952 -24.33944 -24.33944 -15.25322 -6.8765 -9.352501 -9.427501 -11.394 -7.417 -10.523 -7.3255 -13.4381 -12.4301 -9.169001 -8.3545 
-29.31924 -24.33944 -27.42294 -19.04622 -9.352501 -12.1905 -15.5485 -11.394 -12.4691 -14.599 -13.4381 -14.2131 -15.9301 -9.169001 
-29.31924 -27.42294 -31.21594 -21.52222 -12.1905 -18.3115 -15.5485 -16.4461 -16.5451 -20.7116 -14.2131 -17.7131 -15.9301 
-4.566 0 -12.16972 -12.16972 0 -1.934 -5.7865 -3.0835 -4.0275 -3.685 0 0 -5.7865 0 -6.524 -10.738 -8.086 -9.5565 -1.934 -5.1845 0 
-4.566 -12.16972 -24.33944 -12.16972 -1.934 -7.417 -9.901501 -6.8765 -7.307 -3.685 0 -5.7865 -5.7865 -6.524 -17.5504 -18.824 -18.0243 -11.6789 -6.564 -5.1845 
-17.14952 -24.33944 -24.33944 -14.10372 -7.417 -11.8476 -13.7875 -10.4265 -7.307 -3.685 -5.7865 -5.7865 -13.4821 -17.5504 -25.6364 -28.7623 -20.1467 -16.3089 -6.564 
-29.31924 -24.33944 -26.27344 -19.58672 -11.8476 -15.7336 -17.3375 -10.4265 -7.307 -10.841 -5.7865 -13.4821 -24.5085 -25.6364 -35.5747 -30.8847 -24.7767 -16.3089 
-29.31924 -26.27344 -31.75644 -24.01732 -15.7336 -19.2836 -17.3375 -10.4265 -14.7838 -10.841 -13.4821 -24.5085 -32.5945 -35.5747 -37.6971 -35.5147 -24.7767 
-4.566 0 -8.943001 -12.16972 0 -1.934 -5.7865 -3.0835 -4.0275 -4.609 0 0 -5.7865 0 -6.336 -10.738 -6.376 -1.7695 -5.1845 0 
-4.566 -8.943001 -22.40312 -12.16972 -1.934 -7.417 -9.901501 -6.8765 -6.966001 -4.609 0 -5.7865 -5.7865 -6.336 -11.0145 -17.114 -8.458 -7.4505 -5.1845 
-13.9228 -22.40312 -22.40312 -14.10372 -7.417 -11.8476 -13.7875 -9.723001 -6.966001 -4.609 -5.7865 -5.7865 -13.2941 -11.0145 -17.3905 -19.196 -14.4716 -7.4505 
-27.38292 -22.40312 -24.33712 -19.58672 -11.8476 -15.7336 -16.634 -9.723001 -6.966001 -10.821 -5.7865 -13.2941 -17.9726 -17.3905 -19.4725 -25.2096 -14.4716 
-27.38292 -24.33712 -29.82012 -24.01732 -15.7336 -18.5801 -16.634 -9.723001 -13.899 -10.821 -13.2941 -17.9726 -24.3486 -19.4725 -25.4861 -25.2096 
-15.4135 -10.8475 0 -3.0835 -4.0275 -4.609 -1.934 -7.661 0 -5.617 -3.222 -5.1845 -2.5045 -1.8085 -3.098 -1.7565 -6.336 -10.7225 
-15.8643 -10.8475 -3.0835 -6.8765 -6.966001 -5.7275 -9.133 -7.661 -5.617 -7.755 -8.3545 -8.093 -3.3625 -4.9645 -4.3615 -8.469 -11.1415 
-15.8643 -14.2444 -6.8765 -9.723001 -9.784 -14.0017 -9.133 -10.703 -7.755 -9.4505 -9.5415 -9.0555 -6.8625 -6.43 -11.7224 -13.7895 
-19.2612 -18.0374 -9.723001 -12.8104 -18.1364 -14.0017 -12.267 -13.6516 -9.4505 -9.676001 -10.6408 -12.8551 -8.109 -14.1561 -17.0429 
-23.0542 -20.8839 -12.8104 -21.1628 -18.1364 -17.1357 -15.2156 -15.3471 -9.676001 -10.8393 -14.4404 -14.1016 -16.2359 -19.4766 
