-4.759 
n/a 
n/a 
n/a 
n/a 
-4.759 
n/a 
n/a 
n/a 
n/a 
-4.759 
n/a 
n/a 
n/a 
n/a 
-4.759 
n/a 
n/a 
n/a 
n/a 
-5.814 0 -12.16972 -7.5605 0 -6.423 0 -5.655 -7.098001 0 -3.075 
-5.814 -12.16972 -19.73022 -7.5605 -6.423 -6.423 -5.655 -8.844501 -7.098001 -3.075 
-18.98032 -19.73022 -19.73022 -14.8195 -6.423 -10.523 -8.844501 -8.844501 -8.8575 
-26.54082 -19.73022 -26.98922 -14.8195 -10.523 -13.7125 -8.844501 -10.4595 
-26.54082 -26.98922 -26.98922 -18.9195 -13.7125 -13.7125 -10.4595 
-5.814 0 -9.436501 -8.445001 0 -9.9215 0 -5.655 -10.173 
-5.814 -9.436501 -9.657001 -8.445001 -9.9215 -9.9215 -5.655 -10.604 
-16.2471 -9.657001 -9.657001 -19.0983 -9.9215 -15.7389 -10.4595 
-16.4676 -9.657001 -20.5633 -19.0983 -15.7389 -20.5434 
-16.4676 -20.5633 -20.5633 -24.9157 -20.5434 
-5.814 0 -4.2245 -12.16972 0 -6.423 -7.395 0 -3.075 
-5.814 -4.2245 -17.25002 -12.16972 -6.423 -11.046 -7.395 -3.075 
-11.0351 -17.25002 -17.25002 -18.59272 -11.046 -11.046 -9.111 
-24.06062 -17.25002 -23.67302 -23.21572 -11.046 -12.762 
-24.06062 -23.67302 -28.29602 -23.21572 -12.762 
-5.814 0 -1.8085 -3.6135 -4.2245 -11.0235 0 -8.514 0 -13.8295 
-5.814 -1.8085 -4.4545 -8.531 -16.1038 -11.0235 -8.514 -8.514 -13.8295 
-8.185 -4.4545 -8.932501 -20.6215 -16.1038 -19.5375 -8.514 -22.7035 
-11.1152 -8.932501 -21.169 -20.6215 -24.6178 -19.5375 -22.7035 
-15.5932 -21.169 -21.169 -29.1355 -24.6178 -33.727 
