-4.759 
n/a 
n/a 
n/a 
n/a 
-4.759 
n/a 
n/a 
n/a 
n/a 
-4.759 
n/a 
n/a 
n/a 
n/a 
-4.759 
n/a 
n/a 
n/a 
n/a 
-4.667 -1.934 -3.8275 -2.8645 -3.1125 -5.311 -3.851 -1.7695 -2.3615 -3.999 0 
-5.2775 -5.911 -6.32 -3.5345 -7.965001 -8.1905 -4.0015 -3.736 -5.725 -3.999 
-8.375 -8.719001 -7.021 -8.6885 -10.4765 -8.199 -6.14 -7.3015 -5.725 
-10.5425 -9.298 -10.6465 -11.37 -10.491 -10.5035 -9.844001 -7.3015 
-11.1215 -12.9819 -13.328 -11.3845 -13.0129 -14.2075 -9.844001 
-4.031 -1.7565 -2.3615 -4.065 -2.7415 -5.668 -3.222 -1.4985 -3.8275 
-5.571 -3.523 -7.0445 -7.884 -10.2755 -8.262 -3.7835 -4.726 
-7.077 -8.137001 -11.1019 -15.5748 -12.8695 -8.594 -6.959 
-12.1364 -12.2538 -18.7927 -18.1688 -13.2015 -11.9583 
-16.2532 -19.9446 -21.3867 -18.5008 -16.5658 
-3.0415 -2.3335 -4.559 -5.1275 -3.8275 
-4.132 -6.672 -9.1185 -9.0425 
-8.858001 -12.2987 -13.3701 
-14.7105 -16.5503 
-18.9621 
-2.0935 -2.3615 -4.031 0 -4.559 -3.074 -3.0465 -4.077 -1.934 -1.4985 -3.8275 0 
-3.854 -5.4055 -4.031 -4.559 -7.731 -5.523 -4.85 -4.43 -2.6125 -4.726 -3.8275 
-5.425 -5.4055 -8.9245 -7.731 -10.4176 -7.818 -5.806 -4.9635 -5.815001 -4.726 
-5.425 -10.103 -12.4049 -10.4176 -12.7126 -8.126 -6.3815 -7.642 -5.815001 
-10.107 -13.5834 -15.0915 -12.7126 -13.0206 -8.6995 -8.7185 -7.642 
