-4.759 
n/a 
n/a 
n/a 
n/a 
-4.759 
n/a 
n/a 
n/a 
n/a 
-4.759 
n/a 
n/a 
n/a 
n/a 
-4.759 
n/a 
n/a 
n/a 
n/a 
-5.645 -5.808 -3.152 -5.356 -2.5045 -4.955 0 
-8.341001 -8.0525 -7.309 -7.541 -6.9165 -4.955 
-10.304 -12.6739 -8.741 -12.1962 -6.9165 
-15.017 -14.1059 -13.528 -12.1962 
-16.449 -18.8929 -13.528 
-3.0365 -3.152 -4.386 -1.7565 -4.3705 -5.759501 -1.934 -4.955 
-4.453 -6.7035 -4.539 -5.572001 -8.328 -6.592 -5.8925 
-6.725 -6.7255 -8.635 -9.504001 -8.928 -10.019 
-6.745 -10.609 -12.8216 -9.924001 -12.6376 
-10.609 -14.7956 -13.2416 -13.6632 
-1.934 -8.751 -2.645 -3.8035 
-11.0145 -11.6772 -6.2085 
-13.9407 -15.2407 
-17.5042 
n/a 
-5.891 -5.3695 -3.8035 -3.152 -4.3125 -1.934 -7.2775 
-7.944 -10.389 -6.214 -6.9165 -6.702 -9.805 
-14.0871 -12.7995 -10.089 -8.389501 -15.2276 
-16.4976 -16.6745 -11.562 -17.1687 
-20.3726 -18.1475 -20.3412 
