-4.759 
n/a 
n/a 
n/a 
n/a 
-4.759 
n/a 
n/a 
n/a 
n/a 
-4.759 
n/a 
n/a 
n/a 
n/a 
-4.759 
n/a 
n/a 
n/a 
n/a 
-5.1845 0 -9.6365 -4.5735 0 -3.5485 -4.712 0 -5.891 -4.8565 -1.756 -3.948 -5.2835 
-5.1845 -9.6365 -14.3362 -4.5735 -3.5485 -9.121 -4.712 -5.891 -10.1 -6.3755 -5.371 -7.3785 
-16.1154 -14.3362 -14.3362 -7.411 -9.121 -9.121 -10.4265 -10.1 -11.7228 -9.816501 -9.265501 
-20.8151 -14.3362 -17.1737 -14.0579 -9.121 -15.0333 -14.6355 -11.7228 -15.1638 -13.6884 
-20.8151 -17.1737 -23.8206 -14.0579 -15.0333 -19.2423 -16.2583 -15.1638 -19.0357 
-2.9805 -2.8645 -3.881 -4.9405 -1.756 -4.6065 -2.264 -3.948 -5.1845 0 -8.27 -4.5735 0 -4.8275 -7.719 0 -5.891 
-4.3245 -5.4695 -8.196 -6.1115 -5.9605 -6.962 -5.505 -9.163 -5.1845 -8.27 -13.2703 -4.5735 -4.8275 -13.8943 -7.719 -5.891 
-6.2185 -9.055 -9.0515 -7.924 -8.168501 -9.876 -11.183 -9.163 -11.136 -13.2703 -13.2703 -8.743 -13.8943 -13.8943 -14.267 
-9.727 -9.834001 -11.0082 -10.0575 -10.564 -15.7594 -11.183 -15.2321 -16.1363 -13.2703 -17.4398 -19.0796 -13.8943 -20.4423 
-10.588 -11.9055 -13.1417 -12.815 -16.4474 -15.7594 -17.2521 -20.2324 -16.1363 -17.4398 -27.7764 -19.0796 -20.4423 
-5.1845 0 -4.6605 -2.0935 -8.35 0 -3.8735 -2.229 -4.248 0 -4.1105 -2.229 -4.248 0 -5.891 -3.693 -4.0725 -4.2605 -1.7695 -3.8095 -1.4985 -5.3255 -1.7565 -3.3715 0 
-5.1845 -4.6605 -6.945 -10.718 -8.35 -3.8735 -5.3655 -6.294 -4.248 -4.1105 -5.194 -6.294 -4.248 -5.891 -9.870001 -8.658 -9.779501 -6.087 -4.549 -5.2515 -6.5585 -6.718 -4.845 -3.3715 
-11.1394 -6.945 -16.4803 -10.718 -12.7391 -5.3655 -8.177 -6.294 -9.2435 -5.194 -8.393001 -6.294 -10.6605 -9.870001 -14.913 -14.5002 -11.606 -9.137001 -5.863 -11.0527 -7.532001 -9.7355 -4.845 
-13.4239 -16.4803 -16.4803 -15.1071 -14.2311 -8.177 -8.177 -11.8023 -9.8955 -8.393001 -8.393001 -13.2193 -14.6395 -14.913 -20.7552 -16.3267 -14.656 -10.7335 -11.7138 -12.0262 -10.6863 -9.7355 
-22.9592 -16.4803 -20.8694 -16.5991 -17.0426 -8.177 -14.1109 -12.4543 -13.2901 -8.393001 -15.8061 -17.1983 -19.6825 -20.7552 -22.5817 -19.3767 -16.2525 -16.5843 -12.6873 -15.1805 -10.6863 
-2.9805 -2.8645 -3.881 -4.9405 -2.264 -5.1845 0 -5.1845 -3.1385 -4.248 0 -3.5485 -4.248 0 -5.891 -4.931 -3.2 -1.756 -2.264 -3.3715 -5.2835 
-4.3245 -5.4695 -8.196 -6.8655 -7.422001 -5.1845 -5.1845 -7.4095 -7.68 -4.248 -3.5485 -7.8765 -4.248 -5.891 -9.872001 -9.0585 -4.5345 -4.4925 -5.394 -7.0965 
-6.2185 -9.055 -9.809 -12.5439 -7.422001 -7.64 -7.4095 -12.3274 -7.68 -7.3885 -7.8765 -7.8765 -10.6605 -9.872001 -14.5419 -10.3165 -7.23 -7.1835 -9.799001 
-9.727 -10.6095 -15.5776 -12.5439 -10.5789 -10.6735 -12.3274 -12.3274 -11.3231 -12.7931 -7.8765 -15.0072 -14.6415 -14.5419 -15.7999 -13.012 -9.901001 -11.9219 
-11.2725 -16.3781 -15.5776 -15.7008 -13.6124 -15.5914 -12.3274 -15.9705 -16.7277 -12.7931 -15.0072 -18.9882 -19.3114 -15.7999 -18.4954 -15.683 -14.7208 
