-4.759 
n/a 
n/a 
n/a 
n/a 
-4.759 
n/a 
n/a 
n/a 
n/a 
-4.759 
n/a 
n/a 
n/a 
n/a 
-4.759 
n/a 
n/a 
n/a 
n/a 
-9.5675 -2.7415 -4.3215 -2.8645 -1.8085 -4.2655 -1.7565 -4.628 -5.939 -3.5435 
-12.4366 -5.758 -7.466001 -3.9785 -6.018001 -6.026 -6.107501 -5.9615 -7.053 
-15.4531 -9.312 -9.091001 -8.663501 -7.048 -9.686 -7.357501 -7.0565 
-19.0071 -10.9964 -14.5782 -9.9755 -11.1876 -11.0328 -9.1815 
-20.6915 -16.4836 -15.8902 -14.1903 -12.5344 -12.8568 
-10.827 -2.8645 -3.7905 -1.4985 -4.418 -1.7565 -6.6585 
-13.6915 -4.816 -4.969 -5.732 -5.347 -8.343 
-15.643 -5.6965 -9.2885 -6.503 -12.7777 
-16.5235 -9.508 -10.4905 -13.8395 
-20.335 -11.1894 -17.827 
-12.16972 -8.045501 -3.5435 
-20.21522 -12.032 
-24.20172 
n/a 
n/a 
-5.4685 -3.43 -4.628 -4.743 -2.229 -3.4075 -4.2655 
-9.059 -8.9165 -4.7515 -6.5015 -5.1175 -7.573 
-14.7751 -9.083 -6.5135 -8.573 -9.234001 
-14.9416 -10.3165 -8.580501 -12.9757 
-16.1751 -12.3835 -12.991 
