-4.759 
n/a 
n/a 
n/a 
n/a 
-4.759 
n/a 
n/a 
n/a 
n/a 
-4.759 
n/a 
n/a 
n/a 
n/a 
-4.759 
n/a 
n/a 
n/a 
n/a 
-4.176 -4.348 -1.934 -4.45 -1.756 -3.9465 
-7.1185 -5.622 -5.837 -6.2155 -5.895 
-7.9525 -9.191 -6.858 -7.3535 
-9.791 -9.877001 -8.086 
-10.1445 -10.086 
-4.45 0 -3.9465 -1.756 -4.176 -4.967 
-4.45 -3.9465 -5.489 -5.915 -9.0835 
-6.296 -5.489 -8.6195 -10.5975 
-7.608 -8.6195 -13.6564 
-11.6637 -13.6564 
-4.176 -4.744 -3.152 -1.934 -4.45 -1.756 -3.9465 
-6.9085 -6.309 -4.9115 -5.837 -6.2155 -5.895 
-8.091001 -8.0585 -9.068501 -6.858 -7.3535 
-9.9805 -12.4871 -9.986501 -8.086 
-14.5319 -13.4051 -11.2145 
-4.176 -4.795 -1.934 -4.45 -1.756 -3.9465 
-7.0065 -5.838 -5.837 -6.2155 -5.895 
-7.868 -9.503 -6.858 -7.3535 
-10.041 -10.4775 -8.086 
-11.0155 -11.7055 
