-4.759 
n/a 
n/a 
n/a 
n/a 
-4.759 
n/a 
n/a 
n/a 
n/a 
-4.759 
n/a 
n/a 
n/a 
n/a 
-4.759 
n/a 
n/a 
n/a 
n/a 
-3.539 -3.2785 0 -4.144 -1.7565 -4.838 -3.1385 -3.152 -4.493 -3.5455 -1.4985 -4.319 -3.458 -1.4985 -5.003 -1.756 -5.1255 -1.934 -4.7375 0 
-5.599 -3.2785 -4.144 -5.067 -7.04 -8.005 -5.219 -5.593 -6.4835 -3.91 -5.231501 -6.4855 -4.063 -6.263 -6.091001 -6.372 -6.2015 -5.874001 -4.7375 
-5.599 -8.0065 -5.067 -9.4755 -9.210501 -9.597 -6.315001 -7.1715 -6.9155 -7.229001 -7.166501 -7.297501 -8.5275 -7.386 -6.974 -7.2525 -8.788501 -5.874001 
-11.4886 -9.918 -9.4755 -11.8262 -11.1235 -10.413 -7.804501 -7.397501 -9.3035 -8.979501 -7.8745 -10.622 -8.660001 -8.723001 -7.962 -9.285501 -8.788501 
-13.4001 -14.3265 -11.8262 -13.7392 -11.9395 -11.9025 -7.941 -10.0775 -11.1572 -9.6245 -11.265 -10.7545 -9.465001 -9.7445 -9.3745 -9.285501 
-3.539 -3.2785 0 -3.5455 -1.4985 -4.3705 -5.4285 -3.458 -1.4985 -5.003 -1.756 -5.1255 -1.934 -4.7375 0 -1.8085 -4.144 -1.7565 -4.838 -3.1385 -3.152 -4.493 0 
-5.599 -3.2785 -3.5455 -3.91 -5.577001 -8.9805 -8.6925 -4.063 -6.263 -6.091001 -6.372 -6.2015 -5.874001 -4.7375 -1.8085 -4.7955 -5.067 -7.04 -8.005 -5.219 -5.593 -4.493 
-5.599 -7.5365 -3.91 -8.322001 -9.779 -12.4961 -9.264 -8.5275 -7.386 -6.974 -7.2525 -8.788501 -5.874001 -7.2305 -4.7955 -5.159 -9.4755 -9.210501 -9.597 -6.315001 -5.593 
-9.643501 -7.869 -8.322001 -13.1208 -13.7442 -13.0676 -13.8119 -8.660001 -8.723001 -7.962 -9.285501 -8.788501 -7.703001 -10.6335 -5.159 -9.5815 -11.8262 -11.1235 -10.413 -6.315001 
-9.968501 -12.4156 -13.1208 -17.086 -14.3157 -17.6155 -13.9444 -9.465001 -9.7445 -9.3745 -9.285501 -10.1465 -11.2624 -10.754 -9.5815 -11.9582 -13.7392 -11.9395 -10.413 
-3.539 -3.2785 0 -2.5045 -3.76 -4.838 -3.1385 -3.152 -4.493 -1.934 -1.4985 -5.4285 -3.458 -5.003 -1.756 -5.1255 0 
-5.599 -3.2785 -2.5045 -3.8195 -8.669001 -8.005 -5.219 -5.593 -5.1865 -2.6125 -6.6405 -8.6925 -7.2825 -6.091001 -6.372 -5.1255 
-5.599 -5.9005 -3.8195 -8.674001 -10.468 -9.597 -6.315001 -6.176001 -6.0855 -7.928501 -9.9455 -12.674 -7.3765 -6.974 -6.372 
-7.8535 -8.160501 -8.674001 -10.476 -12.06 -10.413 -6.896501 -6.751 -9.45 -11.3477 -13.9712 -12.768 -7.632 -6.974 
-10.3863 -13.2282 -10.476 -12.068 -12.876 -10.9945 -7.467 -9.932001 -12.912 -15.3734 -14.0652 -13.0235 -7.632 
-3.539 -3.2785 -1.934 -4.7375 -4.345 -3.458 -5.1255 -1.756 -5.003 -1.756 -2.645 -3.1575 -4.838 -3.1385 -4.493 -1.934 -4.688 0 
-5.599 -5.8795 -5.874001 -7.6695 -7.056001 -7.29 -6.206 -6.4755 -6.091001 -3.898 -3.72 -7.475501 -8.005 -6.5305 -5.1865 -7.179 -4.688 
-8.487 -10.3615 -9.0775 -11.4473 -8.870001 -7.361001 -7.1305 -7.8095 -8.8695 -5.4925 -7.525001 -9.448001 -11.686 -6.9865 -9.666 -7.179 
-13.1682 -13.565 -13.0159 -13.2613 -8.893001 -7.811501 -8.481501 -10.3035 -9.404 -9.066 -9.4575 -13.3034 -12.142 -11.945 -9.666 
-16.3717 -17.5034 -14.8299 -13.2843 -9.033501 -9.035501 -10.674 -10.838 -13.4229 -10.9815 -13.3155 -13.7594 -17.1005 -11.945 
