-4.759 
n/a 
n/a 
n/a 
n/a 
-4.759 
n/a 
n/a 
n/a 
n/a 
-4.759 
n/a 
n/a 
n/a 
n/a 
-4.759 
n/a 
n/a 
n/a 
n/a 
-5.4595 -2.9705 -2.7415 -6.112 -2.3345 -4.1685 -3.098 -6.677001 
-8.206501 -4.512 -7.23 -7.502501 -5.522 -7.498501 -10.164 
-8.9645 -9.5935 -8.3835 -11.2574 -8.762501 -15.0975 
-14.574 -10.6755 -12.507 -14.4979 -16.4645 
-15.656 -14.799 -15.7475 -22.1999 
-5.4595 -2.9705 -4.7195 -2.3345 -4.6425 -4.5605 
-8.206501 -8.717501 -6.3875 -6.788 -7.225 
-14.2363 -10.6215 -11.6868 -8.807501 
-16.1403 -15.9208 -13.7063 
-21.4396 -17.9403 
-6.7905 -9.9545 -9.3955 -7.107 
-17.6106 -19.4126 -10.2185 
-27.0687 -20.2356 
-27.8917 
n/a 
-10.707 -9.3955 -7.107 
-11.117 -10.2185 
-11.94 
n/a 
n/a 
