-4.759 
n/a 
n/a 
n/a 
n/a 
-4.759 
n/a 
n/a 
n/a 
n/a 
-4.759 
n/a 
n/a 
n/a 
n/a 
-4.759 
n/a 
n/a 
n/a 
n/a 
-3.506 -10.748 -2.8645 -4.3215 -2.3335 -8.1435 -4.99 -2.8645 -3.557 -4.208 -1.934 -4.8 
-13.5585 -13.651 -5.389 -5.1075 -11.6678 -14.0435 -7.696 -5.5535 -8.461 -6.190001 -7.091 
-17.0819 -16.1755 -5.97 -15.0526 -17.5678 -16.7495 -10.6605 -9.961 -9.8225 -9.444 
-19.6064 -16.7565 -16.1297 -20.9526 -20.2738 -19.714 -15.068 -11.4347 -13.1981 
-20.1874 -26.9162 -22.0297 -23.6586 -23.2383 -24.1215 -16.5417 -14.8103 
-3.506 -7.620501 -4.8165 -2.3335 -6.351501 -7.906 -4.208 -5.509 -1.934 -1.4985 -5.26 -4.3305 0 
-10.5715 -12.6965 -5.8995 -9.494 -15.2079 -12.8106 -8.693501 -7.048 -2.6125 -6.620501 -8.167 -4.3305 
-15.5144 -13.7399 -13.6222 -18.223 -20.1125 -17.2961 -10.361 -7.569 -8.194 -9.651001 -8.167 
-16.2104 -21.9544 -22.3512 -23.1276 -24.598 -18.9636 -10.761 -13.5765 -11.2503 -9.651001 
-24.4249 -30.6834 -27.2558 -27.6131 -26.2655 -19.3636 -16.7685 -16.6328 -11.2503 
-3.506 -2.9965 -4.624 -4.848 -1.4985 -2.688 0 -2.3335 -1.4985 -10.8685 -6.036 -4.3555 -1.4985 -8.522 -1.934 -4.8 0 
-5.475 -8.093 -9.4005 -6.0975 -3.702 -2.688 -2.3335 -3.3515 -13.4608 -16.9045 -10.718 -5.085 -8.019501 -8.71 -7.091 -4.8 
-10.5635 -13.2169 -10.534 -8.63 -3.702 -6.573 -3.3515 -15.5526 -19.4968 -21.5865 -11.4475 -12.7265 -10.818 -15.2043 -7.091 
-15.6874 -14.3504 -13.0665 -8.63 -7.9925 -7.9585 -15.5526 -21.5886 -24.1788 -22.316 -19.2826 -14.9431 -16.4289 -15.3099 
-16.8209 -16.8829 -13.0665 -12.9473 -9.235001 -20.3076 -21.5886 -26.2706 -24.9083 -30.1511 -21.3056 -20.9135 -16.4289 
-8.422 0 -7.690001 -4.99 -3.251 -3.557 -4.208 -5.046 -1.934 -1.4985 -4.8 -4.3305 0 -8.210501 -2.3345 -4.624 0 
-8.422 -7.690001 -13.0462 -8.2065 -5.9195 -8.461 -9.6175 -6.96 -2.6125 -6.112 -7.776 -4.3305 -8.210501 -9.885001 -6.2035 -4.624 
-16.6356 -13.0462 -16.2627 -11.0926 -10.375 -14.0749 -11.5315 -7.665 -7.6755 -9.0235 -7.776 -13.6092 -9.885001 -13.8286 -6.2035 
-21.9918 -16.2627 -19.1488 -15.5481 -15.9889 -15.9889 -12.2365 -13.076 -10.6354 -9.0235 -17.6203 -15.2837 -13.8286 -13.8286 
-25.2083 -19.1488 -23.6043 -21.162 -17.9029 -16.6939 -17.6475 -16.0359 -10.6354 -19.5128 -19.2948 -19.2273 -13.8286 
