-4.759 
n/a 
n/a 
n/a 
n/a 
-4.759 
n/a 
n/a 
n/a 
n/a 
-4.759 
n/a 
n/a 
n/a 
n/a 
-4.759 
n/a 
n/a 
n/a 
n/a 
-5.3885 -2.186 -1.4985 -3.0835 -3.5015 -1.7565 -4.0795 -3.8935 -1.934 -3.8735 0 
-7.7415 -3.339 -3.535 -5.07 -4.783 -5.878 -7.0695 -5.45 -4.885 -3.8735 
-8.509001 -4.8925 -5.213 -7.463 -9.729 -8.6765 -8.226001 -7.775 -4.885 
-9.489 -7.189 -7.5955 -12.8504 -12.6081 -9.666 -10.361 -7.775 
-12.5883 -9.311001 -13.1073 -15.7295 -13.5976 -11.8482 -10.361 
-5.3885 -2.186 -1.4985 -3.0835 -2.0935 -8.323501 -4.3845 -2.5045 -3.8735 
-7.7415 -3.339 -3.535 -5.778501 -10.932 -13.0494 -7.176 -7.033501 
-8.509001 -4.8925 -6.823501 -14.9956 -15.6579 -15.8409 -12.0618 
-9.489 -7.895 -16.2866 -19.7215 -18.4494 -20.7267 
-13.2943 -17.5405 -21.0125 -22.513 -23.3352 
-1.934 -3.8735 -4.0795 -3.8935 0 -5.3885 -2.7415 -3.0835 
-4.885 -8.694 -7.0695 -3.8935 -5.3885 -8.401501 -5.276 
-9.421 -10.674 -7.0695 -10.2135 -8.401501 -11.0626 
-11.8886 -10.674 -13.9799 -13.2265 -11.0626 
-11.8886 -17.5844 -16.9929 -15.8876 
-5.3885 -4.098 -3.0835 -3.5015 -1.934 -4.0795 -3.8935 -1.934 -3.8735 
-9.5425 -6.5885 -5.07 -4.704 -6.0675 -7.0695 -5.45 -4.885 
-12.2222 -9.0535 -6.239501 -9.703 -8.505 -8.226001 -7.775 
-14.6872 -9.7065 -11.7809 -12.1405 -9.4135 -10.361 
-15.3402 -15.1833 -14.2184 -13.049 -11.7867 
