-4.759 
n/a 
n/a 
n/a 
n/a 
-4.759 
n/a 
n/a 
n/a 
n/a 
-4.759 
n/a 
n/a 
n/a 
n/a 
-4.759 
n/a 
n/a 
n/a 
n/a 
-3.2615 -3.1495 -4.335 -3.2955 -2.5045 -1.8085 -4.1975 -4.335 -1.7565 -5.692 -3.959 0 
-6.233 -8.210501 -7.896 -4.6545 -3.3625 -5.95 -7.894 -6.3345 -7.770501 -8.1715 -3.959 
-11.6126 -12.1255 -9.2005 -5.021 -7.150001 -8.7715 -9.935 -13.1057 -9.6485 -8.1715 
-15.5276 -13.43 -9.37 -8.8335 -10.1345 -10.5035 -16.7966 -14.9837 -9.6485 
-16.8321 -13.5995 -13.4117 -12.219 -11.8665 -17.3651 -18.6746 -14.9837 
-3.1495 -3.2615 -2.8965 -4.936 -3.959 -1.7695 -5.198 -2.0935 -4.079 0 
-7.2355 -6.7625 -8.3295 -10.513 -5.538 -8.742001 -7.0235 -6.642 -4.079 
-11.1331 -12.5759 -14.2773 -12.092 -13.4987 -10.5883 -12.24 -6.642 
-16.9465 -18.5237 -15.8563 -20.0527 -15.345 -15.8048 -12.24 
-22.8943 -20.1027 -23.817 -21.899 -20.5615 -15.8048 
-5.2025 -2.3615 -3.2955 -2.0935 -4.563 -3.7015 -4.094 -3.959 -3.891 -3.8275 -4.4605 
-7.217 -6.4825 -4.307 -6.2215 -6.3655 -8.371 -7.484 -8.3415 -8.664501 -7.544001 
-11.678 -8.363501 -8.127501 -7.9545 -11.5238 -9.852501 -12.2609 -13.3504 -12.6198 
-13.559 -12.3324 -10.1465 -13.3528 -13.0053 -14.7906 -17.2698 -17.3057 
-17.5279 -14.3514 -15.5448 -14.8343 -17.9434 -19.7995 -21.2251 
-3.882 -2.3615 -2.8645 -3.1125 -3.2955 -1.7695 -4.299 -4.828 -4.4605 -1.7565 -3.783 -3.959 
-5.4545 -4.878 -3.5345 -5.0995 -3.9425 -5.4975 -8.1645 -6.8805 -6.358 -6.223001 -8.8935 
-8.334001 -5.359 -5.504 -5.723001 -7.3185 -10.3215 -9.206 -8.436 -11.8233 -10.451 
-8.831 -7.6835 -6.145 -8.701 -12.3531 -10.7695 -10.5645 -14.3015 -16.0513 
-11.3913 -8.198501 -9.3345 -13.7982 -12.8011 -12.128 -17.0642 -18.5295 
