-4.759 
n/a 
n/a 
n/a 
n/a 
-4.759 
n/a 
n/a 
n/a 
n/a 
-4.759 
n/a 
n/a 
n/a 
n/a 
-4.759 
n/a 
n/a 
n/a 
n/a 
0 -8.382501 -2.229 -12.16972 0 -2.3615 -2.186 -3.8905 -5.154 -1.7695 -3.614 0 
-8.382501 -9.5235 -14.99372 -12.16972 -2.3615 -3.5005 -5.779 -9.631001 -7.176001 -5.9925 -3.614 
-9.5235 -22.49242 -14.99372 -14.53122 -3.5005 -7.1775 -11.9835 -11.8314 -11.8502 -5.9925 
-22.49242 -22.49242 -17.35522 -15.67022 -7.1775 -14.0364 -14.1839 -16.5056 -11.8502 
-22.49242 -24.85392 -18.49422 -19.34722 -14.0364 -16.2368 -18.8581 -16.5056 
-2.9805 -3.793 -4.9635 -3.3195 -3.8735 0 -7.325 -1.7565 -8.004001 0 
-6.3475 -9.672001 -7.807 -6.452001 -3.8735 -7.325 -10.4675 -9.273001 -8.004001 
-10.7025 -12.7261 -11.6335 -6.452001 -12.0811 -10.4675 -18.2792 -9.273001 
-13.7566 -16.5526 -11.6335 -15.1264 -15.2236 -18.2792 -18.2792 
-17.5831 -16.5526 -20.3079 -18.2689 -23.0353 -18.2792 
-2.9805 -2.8645 -3.793 -2.664 -3.8735 0 -7.325 -1.7565 -7.4445 0 
-4.3245 -5.7 -6.186 -5.583 -3.8735 -7.325 -10.4675 -9.308001 -7.4445 
-6.4405 -7.096 -9.339001 -5.583 -12.0811 -10.4675 -18.3142 -9.308001 
-8.792001 -10.3745 -9.339001 -14.6884 -15.2236 -18.3142 -18.3142 
-12.2593 -10.3745 -18.7402 -17.8309 -23.0703 -18.3142 
-2.9805 -3.793 0 -7.325 -1.7565 -8.004001 0 -1.8085 -4.9635 -4.405 -3.8735 0 
-6.3475 -3.793 -7.325 -10.4675 -9.273001 -8.004001 -1.8085 -6.312 -9.196501 -7.940001 -3.8735 
-6.3475 -10.8025 -10.4675 -18.2792 -9.273001 -9.920501 -6.312 -9.665 -12.9249 -7.940001 
-14.045 -13.945 -18.2792 -18.2792 -11.7211 -14.9458 -9.665 -13.5658 -12.9249 
-17.1875 -21.7567 -18.2792 -20.7273 -16.7464 -18.2988 -13.5658 -13.5658 
