-4.759 
n/a 
n/a 
n/a 
n/a 
-4.759 
n/a 
n/a 
n/a 
n/a 
-4.759 
n/a 
n/a 
n/a 
n/a 
-4.759 
n/a 
n/a 
n/a 
n/a 
-1.934 -5.1845 -3.9675 -4.9245 -4.719 -1.756 -5.5485 
-6.564 -8.286 -8.4595 -9.472 -6.167 -6.504 
-9.5175 -13.0482 -13.9952 -11.0394 -10.6465 
-14.3253 -18.5839 -15.5626 -15.5189 
-19.861 -20.1513 -20.0421 
-5.1845 -4.8775 -4.127 -4.0865 0 -5.408 
-9.540501 -8.111 -6.946001 -4.0865 -5.408 
-13.3408 -11.76 -6.946001 -10.389 
-16.9898 -11.76 -13.7407 
-16.9898 -18.5547 
-4.415 -1.7565 -5.1845 -3.9675 -1.756 -3.1435 -5.5485 
-5.449501 -6.580501 -8.286 -4.9775 -4.1365 -7.9665 
-10.9287 -9.033001 -9.0775 -7.037 -9.156 
-13.3812 -9.619501 -10.7575 -12.5685 
-13.9677 -11.3571 -16.289 
-4.293 -1.756 -5.5485 -1.7565 -5.1845 -3.9675 
-5.678 -6.504 -6.422 -6.580501 -8.286 
-7.173 -7.155 -11.9614 -9.033001 
-8.991501 -12.8996 -14.4139 
-14.8363 -15.3521 
