-4.759 
n/a 
n/a 
n/a 
n/a 
-4.759 
n/a 
n/a 
n/a 
n/a 
-4.759 
n/a 
n/a 
n/a 
n/a 
-4.759 
n/a 
n/a 
n/a 
n/a 
-3.5065 -2.5195 -4.65 -1.7695 -3.428 -1.4985 -3.6175 -3.213 -1.934 -8.241501 -2.0935 -1.4985 -3.962 -3.158 -2.186 -12.16972 0 
-7.147 -6.7635 -6.6355 -6.0035 -5.087501 -4.679501 -6.8545 -4.4465 -9.302001 -10.7025 -2.9725 -4.324 -6.185 -5.3735 -15.56612 -12.16972 
-11.8904 -7.0895 -8.6945 -7.241 -8.953501 -7.814501 -8.717 -12.4355 -11.808 -11.5815 -5.4755 -6.629001 -8.256001 -19.12422 -15.56612 
-12.2164 -8.829 -9.769 -11.3848 -12.3651 -9.664501 -16.7742 -14.9415 -12.687 -14.0845 -7.085 -8.455001 -22.15212 -19.12422 
-13.9559 -9.846001 -13.9128 -14.7964 -14.2151 -17.8095 -19.2802 -15.8205 -15.19 -15.694 -8.858001 -22.37192 -22.15212 
-3.458 -4.65 -1.756 -3.428 0 -2.0935 -2.664 -3.784 -3.4975 0 -2.871 -3.158 -3.6175 -4.739 -2.8645 -4.157 -2.3345 -4.579 -3.6505 0 
-7.321 -6.28 -5.872 -3.428 -2.0935 -4.189 -4.8555 -6.3095 -3.4975 -2.871 -4.729 -7.129001 -8.952001 -7.554 -5.4365 -5.35 -7.9995 -8.674 -3.6505 
-7.37 -8.9055 -5.872 -5.9895 -4.189 -6.3885 -7.559 -6.3095 -7.110001 -4.729 -8.5165 -12.9495 -11.927 -10.757 -6.429 -9.440001 -10.138 -8.674 
-9.018001 -8.9055 -7.877501 -7.928 -6.3885 -8.958 -7.559 -9.356501 -9.691501 -8.5165 -14.6684 -15.9245 -15.13 -11.7495 -10.688 -11.7281 -10.138 
-9.018001 -10.7495 -10.1265 -9.5935 -8.958 -8.958 -10.717 -12.0734 -13.6872 -14.6684 -17.6434 -19.1275 -16.1225 -16.0085 -12.9761 -11.7281 
-1.934 -3.458 -1.4985 -3.158 -4.65 -1.756 -3.428 0 -1.8085 -4.0535 -3.4975 -2.229 -2.871 -3.158 -2.229 -3.213 -3.922 -1.934 -4.579 -3.6505 
-5.207 -4.063 -4.178 -7.051001 -6.28 -5.872 -3.428 -1.8085 -5.2245 -7.803 -6.219 -5.068 -4.729 -4.5775 -4.994 -7.84 -4.558 -7.487 -8.674 
-6.0585 -7.798 -8.1425 -9.1365 -8.9055 -5.872 -5.7305 -5.2245 -8.280001 -9.857 -9.5565 -7.028501 -6.697 -7.208 -9.759001 -9.007 -10.76 -11.8222 
-9.576501 -12.3075 -9.4565 -11.7672 -8.9055 -7.9985 -9.769001 -8.280001 -10.647 -13.1945 -11.642 -9.632501 -8.580501 -12.2918 -11.047 -15.2132 -15.0952 
-14.0976 -13.6215 -12.0874 -11.7672 -10.1 -12.2276 -12.9221 -10.647 -13.9845 -15.28 -14.246 -11.7562 -13.8771 -13.5798 -17.2532 -19.5484 
-2.5195 -12.16972 0 -2.664 -3.784 -3.922 -1.7565 -11.0555 -1.934 -2.985 -3.213 
-15.36282 -12.16972 -2.664 -4.8555 -6.862 -5.2335 -13.7612 -12.9895 -4.111 -5.142 
-15.36282 -14.83372 -4.8555 -7.337501 -7.3595 -17.9864 -15.6952 -15.1665 -6.188 
-18.02682 -17.02522 -7.337501 -7.514 -20.6364 -19.9204 -17.8722 -17.2435 
-20.21832 -19.50722 -7.514 -20.9571 -22.5704 -22.0974 -19.9492 
