-4.759 
n/a 
n/a 
n/a 
n/a 
-4.759 
n/a 
n/a 
n/a 
n/a 
-4.759 
n/a 
n/a 
n/a 
n/a 
-4.759 
n/a 
n/a 
n/a 
n/a 
-3.251 -3.881 0 -8.392 0 -2.5045 -1.8085 -3.098 -1.756 -4.024 -1.7695 -3.277 0 
-6.03 -3.881 -8.392 -8.392 -2.5045 -3.3625 -4.9645 -4.558 -5.4565 -4.5525 -4.619 -3.277 
-6.03 -13.7954 -8.392 -11.4275 -3.3625 -6.8625 -6.26 -8.733 -5.876 -6.813 -4.619 
-16.4226 -13.7954 -11.4275 -12.2855 -6.8625 -8.185 -10.6335 -9.332001 -8.6125 -6.813 
-16.4226 -16.8309 -12.2855 -15.7855 -8.185 -12.7465 -11.2325 -11.9945 -8.6125 
-12.16972 -1.756 -9.8815 -5.907 -11.8325 -1.756 -3.251 -4.024 -1.4985 -3.486 
-13.92572 -12.6461 -10.396 -16.2785 -11.673 -4.834 -6.242001 -5.5295 -3.5655 
-24.81582 -13.1606 -21.2717 -18.5524 -15.0072 -7.833 -7.318501 -7.3755 
-25.33032 -24.0363 -23.0414 -21.6304 -18.0062 -8.9205 -9.474001 
-36.20602 -25.806 -26.1194 -24.6294 -19.0937 -11.183 
-12.16972 -5.5495 -8.981501 -2.5195 -10.2505 -10.707 -1.756 -3.563 -2.4265 
-17.71922 -13.3815 -10.3325 -13.4436 -21.3617 -12.6618 -5.2 -5.2875 
-25.75702 -16.4388 -21.4378 -24.5548 -23.3165 -16.1058 -5.9825 
-28.60852 -27.4951 -32.549 -26.5096 -26.7605 -16.8883 
-39.66482 -38.6063 -34.5038 -29.9536 -27.543 
-9.9095 -7.1795 0 -9.6485 -5.907 -3.6765 -2.229 -6.752501 -3.5155 -3.881 -1.756 -3.563 0 
-17.2188 -7.1795 -9.6485 -10.382 -10.2697 -4.9715 -7.53 -10.7495 -6.7845 -5.378 -5.2 -3.563 
-17.2188 -17.3808 -10.382 -14.9727 -11.5647 -11.4283 -11.9632 -14.0185 -6.9085 -9.392501 -5.2 
-27.4201 -18.1143 -14.9727 -16.2677 -18.0215 -15.8615 -15.2322 -14.1425 -12.0648 -9.392501 
-28.1536 -22.705 -16.2677 -22.7245 -22.4547 -19.1305 -15.3562 -19.2988 -12.0648 
