-4.759 
n/a 
n/a 
n/a 
n/a 
-4.759 
n/a 
n/a 
n/a 
n/a 
-4.759 
n/a 
n/a 
n/a 
n/a 
-4.759 
n/a 
n/a 
n/a 
n/a 
-9.441 -4.5095 -2.9775 -4.3105 -3.35 -3.5025 -5.1845 -4.4895 
-14.2177 -7.625 -8.116501 -7.0115 -7.601501 -9.6455 -9.3885 
-17.3332 -13.3528 -11.1065 -12.3582 -14.2407 -13.8975 
-23.061 -16.3428 -16.4532 -18.9974 -18.4927 
-26.051 -21.6895 -23.0924 -23.2494 
-9.441 -4.4895 -1.7565 -3.64 0 -12.16972 -3.35 -3.3255 -3.5025 0 
-14.1977 -6.047 -5.468 -3.64 -12.16972 -15.51972 -7.009 -6.589001 -3.5025 
-15.7552 -10.4705 -5.468 -16.72332 -15.51972 -19.17872 -10.396 -6.589001 
-20.1787 -10.4705 -19.47312 -20.07332 -19.17872 -22.56572 -10.396 
-20.1787 -24.47562 -22.82312 -23.73232 -22.56572 -22.56572 
-12.16972 -3.5825 -3.7575 0 -4.3105 -3.35 -5.1845 -4.4895 -3.3255 -3.5025 
-15.75222 -8.401501 -3.7575 -4.3105 -7.0115 -8.131001 -9.3885 -7.5325 -6.589001 
-20.57122 -8.401501 -8.470501 -7.0115 -12.8877 -13.8232 -12.7445 -10.4505 
-20.57122 -13.2819 -11.9445 -12.8877 -18.5799 -17.1792 -15.6625 
-25.45162 -16.7559 -17.8207 -18.5799 -21.9359 -20.0972 
-2.9775 -1.7565 -7.703001 -4.5095 0 -10.5895 -3.35 -3.5025 -5.1845 -4.5095 -4.2115 
-4.9315 -9.834001 -12.7815 -4.5095 -10.5895 -14.1439 -7.601501 -9.6455 -10.281 -9.387 
-13.2296 -14.9473 -12.7815 -16.3538 -14.1439 -18.3954 -14.2407 -14.79 -15.1585 
-18.3429 -14.9473 -24.6258 -19.9082 -18.3954 -25.0346 -19.3852 -19.6675 
-18.3429 -26.7916 -28.1802 -24.1597 -25.0346 -30.1791 -24.2627 
