-4.759 
n/a 
n/a 
n/a 
n/a 
-4.759 
n/a 
n/a 
n/a 
n/a 
-4.759 
n/a 
n/a 
n/a 
n/a 
-4.759 
n/a 
n/a 
n/a 
n/a 
-1.4985 -3.9725 -2.4285 -4.455 -2.186 -4.2245 -1.7565 -3.5155 -4.1265 -1.756 -3.5435 0 
-4.88 -6.384501 -6.8135 -6.646001 -7.399 -5.277 -4.761 -8.4865 -5.591 -5.099 -3.5435 
-7.236501 -7.02 -8.962001 -12.2748 -7.812 -8.487 -9.401001 -9.0905 -8.6035 -5.099 
-7.8135 -9.059501 -14.6934 -12.6878 -11.1734 -13.4796 -9.851501 -12.3136 -8.6035 
-9.517 -14.8275 -15.1064 -16.0492 -16.166 -13.9301 -13.1082 -12.3136 
-5.228 -2.186 -1.4985 -3.177 -4.2245 -1.7565 -1.4985 -3.59 -1.756 -3.074 -4.285 -3.8385 0 
-7.254 -3.339 -4.0915 -7.482 -5.277 -2.4195 -4.268 -5.017 -4.566 -7.987 -7.494 -3.8385 
-8.377501 -6.1245 -8.269001 -8.1995 -5.484 -5.009 -5.4655 -7.445001 -9.255 -10.76 -7.494 
-11.4906 -9.610001 -8.682501 -8.4305 -7.844 -6.204 -7.732 -12.3518 -12.147 -10.76 
-14.9761 -10.157 -8.926001 -10.172 -9.118501 -8.368 -12.6818 -15.2438 -12.147 
-1.4985 -5.057 -5.237 -2.7415 -3.757 -1.934 -2.3615 -5.392 0 
-6.552 -11.7292 -7.245501 -6.142 -5.7505 -3.539 -8.939501 -5.392 
-13.3124 -13.7377 -10.7495 -7.9275 -7.658501 -10.4675 -8.939501 
-15.3209 -17.2417 -12.535 -10.375 -14.9936 -10.4675 
-18.8249 -19.0272 -14.9825 -17.7101 -14.9936 
-1.4985 -4.688 -2.186 -1.4985 -3.757 -2.5045 -3.3235 -2.5045 -3.757 -1.7565 -3.9555 
-5.4195 -6.8035 -3.339 -4.5435 -6.437 -3.7105 -3.8485 -5.468 -4.5665 -5.717 
-7.160501 -7.909 -6.2325 -6.865 -7.495501 -3.8545 -7.648 -5.918 -7.5315 
-8.210501 -10.9775 -9.1615 -7.984 -7.6055 -7.676 -8.0585 -9.114201 
-11.416 -13.9065 -10.4115 -8.1235 -9.58 -8.071501 -11.3383 
