-4.759 
n/a 
n/a 
n/a 
n/a 
-4.759 
n/a 
n/a 
n/a 
n/a 
-4.759 
n/a 
n/a 
n/a 
n/a 
-4.759 
n/a 
n/a 
n/a 
n/a 
-8.733001 -6.318 -2.264 -6.4735 -3.5455 -1.4985 -3.158 -3.9415 -2.7415 -8.207001 -1.756 -4.157 -1.7695 -8.517 -1.7695 -3.5905 
-15.3518 -8.668 -8.639501 -9.446 -3.91 -4.178 -6.126 -6.820001 -10.689 -10.088 -5.4425 -5.6485 -10.0715 -10.8965 -6.087 
-17.7018 -15.7353 -11.7812 -9.6785 -5.429 -7.429501 -8.693501 -13.9705 -13.3365 -14.3628 -7.547 -13.5388 -14.0147 -15.6952 
-24.7691 -18.877 -12.0137 -11.3143 -9.047501 -9.033001 -15.9454 -16.8125 -17.3248 -16.4673 -15.5861 -16.917 -18.594 
-27.9108 -19.1095 -13.6495 -14.9328 -10.8294 -16.3793 -18.7874 -20.8008 -19.4293 -24.5064 -18.7625 -21.4963 
-2.5045 -3.543 -3.5435 -3.886 -1.934 -3.9415 -8.1485 -4.174 -4.157 -1.7695 -8.207001 -1.756 -1.934 -3.5905 -2.4265 -2.186 -4.157 -3.818 -1.7695 -8.517 
-5.323 -7.922 -6.580501 -5.504 -5.2535 -12.5524 -12.6831 -7.915501 -5.6485 -9.811001 -10.088 -4.0205 -5.055 -6.285501 -3.292 -5.8055 -7.3645 -5.863 -10.0715 
-8.1885 -10.1895 -8.456 -8.262 -14.373 -17.087 -16.4246 -8.750501 -12.5695 -12.8795 -12.564 -7.113501 -6.938 -6.9515 -7.826001 -8.261001 -8.332001 -15.0128 
-10.204 -12.065 -11.3694 -17.6303 -18.9076 -20.8285 -17.2596 -16.2523 -15.9835 -15.2966 -15.6802 -8.542001 -7.735001 -11.9127 -10.476 -9.666 -16.0813 
-12.0795 -14.9784 -20.7377 -22.1649 -22.6491 -21.6635 -24.7614 -19.3219 -18.173 -18.4128 -17.1087 -10.1145 -12.826 -14.5627 -11.881 -17.4153 
-3.5435 -4.969 -1.934 -3.9415 -9.758 -4.174 -8.207001 0 -1.934 -3.5905 -8.517 0 
-7.953501 -6.456501 -5.2535 -14.1619 -14.4132 -11.7195 -7.5325 -1.934 -5.055 -11.5095 -7.9395 
-10.0225 -9.5185 -15.9825 -18.8171 -22.3567 -12.1175 -9.854501 -5.055 -13.6496 -11.7501 
-13.4577 -20.3459 -20.6377 -26.7606 -22.3567 -14.4395 -12.5895 -13.8524 -13.8524 
-24.2851 -25.0011 -28.5812 -26.7606 -24.6787 -17.1745 -21.3869 -13.8524 
-3.9345 -1.7695 -4.46 -1.7565 -3.5435 -1.4985 -4.02 -1.7565 -9.6365 -3.152 -4.157 -1.7695 -8.207001 -1.934 -3.9415 -1.756 -8.517 -1.934 -3.5905 
-3.94 -6.756001 -5.8675 -4.913 -5.4025 -4.914001 -5.1665 -10.985 -12.9147 -6.5785 -5.6485 -9.811001 -10.1925 -5.2535 -5.6475 -10.3925 -10.557 -5.055 
-7.392 -8.867001 -8.787001 -6.545 -8.8625 -5.776 -15.0084 -14.2632 -16.3412 -7.554 -12.5695 -12.3595 -12.4755 -6.226 -14.451 -13.55 -13.259 
-9.296 -12.0333 -10.9148 -9.9055 -9.361501 -15.7479 -18.2866 -17.6897 -17.3167 -15.1394 -13.2999 -13.3935 -13.797 -14.9971 -17.3781 -16.076 
-12.6685 -14.1611 -14.2753 -10.498 -19.417 -19.0261 -21.7131 -18.6652 -24.9021 -15.5254 -16.6697 -14.7658 -22.6797 -17.9022 -19.9041 
