-4.759 
n/a 
n/a 
n/a 
n/a 
-4.759 
n/a 
n/a 
n/a 
n/a 
-4.759 
n/a 
n/a 
n/a 
n/a 
-4.759 
n/a 
n/a 
n/a 
n/a 
-2.871 -1.7565 -1.4985 -4.8 0 -1.934 -1.4985 -3.898 -1.7565 -3.254 0 
-3.5385 -2.4195 -6.112 -4.8 -1.934 -2.6125 -5.0465 -4.9795 -6.102 -3.254 
-3.7675 -7.079501 -6.112 -6.6265 -2.6125 -6.362 -5.3325 -10.533 -6.102 
-8.8855 -7.079501 -8.818001 -7.426 -6.362 -6.6815 -11.0776 -10.533 
-8.8855 -9.863001 -9.4725 -11.7203 -6.6815 -12.5364 -11.0776 
-2.871 -4.3645 -5.8795 -1.7565 -3.135 -4.3845 0 
-7.414001 -11.609 -6.7675 -4.6765 -8.594 -4.3845 
-15.1391 -12.497 -9.948001 -9.9945 -8.594 
-16.0271 -15.6775 -15.3186 -9.9945 
-19.2076 -21.0481 -15.3186 
-1.4985 -4.055 -2.9705 -2.674 -1.4985 -5.3615 -1.7695 -3.8245 -2.186 -4.1205 -2.5045 -3.995 -3.929 -3.0365 -2.186 -2.847 -5.126 -4.657 
-5.2035 -6.501 -4.904 -3.998 -6.565001 -6.6255 -6.049 -6.206 -5.007 -5.3175 -6.902 -7.7415 -5.627 -3.66 -4.1045 -8.3435 -8.616001 
-7.3105 -9.05 -6.39 -8.5775 -8.1035 -11.6372 -8.9665 -9.256001 -6.317 -10.228 -10.2185 -9.398001 -6.2205 -4.256001 -10.5668 -12.1897 
-9.630501 -10.2705 -10.598 -8.8995 -13.2762 -14.5547 -12.2351 -10.554 -11.5817 -13.5445 -11.9856 -9.924001 -6.805 -10.7885 -14.413 
-10.84 -14.4785 -10.7775 -14.1586 -16.1937 -17.8233 -13.5331 -15.8187 -14.8982 -15.3116 -12.5116 -10.209 -13.5619 -14.6347 
-2.7835 -1.8085 -4.3305 -2.7765 -5.7645 -4.221 0 -3.4765 -2.7835 -4.221 -3.013 -2.6165 -4.1835 -3.0365 0 -2.4265 -2.186 -4.1205 -2.3335 -4.221 -2.742 -5.2745 -2.4265 -2.9905 -3.0365 
-4.329 -6.0815 -7.2295 -7.666 -11.2885 -4.221 -3.4765 -4.429 -8.342001 -7.353001 -3.724 -5.167 -7.0365 -3.0365 -2.4265 -3.292 -5.007 -5.9915 -6.3 -6.748 -8.016001 -6.7475 -4.6465 -4.64 
-8.362 -8.526501 -12.4746 -13.4406 -11.2885 -7.103001 -4.429 -9.8275 -12.043 -7.9935 -5.951 -8.011001 -7.0365 -5.4595 -3.292 -6.0455 -6.851 -10.321 -8.6175 -12.5596 -9.396501 -7.495501 -6.477 
-10.2085 -13.9848 -18.2492 -13.4406 -14.1705 -7.8205 -9.8275 -13.6371 -12.6835 -10.2185 -9.0815 -8.011001 -9.1 -6.089 -6.0455 -6.87 -11.3489 -12.6385 -15.1043 -13.9401 -9.5135 -10.111 
-15.6668 -19.7594 -18.2492 -16.3226 -14.888 -13.5668 -13.6371 -14.2776 -14.9085 -13.6988 -9.0815 -9.755 -9.811001 -9.351001 -6.87 -11.4033 -13.6664 -19.1253 -16.4848 -14.0571 -12.3476 
