-4.759 
n/a 
n/a 
n/a 
n/a 
-4.759 
n/a 
n/a 
n/a 
n/a 
-4.759 
n/a 
n/a 
n/a 
n/a 
-4.759 
n/a 
n/a 
n/a 
n/a 
-2.3615 -3.685 -4.3155 -4.3125 -3.869 -3.9515 -2.264 -1.4985 -7.203001 -3.6385 -2.229 -3.3435 0 
-4.9725 -7.929501 -8.163501 -8.6085 -7.118 -5.126 -2.9195 -8.286 -8.81 -4.977 -5.0415 -3.3435 
-8.824 -11.8697 -12.8759 -12.2121 -8.106501 -5.749001 -9.745001 -9.2235 -10.1995 -6.656 -5.0415 
-12.9542 -16.5821 -16.4795 -13.2006 -8.663 -13.1599 -10.8691 -10.7505 -10.7415 -6.656 
-17.6666 -20.1857 -17.468 -13.7571 -16.2167 -14.284 -12.3961 -11.2925 -10.7415 
-2.3615 -4.0715 -2.186 -3.383 -5.4905 -1.4985 -3.1385 -2.229 
-5.9175 -5.627501 -4.438 -7.408501 -6.917001 -4.2575 -4.6125 
-6.666 -7.844501 -8.720501 -9.515501 -9.556001 -5.5035 
-8.722501 -12.624 -10.66 -12.1545 -10.7836 
-13.7166 -14.5635 -13.299 -13.3821 
-2.3615 -3.6505 -4.0195 -4.3125 -4.867 -1.7695 -1.4985 -3.1385 
-5.4725 -7.862 -7.2115 -9.1145 -6.8525 -2.7955 -4.2575 
-9.6435 -11.488 -10.3605 -10.186 -7.6515 -5.4345 
-13.3655 -14.637 -11.432 -10.7655 -8.7915 
-16.5145 -15.7085 -12.0115 -11.9055 
-2.3615 -4.0695 -4.4465 -1.4985 -3.8225 -3.1385 -3.383 -3.4915 
-6.1305 -9.699 -5.7995 -4.887 -6.4475 -6.726501 -4.8075 
-12.1862 -10.624 -9.210501 -6.693 -10.041 -7.988 
-13.1112 -14.035 -10.224 -10.2535 -11.3025 
-16.5222 -15.0485 -13.7845 -11.515 
