-4.759 
n/a 
n/a 
n/a 
n/a 
-4.759 
n/a 
n/a 
n/a 
n/a 
-4.759 
n/a 
n/a 
n/a 
n/a 
-4.759 
n/a 
n/a 
n/a 
n/a 
-2.5195 -4.711 -1.7695 -4.79 -4.153 
-7.351501 -6.8195 -7.161001 -6.2405 
-7.98 -8.43 -8.369 
-9.053 -9.448501 
-10.734 
-3.9535 -2.5195 -4.711 -4.153 -1.7695 -4.79 -4.153 0 
-6.238 -7.351501 -6.8605 -6.192 -7.161001 -6.2405 -4.153 
-10.135 -9.1545 -8.701501 -9.925501 -8.369 -6.2405 
-12.1354 -10.6345 -10.4345 -9.996501 -8.369 
-13.6154 -12.3675 -10.464 -9.996501 
-2.5195 -4.711 -1.7695 -6.8455 -4.153 
-7.351501 -6.8195 -9.3535 -9.264501 
-7.98 -15.4295 -11.9819 
-17.6412 -18.0579 
-20.2696 
-4.711 -4.193 -12.16972 -4.153 
-9.064501 -17.60512 -16.32272 
-22.99342 -21.75812 
-27.14642 
n/a 
