-4.759 
n/a 
n/a 
n/a 
n/a 
-4.759 
n/a 
n/a 
n/a 
n/a 
-4.759 
n/a 
n/a 
n/a 
n/a 
-4.759 
n/a 
n/a 
n/a 
n/a 
-2.5195 -4.8665 -2.9805 -2.7415 -1.8085 -3.4185 -1.7565 -6.557 -4.5375 -4.304 0 
-7.048 -7.1975 -4.004 -3.891 -4.1435 -4.2475 -7.653501 -10.2815 -6.076 -4.304 
-9.440001 -7.855501 -5.075 -5.699 -4.5105 -10.504 -11.6348 -10.308 -6.076 
-9.867001 -8.7045 -6.2545 -5.731 -11.0822 -14.4853 -11.6613 -10.308 
-10.7968 -9.401501 -6.2795 -12.7455 -15.0635 -14.5118 -11.6613 
-4.426 -1.7565 -1.4985 -3.0835 -4.7285 -4.1555 -6.127501 -2.7415 -4.645 -1.7695 -1.4985 -3.1715 -4.304 -3.5065 -4.8665 -1.756 -2.186 -4.3915 -2.5045 -1.4985 -6.848001 -3.757 -3.5065 -1.4985 -3.228 -3.454 -3.277 
-5.47 -2.4195 -3.535 -6.042 -8.4455 -8.3745 -6.775 -5.6165 -5.484001 -2.7955 -3.994 -6.271501 -7.718501 -7.0065 -6.627 -3.986 -6.224 -5.4515 -3.583 -7.7685 -9.042001 -6.747001 -4.358 -3.9575 -6.597 -5.314 
-5.9535 -4.6785 -6.335501 -9.523001 -13.103 -10.5345 -9.151 -6.170001 -5.949501 -5.2625 -6.9865 -9.355 -10.543 -8.0415 -8.187 -7.54 -6.8635 -6.187 -9.766001 -9.762001 -12.7778 -7.796 -5.8355 -6.6945 -6.765 
-8.021 -7.476501 -10.0095 -14.265 -14.4465 -13.2945 -10.0655 -6.377501 -7.585001 -7.905 -9.625501 -12.1729 -11.9612 -9.300001 -12.2162 -8.186 -7.4975 -13.0492 -11.7595 -13.5156 -13.8268 -9.816 -9.7915 -6.782001 
-9.983001 -11.3061 -14.8615 -15.6085 -17.066 -14.044 -10.506 -7.8485 -8.5635 -10.912 -12.4756 -13.5911 -13.2197 -13.5032 -12.8622 -8.83 -14.6397 -15.0427 -15.5131 -14.5646 -15.8468 -13.772 -9.913 
-2.5195 -4.8665 -2.9805 -2.186 -1.4985 -3.4185 -1.7565 -7.2955 0 -2.0935 -1.4985 -3.814 -3.454 -7.883 -2.9805 -2.8645 -1.4985 -4.2245 -1.7565 -6.848001 
-7.048 -7.1975 -4.1635 -3.339 -5.019 -4.2475 -8.142 -7.2955 -2.0935 -2.9725 -4.198 -6.676001 -9.8485 -10.2435 -4.3245 -4.3545 -5.2345 -5.277 -8.689 
-9.440001 -8.778501 -5.312 -7.1445 -6.382501 -8.7895 -8.142 -9.2585 -2.9725 -5.1435 -6.7155 -14.5389 -12.248 -11.5875 -5.9285 -8.474 -5.753 -10.76 
-11.1578 -9.596001 -8.500501 -7.680501 -10.3815 -8.7895 -9.772 -10.0355 -5.1435 -7.3835 -15.2716 -16.9384 -13.592 -13.1915 -10.6465 -8.614 -11.634 
-11.9753 -13.0801 -8.556001 -11.5959 -10.3815 -9.906 -10.5455 -12.2065 -7.3835 -16.6562 -17.6711 -18.2824 -15.196 -17.9095 -10.7865 -15.3758 
-7.2935 -2.7415 -3.0835 -4.645 -1.7695 -1.4985 -5.1845 -5.74 -4.304 -1.934 -4.8665 -1.756 -3.074 -2.9805 -2.8645 -3.1125 -1.4985 -4.2245 -1.7565 -1.4985 -6.848001 -3.5065 -3.2295 -3.454 -3.277 0 
-9.242001 -5.276 -6.588 -5.484001 -2.7955 -6.5205 -5.7465 -8.719501 -6.016001 -6.0825 -6.627 -4.566 -6.274 -4.3245 -3.5345 -4.8735 -5.2345 -5.277 -2.4195 -7.7685 -10.27 -7.3225 -5.4895 -5.314 -3.277 
-11.8061 -6.954 -7.1 -5.949501 -7.821001 -7.317 -8.720501 -10.287 -9.515501 -7.0475 -9.265 -7.5695 -7.455 -5.2625 -5.224 -7.213 -5.753 -5.484 -8.696 -10.6735 -14.232 -9.276501 -6.183 -5.314 
-13.4841 -7.226 -7.285 -9.144501 -8.579 -9.027 -10.292 -13.7865 -10.2395 -9.6245 -12.3645 -8.731001 -8.4775 -6.747 -7.3805 -7.926001 -5.9345 -10.213 -11.6596 -14.6355 -16.186 -9.8325 -6.183 
-13.7561 -7.3795 -10.759 -9.145 -9.9355 -10.4345 -13.7915 -14.5105 -12.8165 -12.818 -13.526 -9.8625 -9.779 -8.901 -8.239 -8.179501 -10.5965 -13.3606 -15.6216 -16.5895 -16.742 -9.8325 
