-4.759 
n/a 
n/a 
n/a 
n/a 
-4.759 
n/a 
n/a 
n/a 
n/a 
-4.759 
n/a 
n/a 
n/a 
n/a 
-4.759 
n/a 
n/a 
n/a 
n/a 
-4.6415 0 -7.485 0 -5.4085 0 
-4.6415 -7.485 -7.485 -5.4085 -5.4085 
-12.5627 -7.485 -13.4219 -5.4085 
-12.5627 -13.4219 -13.4219 
-18.4996 -13.4219 
-4.6415 0 -10.827 0 -4.1465 0 
-4.6415 -10.827 -10.827 -4.1465 -4.1465 
-15.9047 -10.827 -14.9735 -4.1465 
-15.9047 -14.9735 -14.9735 
-20.0512 -14.9735 
-15.0475 0 -5.4085 0 
-15.4837 -5.4085 -5.4085 
-20.8922 -5.4085 
-20.8922 
n/a 
-12.696 0 -4.1465 -10.178 0 
-10.598 -4.1465 -15.3793 -10.178 
-15.1705 -15.3793 -15.3793 
-26.4033 -15.3793 
-26.4033 
