-4.759 
n/a 
n/a 
n/a 
n/a 
-4.759 
n/a 
n/a 
n/a 
n/a 
-4.759 
n/a 
n/a 
n/a 
n/a 
-4.759 
n/a 
n/a 
n/a 
n/a 
-4.6845 -4.4605 -4.5345 -2.3615 -4.69 0 
-9.9895 -8.639501 -6.5305 -8.3265 -4.69 
-14.1685 -11.3837 -13.5243 -8.3265 
-16.9127 -18.3775 -13.5243 
-23.9065 -18.3775 
-3.3715 -4.6285 -4.4605 -3.074 -4.0555 -1.7695 -2.3615 -5.072 
-7.8745 -8.5375 -7.7655 -6.377 -4.7475 -3.736 -8.062 
-12.3781 -11.8689 -10.233 -7.111001 -6.3035 -9.552501 
-15.7095 -14.3364 -10.967 -9.045501 -12.9332 
-18.177 -15.0704 -12.9015 -15.9332 
-1.4985 -4.4605 -1.7565 -4.6845 -3.1385 -3.251 -3.074 -3.6955 -1.7695 -3.1495 -5.8805 0 
-6.107 -6.358 -5.661 -8.4755 -5.812 -5.8205 -6.136 -4.4705 -4.7475 -8.776 -5.8805 
-7.2235 -10.4265 -9.453501 -10.396 -8.5605 -7.934501 -6.963 -7.3395 -10.4505 -8.776 
-10.621 -14.5032 -11.4338 -13.1445 -10.218 -8.359501 -9.948 -13.5357 -10.4505 
-14.9799 -16.4835 -14.1823 -14.802 -10.7105 -11.4011 -16.1442 -13.5357 
-4.5735 -4.6285 -4.4605 -3.152 -5.806 -3.147 
-6.6545 -8.5375 -6.6995 -7.4595 -8.784 
-9.7635 -9.7555 -11.4906 -10.3415 
-11.0385 -14.6132 -14.3726 
-15.8962 -17.4952 
