-4.759 
n/a 
n/a 
n/a 
n/a 
-4.759 
n/a 
n/a 
n/a 
n/a 
-4.759 
n/a 
n/a 
n/a 
n/a 
-4.759 
n/a 
n/a 
n/a 
n/a 
-9.429501 -4.245 -3.0785 
-11.5855 -7.969001 
-13.4084 
n/a 
n/a 
-4.953 0 -5.1845 -4.953 -4.2115 
-4.953 -5.1845 -8.975 -9.183001 
-10.322 -8.975 -13.3254 
-14.1125 -13.3254 
-18.4629 
-4.245 0 -5.1845 -4.245 -3.0785 -1.7695 -3.473 
-4.245 -5.1845 -7.991 -7.969001 -4.903 -5.641 
-8.779001 -7.991 -12.0344 -9.757001 -9.305 
-9.365001 -12.0344 -13.8224 -14.2046 
-13.7418 -13.8224 -18.27 
-6.1945 0 -5.1845 -6.1945 -4.3915 -3.4605 0 
-6.1945 -5.1845 -10.368 -11.08 -8.9565 -3.4605 
-12.293 -10.368 -15.4897 -15.645 -8.9565 
-17.4765 -15.4897 -20.0547 -15.645 
-22.5982 -20.0547 -20.0547 
