-4.759 
n/a 
n/a 
n/a 
n/a 
-4.759 
n/a 
n/a 
n/a 
n/a 
-4.759 
n/a 
n/a 
n/a 
n/a 
-4.759 
n/a 
n/a 
n/a 
n/a 
-7.7505 -8.007501 -2.7455 -3.8035 -4.4825 -1.756 -2.8965 -5.147 -3.4635 -3.8035 
-16.4274 -10.1465 -6.604 -8.377001 -5.9515 -3.751 -9.005501 -9.123 -6.042 
-17.8369 -13.2375 -11.8569 -10.0225 -9.21 -10.2865 -13.1547 -11.8665 
-21.5584 -18.6024 -13.5024 -13.281 -15.9225 -14.4357 -15.8982 
-26.8113 -20.2479 -16.7609 -19.9935 -20.0717 -17.1792 
-7.244 -3.355 -2.7455 -3.969 -1.7565 -4.8635 -3.8035 0 
-11.2252 -6.113 -7.9315 -5.4795 -6.4065 -6.1775 -3.8035 
-13.9832 -11.634 -9.6675 -9.995 -7.410501 -6.1775 
-19.5042 -13.37 -14.2886 -11.1144 -7.410501 
-21.2402 -17.9911 -15.408 -11.1144 
-7.7505 -4.126 -2.186 -3.644 -2.7455 -3.8035 0 -5.512 
-12.3349 -5.985001 -6.868501 -6.078501 -6.604 -3.8035 -5.512 
-14.1939 -10.9769 -8.733001 -10.2085 -6.604 -10.1075 
-19.1858 -12.8414 -13.1982 -10.2085 -13.5874 
-21.0503 -17.3066 -13.1982 -17.3913 
-7.7505 -5.213 -4.6525 -3.1015 -1.8085 -3.4795 -3.6885 0 -1.756 -10.0795 
-13.4219 -10.168 -8.8605 -5.0505 -6.392 -8.242001 -3.6885 -1.756 -12.8441 
-18.3769 -14.4706 -11.0787 -6.6635 -10.0955 -8.242001 -5.23 -12.8441 
-22.6795 -16.6888 -12.6917 -10.694 -10.0955 -10.1623 -17.3373 
-24.8977 -18.3018 -16.7222 -10.694 -12.296 -22.2696 
