-4.759 
n/a 
n/a 
n/a 
n/a 
-4.759 
n/a 
n/a 
n/a 
n/a 
-4.759 
n/a 
n/a 
n/a 
n/a 
-4.759 
n/a 
n/a 
n/a 
n/a 
-8.444 -2.186 -1.8085 -5.9175 -4.681 -1.934 -3.6525 -2.743 
-10.543 -3.164 -7.927 -9.026501 -6.131001 -6.195 -5.5585 
-11.521 -9.591001 -11.4766 -10.7837 -11.2054 -8.229 
-17.948 -13.1706 -13.2338 -15.8581 -13.2394 
-21.5276 -14.9278 -18.3082 -17.8921 
-12.8545 -2.186 -1.8085 -5.1845 -3.8195 -4.681 0 
-15.057 -3.164 -7.2815 -6.896501 -7.058001 -4.681 
-17.0888 -8.269 -8.5255 -9.256001 -7.058001 
-22.1938 -9.1755 -9.832001 -9.256001 
-23.1003 -9.936 -9.832001 
-3.508 -2.743 -8.444 0 -5.1845 -3.8195 -4.681 
-5.574 -10.821 -8.444 -5.1845 -6.896501 -7.058001 
-14.8032 -10.821 -14.0539 -6.896501 -9.256001 
-14.8032 -16.4309 -15.7659 -9.256001 
-20.4131 -18.1429 -18.1254 
-3.508 -2.743 -8.444 0 -5.1845 -4.681 
-5.574 -10.821 -8.444 -5.1845 -7.869 
-14.8032 -10.821 -14.0539 -7.869 
-14.8032 -16.4309 -16.7384 
-20.4131 -19.1154 
