-4.759 
n/a 
n/a 
n/a 
n/a 
-4.759 
n/a 
n/a 
n/a 
n/a 
-4.759 
n/a 
n/a 
n/a 
n/a 
-4.759 
n/a 
n/a 
n/a 
n/a 
-2.3615 -2.7415 -4.7935 -3.849 -2.5045 -4.758 -3.8275 0 
-4.455 -6.9495 -6.2965 -6.305 -7.5535 -8.47 -3.8275 
-8.677501 -8.1925 -8.479 -11.4576 -11.6239 -8.47 
-10.1425 -10.5035 -13.6984 -15.528 -11.6239 
-12.5105 -15.7229 -17.7688 -15.528 
-2.4265 -2.186 -3.849 -5.102 -4.3425 -3.8275 
-3.292 -4.8565 -8.179501 -9.790501 -8.772 
-5.872 -9.327 -13.053 -14.4384 
-10.085 -14.2919 -17.7009 
-15.1981 -18.9398 
-3.321 -3.1495 -2.7765 -2.489 -3.849 -2.5045 -4.758 -3.8275 
-6.3015 -5.6525 -3.495 -5.125 -6.305 -7.5535 -8.47 
-8.331501 -5.8615 -6.1585 -6.962501 -11.4576 -11.6239 
-8.424001 -8.7235 -7.667 -12.5221 -15.528 
-11.4416 -10.2805 -13.4234 -16.5925 
-2.3615 -2.186 -3.849 -4.3355 -5.0015 -3.8275 
-3.5005 -4.8565 -7.7535 -8.175501 -9.5975 
-5.99 -8.929501 -11.9127 -13.0315 
-10.057 -13.2189 -16.7687 
-14.3464 -18.0749 
