-4.759 
n/a 
n/a 
n/a 
n/a 
-4.759 
n/a 
n/a 
n/a 
n/a 
-4.759 
n/a 
n/a 
n/a 
n/a 
-4.759 
n/a 
n/a 
n/a 
n/a 
-1.4985 -4.652 -3.502 -4.567 -2.5045 -10.384 
-5.639501 -8.652 -6.8315 -6.58 -13.5835 
-9.522 -12.2695 -8.567 -17.9472 
-13.3483 -14.005 -20.4906 
-15.0838 -25.9286 
-3.502 -5.0775 -6.3855 -2.186 -4.5185 -4.653 
-8.4115 -10.9855 -8.4165 -7.104501 -8.894001 
-14.5575 -13.0165 -13.4904 -11.5284 
-16.5885 -18.0904 -17.9143 
-21.6624 -22.5143 
-1.4985 -3.502 -4.567 -2.186 -4.475 -1.934 -4.5185 -4.227 -4.142 0 
-4.5955 -6.8315 -6.4115 -6.196 -5.5575 -7.0565 -7.786 -7.452001 -4.142 
-7.2465 -8.8405 -9.727501 -7.056 -11.6278 -9.901001 -11.3298 -7.452001 
-8.988501 -12.2111 -10.676 -13.5497 -14.4723 -14.0902 -11.3298 
-12.3591 -13.1596 -17.1697 -16.3942 -18.6615 -14.0902 

n/a 
n/a 
n/a 
n/a 
