-4.759 
n/a 
n/a 
n/a 
n/a 
-4.759 
n/a 
n/a 
n/a 
n/a 
-4.759 
n/a 
n/a 
n/a 
n/a 
-4.759 
n/a 
n/a 
n/a 
n/a 

n/a 
n/a 
n/a 
n/a 
-3.1495 -3.152 -5.1605 -2.3345 -3.3715 -4.311 -4.1455 -4.2085 -1.7695 -4.2085 
-5.3825 -7.298 -6.162 -5.279 -8.067 -7.0965 -8.779 -5.989501 -6.448 
-9.5565 -7.748501 -8.944 -9.915001 -9.352001 -12.319 -10.443 -6.578001 
-10.169 -10.609 -13.8736 -11.2736 -14.6601 -13.983 -10.5085 
-13.0295 -15.5386 -15.2322 -16.5817 -16.3241 -14.0485 
-3.1495 -2.4945 -4.5175 -2.3345 -3.3715 -1.7565 -3.9725 -4.1455 -1.934 -3.8405 -1.7565 -3.8405 0 
-4.459 -7.5645 -6.957001 -5.279 -4.3215 -5.669 -8.986501 -5.415 -6.2335 -4.563 -5.905 -3.8405 
-9.6125 -10.647 -10.3605 -6.3855 -8.819 -11.4398 -10.244 -10.7335 -7.6755 -8.8905 -5.905 
-12.875 -14.0505 -11.467 -10.717 -15.1612 -12.6973 -15.5625 -12.1755 -12.1414 -8.8905 
-16.2785 -15.157 -15.7985 -17.0592 -16.4187 -18.0158 -17.0045 -16.6414 -12.1414 

n/a 
n/a 
n/a 
n/a 
