-4.759 
n/a 
n/a 
n/a 
n/a 
-4.759 
n/a 
n/a 
n/a 
n/a 
-4.759 
n/a 
n/a 
n/a 
n/a 
-4.759 
n/a 
n/a 
n/a 
n/a 
-1.934 -3.45 -7.8435 -8.046 0 -5.147 -8.046 0 -5.847 -8.046 0 -1.756 -7.852 -8.046 -2.4945 -3.699 0 
-5.009 -12.6449 -8.9905 -8.046 -5.147 -9.491501 -8.046 -5.847 -10.468 -8.046 -1.756 -9.7325 -16.4194 -10.4425 -5.304 -3.699 
-14.6355 -13.7919 -8.9905 -10.4345 -9.491501 -9.491501 -14.2772 -10.468 -10.468 -9.374001 -9.7325 -18.3233 -18.8159 -13.252 -5.304 
-15.7825 -13.7919 -11.5856 -14.779 -9.491501 -15.7759 -18.8982 -10.468 -11.796 -17.3943 -18.3233 -20.7198 -21.6254 -13.252 
-15.7825 -16.387 -15.9301 -14.779 -15.7759 -20.3969 -18.8982 -11.796 -19.8163 -25.9851 -20.7198 -23.5293 -21.6254 
-1.934 -2.3335 -5.1875 -4.2655 0 -3.845 -1.7565 -3.9755 -1.7565 -3.699 -3.681 -2.4945 -3.0365 
-4.359 -8.04 -7.408 -4.2655 -3.845 -4.13 -6.116001 -4.312 -5.662 -5.8595 -5.112 -4.952001 
-10.4345 -9.834001 -7.408 -10.038 -4.13 -8.416 -6.453501 -8.561501 -7.666 -7.6735 -7.786 
-12.2285 -9.834001 -13.5811 -10.4122 -8.416 -8.579 -10.9174 -10.7159 -9.656501 -9.8475 
-12.2285 -16.2153 -13.9553 -14.6982 -8.579 -13.1515 -13.0718 -12.7064 -12.0095 
-1.934 -3.1495 -7.8435 -4.7075 0 -5.147 -4.7075 0 -5.847 -4.7075 -1.756 -7.852 -4.7075 -2.4945 -4.3035 0 
-4.5395 -10.907 -9.0815 -4.7075 -5.147 -7.201 -4.7075 -5.847 -7.2635 -6.067501 -9.7325 -9.017 -7.576001 -5.6305 -4.3035 
-12.7716 -12.145 -9.0815 -8.026001 -7.201 -7.201 -8.113001 -7.2635 -8.7075 -10.7025 -10.6625 -12.3465 -10.4185 -5.6305 
-14.0096 -12.145 -12.8314 -8.139001 -7.201 -9.51 -8.189001 -8.7075 -13.5971 -11.6325 -13.992 -15.189 -10.4185 
-14.0096 -15.8949 -12.9444 -8.139001 -9.51 -9.543 -9.476501 -13.5971 -14.5271 -14.962 -16.8345 -15.189 
-6.134501 -2.186 -5.147 -9.286 0 -5.847 -8.8485 0 -1.756 -5.175 -10.6045 -2.5685 -3.383 -3.699 
-7.7665 -7.658501 -15.425 -9.286 -5.847 -15.3653 -8.8485 -1.756 -7.1975 -16.1483 -12.726 -5.839 -5.014 
-13.3808 -18.4507 -15.425 -15.365 -15.3653 -15.3653 -10.2485 -7.1975 -18.3504 -19.0402 -16.8129 -7.701 
-24.173 -18.4507 -21.504 -24.8833 -15.3653 -16.7653 -16.1044 -18.3504 -21.2423 -22.7127 -19.1604 
-24.173 -24.5297 -31.0223 -24.8833 -16.7653 -22.6212 -27.2573 -21.2423 -24.9148 -25.0602 
