-4.759 
n/a 
n/a 
n/a 
n/a 
-4.759 
n/a 
n/a 
n/a 
n/a 
-4.759 
n/a 
n/a 
n/a 
n/a 
-4.759 
n/a 
n/a 
n/a 
n/a 
-2.3615 -2.186 -1.4985 -3.76 -4.783 -2.9705 -2.186 -3.2955 -2.0935 -4.2655 -1.7565 -4.442 0 
-3.5005 -3.339 -5.0205 -9.3815 -7.3065 -3.89 -4.348001 -4.307 -5.9425 -6.212 -5.6725 -4.442 
-4.3105 -6.229 -9.7895 -12.0588 -7.793 -5.7615 -5.274 -8.4175 -8.632 -10.111 -5.6725 
-7.290501 -11.5022 -12.6166 -12.5453 -9.748 -6.421 -9.540001 -10.688 -12.6046 -10.111 
-12.8787 -14.3293 -13.1031 -14.5003 -10.6625 -11.0722 -11.8865 -14.6606 -12.6046 
-2.3335 -2.186 -12.16972 -4.194 -1.7695 -3.627 -3.644 -4.7075 -4.4695 0 
-3.7085 -15.56612 -16.36372 -6.661 -5.8665 -7.8805 -8.960001 -9.938001 -4.4695 
-17.42962 -19.76012 -18.83072 -8.894501 -10.243 -13.7447 -14.1761 -9.938001 
-21.62362 -22.22712 -21.06422 -13.687 -16.256 -18.9608 -14.1761 
-24.09062 -24.46062 -25.85672 -19.7 -21.4721 -18.9608 
-2.3615 -3.985 -3.8115 -1.756 -2.9645 -3.8115 -4.0455 -4.783 
-7.188001 -8.467001 -6.374001 -4.5175 -8.250501 -9.176001 -7.718 
-12.7538 -10.1225 -9.799001 -9.639501 -12.6636 -13.2103 
-14.4093 -13.5475 -10.5065 -14.0418 -16.6979 
-17.8343 -14.255 -15.2038 -18.0761 
-2.3615 -2.186 -12.16972 -3.737 -1.756 -3.627 -1.7565 -3.228 -3.644 -4.5605 
-3.5005 -15.56612 -15.90672 -5.5325 -5.137 -5.126 -5.2935 -8.127001 -7.514 
-17.47942 -19.30312 -17.70222 -9.324 -6.3555 -9.026501 -10.7175 -12.2684 
-21.21642 -21.09862 -21.49372 -10.3235 -10.517 -14.8329 -14.8589 
-23.01192 -24.89012 -22.49322 -14.485 -16.3234 -18.9743 
