-4.759 
n/a 
n/a 
n/a 
n/a 
-4.759 
n/a 
n/a 
n/a 
n/a 
-4.759 
n/a 
n/a 
n/a 
n/a 
-4.759 
n/a 
n/a 
n/a 
n/a 
-2.872 -1.934 -4.051 -3.926 -3.959 0 -4.348 -2.8645 -3.676 -2.229 0 -4.659 -4.15 
-4.659 -5.608 -6.086 -5.9545 -3.959 -4.348 -7.0035 -7.53 -4.593 -2.229 -4.659 -8.785001 
-8.7915 -7.626501 -6.128 -5.9545 -8.222 -7.0035 -11.952 -8.153 -4.593 -7.204 -8.785001 
-11.0674 -7.6635 -6.128 -10.322 -10.238 -11.952 -12.575 -8.153 -10.757 -11.6496 
-11.1044 -7.6635 -10.411 -12.338 -15.1865 -12.575 -12.575 -14.6924 -15.2026 
-3.6705 0 -4.348 -2.8645 -3.7555 -2.985 -2.229 -4.3515 -4.659 -4.277 -2.5045 -4.051 -3.9445 0 
-3.6705 -4.348 -7.0035 -5.647 -7.3475 -3.482 -5.6965 -9.245501 -8.057001 -6.517501 -6.4405 -5.376 -3.9445 
-8.6765 -7.0035 -9.6425 -9.826 -8.552 -5.716001 -11.2851 -12.6777 -9.989501 -9.644501 -7.7335 -5.376 
-9.526501 -9.6425 -13.8497 -11.0893 -11.1986 -11.368 -14.7173 -14.6102 -13.3707 -10.3625 -7.7335 
-12.2677 -13.8497 -15.113 -13.7359 -16.8506 -14.8002 -16.6498 -17.9914 -14.0887 -10.3625 
-2.872 -4.348 -2.8645 -4.659 -4.277 0 -6.8325 -4.1975 -1.7565 -3.676 0 
-8.253 -7.0035 -7.855 -8.057001 -4.277 -6.8325 -11.08 -6.3395 -4.4345 -3.676 
-9.34 -12.277 -10.7025 -8.057001 -12.4799 -11.08 -13.222 -10.757 -4.4345 
-14.6015 -15.1245 -10.7025 -16.6217 -16.7274 -13.222 -17.6395 -10.757 
-17.449 -15.1245 -19.9188 -20.8692 -18.8694 -17.6395 -17.6395 
-4.051 -3.9445 -1.7565 -4.348 -2.5195 -3.676 -2.186 -6.307 -4.659 0 -3.748 
-5.376 -5.2125 -5.8355 -7.194 -6.0905 -5.5015 -9.2655 -11.7406 -4.659 -3.748 
-8.157001 -8.353001 -8.3155 -11.2112 -8.3455 -13.2334 -14.6635 -11.7406 -7.4665 
-11.8453 -11.2558 -12.6611 -13.4662 -16.1386 -18.6314 -14.6635 -14.5481 
-14.7481 -15.6014 -14.9161 -21.2593 -21.5366 -18.6314 -17.471 
