-4.759 
n/a 
n/a 
n/a 
n/a 
-4.759 
n/a 
n/a 
n/a 
n/a 
-4.759 
n/a 
n/a 
n/a 
n/a 
-4.759 
n/a 
n/a 
n/a 
n/a 
-3.5715 -3.1205 -3.8235 -5.4605 -2.664 -3.4975 -5.8925 -2.8645 -3.9955 -3.091 -5.1235 -3.905 -4.912 -1.934 -2.8845 -4.7145 -4.717 -1.756 -3.43 -1.8085 -3.188 -3.8135 
-5.563 -7.002501 -6.1295 -8.545 -5.1135 -7.9755 -8.1035 -5.568 -6.312 -6.942 -8.391001 -5.539001 -6.185 -4.7805 -6.439 -6.2095 -6.3225 -5.055 -4.6595 -4.8525 -5.716001 
-9.978001 -9.0965 -9.469 -10.159 -9.0135 -10.1465 -9.918001 -7.557 -8.6945 -8.8655 -8.634501 -6.5585 -8.570001 -8.564 -6.9545 -7.630001 -9.3525 -5.9635 -7.516 -6.6255 
-10.3725 -13.1078 -10.534 -10.764 -11.5709 -10.593 -11.8862 -10.503 -9.441 -8.9805 -9.377001 -9.138 -10.586 -9.2945 -8.312 -10.9086 -10.311 -9.419001 -9.2335 
-14.3838 -14.1728 -11.139 -13.3214 -12.0174 -12.5612 -14.8322 -11.2495 -9.539001 -9.8525 -12.2089 -11.113 -11.3165 -10.71 -11.8306 -11.8671 -13.7665 -10.6225 
-3.5715 -3.1205 0 -3.4975 -5.8925 -3.8235 -5.4605 -3.9955 -3.091 -4.3735 -3.905 -4.912 -1.934 -2.8845 -4.7145 -4.625 -1.756 -3.354 -1.8085 -3.188 -3.8135 0 
-5.563 -3.1205 -3.4975 -7.9755 -7.817501 -6.1295 -8.098001 -6.312 -6.8325 -7.593 -5.539001 -6.185 -4.7805 -6.439 -6.500501 -6.224 -5.098001 -5.123 -4.8525 -5.716001 -3.8135 
-5.563 -7.1555 -7.9755 -8.859 -7.838 -8.4055 -8.7895 -9.896501 -8.9785 -9.114 -6.5585 -8.570001 -8.564 -7.1155 -8.745501 -11.1598 -6.503 -6.968 -6.6255 -5.716001 
-10.168 -12.0763 -8.859 -8.866 -9.539001 -8.955 -10.4505 -10.314 -9.7795 -10.4645 -9.138 -10.586 -9.327001 -9.405 -14.2203 -12.5648 -8.523001 -7.011 -6.6255 
-15.0888 -12.9598 -8.866 -10.1425 -10.083 -10.485 -10.5465 -11.94 -11.514 -13.044 -11.113 -11.349 -11.7625 -14.8406 -15.6253 -14.5848 -8.5965 -7.011 
-3.5715 -6.618 -5.8925 -3.8235 -5.4605 -2.9805 -3.7555 -3.091 -4.66 -8.1625 -1.934 -2.8845 -4.625 -2.5045 -4.7145 -1.756 -3.8755 -1.4985 -3.188 -3.8135 
-9.598001 -11.6335 -7.817501 -6.1295 -8.280001 -5.3095 -5.822001 -7.6915 -13.9807 -10.2135 -4.7805 -6.33 -8.6635 -6.7535 -6.414001 -5.7875 -5.275 -3.619 -5.716001 
-15.0888 -12.9598 -7.838 -8.830501 -10.76 -6.5035 -9.998 -17.5982 -16.0317 -13.06 -8.727 -11.4169 -12.9917 -8.723001 -10.5435 -6.765501 -6.9735 -6.6635 
-15.9723 -12.9668 -10.078 -11.3933 -11.954 -10.8525 -19.9913 -19.6492 -18.8782 -17.0065 -13.9923 -15.7451 -14.9612 -12.9143 -11.5215 -8.4665 -10.142 
-15.9793 -15.3574 -12.6408 -12.5873 -16.303 -20.8458 -22.0423 -22.4957 -22.8247 -22.2718 -18.3205 -17.7146 -19.1525 -13.8923 -13.2225 -11.788 
-10.3725 -2.8845 -4.717 -3.4975 -5.8925 -3.8235 -4.838 -3.7555 -4.66 -3.905 -4.912 -1.934 -7.037 -4.717 
-13.6866 -6.602 -8.344 -7.9755 -7.817501 -7.0715 -8.528 -9.080501 -8.500501 -5.539001 -6.185 -7.878 -8.301001 
-17.3746 -9.543501 -10.092 -8.859 -12.5765 -11.2221 -14.0808 -13.2712 -9.0635 -6.5585 -10.0995 -10.3095 
-20.7795 -11.8575 -10.5285 -14.053 -16.7271 -16.7749 -18.2715 -13.8342 -10.068 -10.204 -12.781 
-23.0935 -12.294 -15.3761 -18.2036 -22.2799 -20.9656 -18.8345 -14.8387 -13.8809 -12.9867 
