-4.759 
n/a 
n/a 
n/a 
n/a 
-4.759 
n/a 
n/a 
n/a 
n/a 
-4.759 
n/a 
n/a 
n/a 
n/a 
-4.759 
n/a 
n/a 
n/a 
n/a 
-3.2615 -4.6105 -4.4485 -4.153 0 -7.680501 -4.0965 0 -3.0695 -3.8755 -3.3715 -3.2825 -5.585 -3.7905 -1.8085 -4.0885 -3.8685 0 
-6.931 -8.942501 -6.742001 -4.153 -7.680501 -9.521501 -4.0965 -3.0695 -6.033 -6.931 -7.37 -9.1145 -9.619 -4.255 -4.947001 -6.6285 -3.8685 
-11.9495 -9.976501 -6.742001 -9.794001 -9.521501 -9.521501 -7.414001 -6.033 -8.750501 -10.2085 -13.9476 -13.5537 -10.1097 -6.934 -7.12 -6.6285 
-14.2528 -10.0401 -13.0846 -11.8906 -9.521501 -12.9742 -10.4765 -8.750501 -12.3648 -17.0401 -18.3868 -14.0444 -12.7887 -9.3722 -7.12 
-14.2528 -16.8317 -15.1812 -11.8906 -12.9742 -16.0367 -13.194 -12.3648 -19.1964 -21.4793 -18.8775 -16.7234 -15.2269 -9.3722 
-1.934 -4.4485 -4.153 -3.699 -5.585 -4.0835 -2.3345 -9.971001 -2.229 
-6.5175 -6.742001 -8.303 -8.2705 -7.9895 -5.376501 -12.6361 -12.3354 
-8.598001 -11.5936 -13.2483 -11.1244 -8.4975 -16.3561 -15.0005 
-13.7076 -16.5389 -16.1022 -11.6324 -20.0379 -18.7205 
-18.6529 -19.3928 -16.6102 -23.1728 -22.4023 
-1.934 -3.882 -3.957 -1.7565 -9.682 -12.16972 -3.0695 -4.0835 -1.4985 -4.4695 -5.585 -4.4755 -2.985 -4.0965 -1.756 -3.152 -4.0885 0 
-5.7955 -7.4575 -4.676 -11.694 -21.31982 -15.23922 -6.39 -5.761001 -5.252501 -8.065001 -9.3005 -6.6375 -7.458 -5.706 -5.002501 -7.0865 -4.0885 
-9.280001 -7.5625 -15.6169 -24.38992 -24.86092 -18.55972 -6.8655 -8.559501 -8.6785 -12.1945 -11.9509 -10.609 -8.539001 -8.857 -8.630501 -7.0865 
-9.426001 -19.0518 -28.29082 -27.45942 -28.18142 -19.03522 -9.333 -10.354 -13.1 -14.8449 -15.9224 -11.69 -10.7575 -12.502 -8.630501 
-20.7467 -31.72572 -31.36032 -30.77992 -28.65692 -21.50272 -10.4515 -15.5215 -15.7504 -18.8164 -17.0034 -13.9085 -14.4025 -12.502 
-2.264 -4.4485 -4.153 -2.229 -3.2615 -1.4985 -3.957 0 -1.4985 -8.171 -4.0555 -4.056 -3.0695 -4.0835 -3.4155 -5.585 
-6.474501 -6.742001 -6.408501 -6.049 -4.032 -5.4345 -3.957 -1.4985 -8.410001 -11.046 -6.542 -7.1565 -6.39 -7.815001 -8.011 
-10.0925 -9.830501 -10.8883 -6.8965 -7.716001 -5.4345 -5.153501 -8.410001 -11.441 -13.5325 -9.0045 -11.0194 -9.243 -9.752001 
-13.2138 -14.7401 -11.7358 -10.7615 -7.716001 -7.237 -12.7822 -11.441 -13.9275 -15.995 -13.1772 -13.8724 -11.52 
-18.1234 -15.5876 -15.6008 -10.7615 -9.3255 -15.2699 -15.8132 -13.9275 -16.39 -20.1677 -16.0302 -16.1494 
