-4.759 
n/a 
n/a 
n/a 
n/a 
-4.759 
n/a 
n/a 
n/a 
n/a 
-4.759 
n/a 
n/a 
n/a 
n/a 
-4.759 
n/a 
n/a 
n/a 
n/a 
-1.934 -7.044 -4.245 -2.7295 -3.9205 -2.5045 -4.5735 -8.27 -3.554 0 -6.124 0 -4.6825 0 -3.0435 0 -2.645 -3.3715 0 
-9.215 -11.8168 -6.81 -7.564 -4.449 -7.0885 -11.1355 -12.2508 -3.554 -6.124 -6.124 -4.6825 -4.6825 -3.0435 -3.0435 -2.645 -6.571 -3.3715 
-14.1446 -14.3818 -11.9639 -9.2005 -8.959001 -14.0263 -15.1163 -12.2508 -8.9355 -6.124 -11.1415 -4.6825 -7.9785 -3.0435 -5.8125 -6.571 -6.571 
-16.7096 -19.5357 -13.6004 -13.7867 -15.9448 -18.0071 -15.1163 -17.6323 -8.9355 -11.1415 -11.1415 -7.9785 -7.9785 -5.8125 -10.5535 -6.571 
-21.8635 -21.1722 -18.1866 -20.7725 -19.9256 -18.0071 -20.4978 -17.6323 -14.468 -11.1415 -14.4375 -7.9785 -11.3867 -10.5535 -10.5535 
-4.5735 -4.1455 -3.837 -3.5905 -3.7515 -8.1485 -2.229 -3.554 0 -3.8275 0 -5.1795 0 -4.5175 0 -4.2785 -3.843 
-8.227 -8.109 -7.734 -5.483 -13.016 -10.119 -5.5535 -3.554 -3.8275 -3.8275 -5.1795 -5.1795 -4.5175 -4.5175 -4.2785 -7.7275 
-12.5553 -12.5152 -10.5035 -15.2887 -14.9865 -13.5933 -5.5535 -7.047501 -3.8275 -8.962501 -5.1795 -10.6956 -4.5175 -9.265001 -7.7275 
-16.9615 -15.2847 -20.3092 -17.2592 -18.4608 -13.5933 -9.231501 -7.047501 -8.962501 -8.962501 -10.6956 -10.6956 -9.265001 -13.047 
-19.731 -25.0904 -22.2797 -20.7335 -18.4608 -17.2713 -9.231501 -12.8225 -8.962501 -14.836 -10.6956 -15.4431 -13.047 
-4.5735 -8.27 -3.554 0 -3.8275 0 -5.111 0 -3.958 -1.4985 -3.5435 0 -4.454 -2.4945 -5.9455 -2.3345 -1.4985 -5.1845 -4.245 -4.1455 
-11.1355 -12.2508 -3.554 -3.8275 -3.8275 -5.111 -5.111 -3.958 -5.194 -4.2755 -3.5435 -4.454 -7.0575 -7.778501 -7.0015 -3.233 -6.5205 -7.991 -8.8465 
-15.1163 -12.2508 -7.047501 -3.8275 -8.854 -5.111 -9.5565 -5.194 -7.771501 -4.2755 -7.205501 -7.0575 -12.6935 -8.279501 -7.3395 -7.917 -9.690001 -12.9119 
-15.1163 -15.7443 -7.047501 -8.854 -8.854 -9.5565 -11.1061 -7.771501 -7.771501 -8.120501 -9.885 -12.6935 -13.1945 -8.715501 -12.5143 -11.4703 -14.6407 
-18.6098 -15.7443 -12.714 -8.854 -13.5835 -11.1061 -13.6836 -7.771501 -11.8027 -11.1488 -15.521 -13.1945 -13.6305 -13.9109 -16.0676 -16.421 
-1.4985 -3.5905 -5.1845 -4.245 -3.644 -2.7455 -5.1845 -3.554 -3.718 0 -3.8275 0 -3.0435 0 -3.843 0 
-4.435 -8.0375 -7.991 -7.866501 -6.078501 -8.181 -9.0695 -5.6895 -3.718 -3.8275 -3.8275 -3.0435 -3.0435 -3.843 -3.843 
-9.5755 -10.2045 -11.9319 -8.962001 -11.9386 -12.457 -10.688 -5.6895 -7.447001 -3.8275 -7.423 -3.0435 -7.1215 -3.843 
-11.7425 -14.1454 -13.0274 -14.9223 -16.2146 -14.0755 -10.688 -10.0885 -7.447001 -7.423 -7.423 -7.1215 -7.1215 
-15.6834 -15.2409 -18.9877 -19.1983 -17.8331 -14.0755 -15.087 -10.0885 -12.0659 -7.423 -12.3464 -7.1215 
