-4.759 
n/a 
n/a 
n/a 
n/a 
-4.759 
n/a 
n/a 
n/a 
n/a 
-4.759 
n/a 
n/a 
n/a 
n/a 
-4.759 
n/a 
n/a 
n/a 
n/a 
-4.0105 -3.522 0 -8.27 -3.5855 
-8.1415 -3.522 -8.27 -12.2823 
-8.1415 -12.5554 -12.2823 
-17.5685 -16.5677 
-21.5808 
-4.1035 0 -3.5855 -1.7565 -8.27 
-4.1035 -3.5855 -5.385 -9.440001 
-7.870501 -5.385 -14.0007 
-9.6415 -14.0007 
-18.4984 
-3.699 -4.867 0 -8.863001 -3.5855 
-8.1215 -4.867 -8.863001 -13.0325 
-8.1215 -14.7258 -13.0325 
-18.3603 -18.8953 
-22.5298 
-3.0835 -4.359 -4.867 0 -5.1845 -3.1385 -3.5855 
-6.1675 -11.046 -4.867 -5.1845 -7.4095 -6.5365 
-13.5013 -11.046 -11.015 -7.4095 -11.1839 
-13.5013 -17.194 -13.24 -11.1839 
-19.6493 -19.419 -17.0144 
