-4.759 
n/a 
n/a 
n/a 
n/a 
-4.759 
n/a 
n/a 
n/a 
n/a 
-4.759 
n/a 
n/a 
n/a 
n/a 
-4.759 
n/a 
n/a 
n/a 
n/a 
-3.8735 -4.693 -3.8195 -2.8645 -4.922 -7.5175 0 -8.4975 0 -4.7485 -1.756 -4.1595 -4.724 -4.4925 0 
-8.819 -6.1555 -6.7365 -7.923 -13.8405 -8.099501 -9.2445 -9.2445 -4.7485 -6.2035 -6.0215 -9.4175 -8.52 -4.4925 
-10.396 -8.738501 -12.2756 -18.0503 -13.8405 -18.9224 -9.2445 -14.3974 -6.2035 -11.1596 -11.5237 -13.6855 -8.52 
-12.979 -14.3024 -22.4029 -18.0503 -24.6634 -18.9224 -14.3974 -15.9634 -11.1596 -16.6618 -15.7917 -13.6855 
-18.5429 -24.4297 -22.4029 -28.8732 -24.6634 -24.0753 -15.9634 -20.9195 -16.6618 -20.9298 -15.7917 
-1.934 -1.4985 -3.8735 -2.229 -3.892 0 -3.7145 0 -2.4945 -4.4925 -3.892 0 -2.855 0 -3.7965 -3.8845 -1.756 -4.5335 -3.726 0 -2.4945 -3.962 -2.5045 -8.884501 -4.418 0 
-2.6125 -6.3715 -5.3655 -6.5715 -3.892 -3.7145 -3.7145 -2.4945 -7.787 -8.537001 -3.892 -2.855 -2.855 -3.7965 -8.0555 -5.239 -6.4115 -8.103001 -3.726 -2.4945 -5.752 -5.124 -9.518001 -11.4085 -4.418 
-7.496 -7.772 -10.4945 -6.5715 -7.714001 -3.7145 -7.254001 -7.787 -12.1393 -8.537001 -6.835 -2.855 -7.337 -8.0555 -8.976501 -10.609 -10.3814 -8.103001 -7.2495 -5.752 -6.263 -11.866 -14.5434 -11.9959 
-9.050501 -13.2172 -10.4945 -10.757 -7.714001 -7.254001 -12.7905 -12.1393 -12.1393 -11.7084 -6.835 -7.337 -11.8618 -8.976501 -14.7585 -14.5789 -10.3814 -9.846001 -10.7636 -6.263 -12.9258 -16.9441 -14.5778 
-14.5551 -13.2172 -14.68 -10.757 -10.2535 -12.7905 -17.1428 -12.1393 -15.3107 -11.7084 -9.867001 -11.8618 -12.7828 -14.7585 -18.7284 -14.5789 -12.1244 -13.3601 -11.2746 -12.9258 -17.9531 -16.9441 
-4.1865 -3.873 -4.675 -4.6805 -1.7565 -3.7145 0 -1.7565 -4.6625 0 -2.855 0 -1.7565 -4.7715 0 -3.726 -1.7565 -4.916 -1.7565 -4.6625 -1.756 -3.4715 
-6.962 -8.563 -9.337 -4.722 -5.98 -3.7145 -1.7565 -5.887001 -4.6625 -2.855 -2.855 -1.7565 -6.244 -4.7715 -3.726 -6.087 -7.078001 -5.372 -5.887001 -5.769001 -4.8875 
-12.188 -13.727 -9.3865 -8.518001 -5.98 -6.052 -5.887001 -5.887001 -8.099501 -2.855 -5.367 -6.244 -6.244 -9.2445 -6.087 -12.1035 -8.019 -7.840001 -6.671 -7.05 
-17.352 -13.7765 -13.1383 -8.518001 -8.2115 -10.8733 -5.887001 -9.429501 -8.099501 -5.367 -10.7859 -6.244 -10.389 -10.348 -12.1035 -13.0445 -10.66 -8.052501 -8.410001 
-17.4015 -17.5283 -13.1383 -10.8505 -13.3322 -10.8733 -9.429501 -9.429501 -10.8063 -10.7859 -10.7859 -10.389 -11.7419 -16.7079 -13.0445 -15.6855 -10.8725 -9.434501 
-4.1865 -4.693 -3.8195 -4.6805 -3.7145 0 -1.7565 -4.6625 -6.257 0 -3.8845 -3.402 -1.756 -3.726 0 -6.1185 -1.756 -3.948 -4.7005 -1.7565 -5.189 
-8.5465 -6.1555 -8.6295 -10.4855 -3.7145 -1.7565 -5.887001 -12.4545 -7.927 -3.8845 -7.6785 -5.586 -6.3415 -3.726 -6.1185 -7.048 -5.371 -6.0605 -4.764 -6.421 
-10.061 -11.3749 -14.4177 -10.4855 -6.052 -5.887001 -13.913 -12.7365 -12.697 -7.6785 -9.5495 -10.674 -6.3415 -10.647 -7.048 -10.223 -7.517 -6.174 -8.573501 
-15.2804 -17.1631 -14.4177 -12.823 -10.8733 -14.0794 -14.0794 -17.5065 -17.0586 -9.5495 -14.7481 -10.674 -13.7953 -11.5765 -10.223 -12.369 -7.531001 -10.004 
-21.0686 -17.1631 -16.7552 -17.6443 -19.0657 -14.0794 -18.8494 -21.8681 -18.9296 -14.7481 -14.7481 -18.1278 -14.7248 -14.7515 -12.369 -12.383 -11.489 
