-4.759 
n/a 
n/a 
n/a 
n/a 
-4.759 
n/a 
n/a 
n/a 
n/a 
-4.759 
n/a 
n/a 
n/a 
n/a 
-4.759 
n/a 
n/a 
n/a 
n/a 
-3.1495 -5.0075 -2.674 -1.4985 -3.519 -1.7565 -4.0175 -3.737 -1.756 -3.5035 -3.737 0 
-7.7515 -6.8175 -3.998 -4.426001 -4.6225 -5.741 -4.869501 -5.5325 -5.3985 -6.7075 -3.737 
-9.202001 -8.5135 -5.808 -4.847001 -7.895 -6.311 -5.9335 -8.6595 -8.165001 -6.7075 
-10.6345 -9.118501 -7.032001 -8.217001 -8.768 -7.2735 -9.613501 -9.614 -8.165001 
-11.2395 -10.758 -9.415001 -8.992001 -9.724501 -10.5855 -10.0595 -9.614 
-2.925 -2.7765 -3.429 -1.4985 -4.0175 -1.756 -4.7535 -1.756 -3.333 -3.074 0 
-4.3215 -4.863501 -4.4635 -4.8215 -5.637501 -6.002 -6.6765 -5.3565 -6.772 -3.074 
-6.279 -5.968 -7.496 -6.515501 -10.228 -8.540501 -10.248 -8.6565 -6.772 
-7.381001 -9.087501 -9.186 -11.3576 -12.9055 -12.2754 -14.0342 -8.6565 
-10.3605 -10.8927 -14.1095 -14.0351 -16.6404 -16.0616 -14.0342 
-2.925 -2.674 -3.519 -1.7695 -4.5445 -1.756 -1.7695 -3.2345 -3.5035 0 
-4.1785 -6.1995 -4.761 -5.101 -6.816 -3.963 -3.713 -7.48 -3.5035 
-7.6215 -6.586 -7.1755 -7.242 -8.536501 -5.66 -7.818 -7.48 
-8.252001 -8.7965 -9.030001 -8.6455 -10.155 -9.93 -7.818 
-10.7595 -10.9564 -10.243 -10.2425 -14.5146 -9.93 
-2.3615 -3.499 -2.186 -3.84 -1.756 -4.1695 -3.8055 -1.934 -5.0075 
-7.22 -6.068501 -7.849501 -4.8045 -4.966 -7.940001 -4.951 -8.241501 
-10.0745 -12.1482 -8.956 -5.351 -8.705 -8.39 -12.1005 
-16.381 -13.2547 -9.665001 -8.974501 -9.16 -16.9353 
-17.4875 -13.9637 -13.3573 -9.497001 -17.7743 
