-4.759 
n/a 
n/a 
n/a 
n/a 
-4.759 
n/a 
n/a 
n/a 
n/a 
-4.759 
n/a 
n/a 
n/a 
n/a 
-4.759 
n/a 
n/a 
n/a 
n/a 
-2.5045 -1.4985 -3.777 -1.7565 -1.4985 -4.065 -3.5435 -4.359 0 -1.4985 -4.065 -3.5435 -5.398 -2.4945 -4.3895 -2.3345 -2.5685 -1.4985 -3.959 -3.188 -4.0005 0 
-3.583 -4.588 -4.411 -2.4195 -4.824 -6.1265 -7.726501 -4.359 -1.4985 -4.824 -6.1265 -8.8055 -7.0005 -6.08 -4.6785 -4.884 -3.7015 -5.5 -6.8725 -4.969501 -4.0005 
-5.8755 -4.945 -5.008 -5.555 -6.2165 -10.9215 -7.726501 -6.304501 -4.824 -6.2165 -12.0005 -10.554 -9.324 -6.564001 -7.029 -5.853 -6.597 -9.361501 -7.484 -4.969501 
-5.913 -5.645 -8.708 -7.199501 -11.2541 -10.9215 -8.902 -9.889501 -6.2165 -12.3331 -13.749 -12.8775 -10.1685 -8.571501 -7.9155 -7.427001 -10.025 -10.2495 -7.484 
-6.7005 -9.516001 -9.915501 -12.5057 -11.2541 -12.097 -12.6426 -10.5895 -12.3331 -14.0816 -16.0725 -13.722 -12.176 -9.748501 -10.36 -12.0448 -11.1622 -10.2495 
-3.4225 -4.0965 -2.229 -5.891 -3.941 -4.3195 0 -4.065 -4.9295 -3.7075 -2.186 -4.4895 -1.756 -4.7415 -1.934 -1.4985 -3.188 0 
-4.2 -6.387001 -7.344501 -10.181 -8.577001 -4.3195 -4.065 -8.2705 -9.885 -5.196 -5.884501 -6.152 -6.262 -5.989 -2.6125 -3.619 -3.188 
-6.605 -12.1445 -11.9459 -15.2034 -8.577001 -8.2745 -8.2705 -14.0644 -11.3703 -7.998501 -7.1775 -11.5056 -7.073 -6.442501 -4.377 -3.619 
-12.7383 -16.7459 -16.9683 -15.2034 -12.738 -12.8702 -14.0644 -15.5497 -14.1728 -9.263 -12.7679 -12.3166 -8.206 -6.9505 -4.377 
-17.3397 -21.7683 -16.9683 -19.3644 -17.3337 -18.6641 -15.5497 -18.3522 -15.4373 -14.9904 -13.5789 -13.4496 -8.6955 -6.9505 
-3.777 -1.7565 -4.947 -3.519 -2.5045 -2.264 -3.4225 -3.5435 0 -4.065 -3.5435 -4.384 -2.7415 -4.3895 -3.188 -4.0005 0 
-4.411 -6.4835 -7.287 -6 -5.495501 -6.4965 -8.1395 -3.5435 -4.065 -6.1265 -8.884501 -6.933001 -5.8165 -8.2015 -4.969501 -4.0005 
-9.4405 -8.105 -9.155001 -9.293501 -10.048 -11.2617 -8.1395 -8.0035 -6.1265 -12.0795 -11.6955 -10.054 -10.4827 -9.856501 -4.969501 
-11.1492 -9.969501 -12.5347 -13.901 -14.909 -11.2617 -13.0849 -9.194 -12.0795 -14.8905 -14.8165 -14.6514 -12.1377 -9.856501 
-13.0137 -13.3726 -17.1422 -18.762 -14.909 -16.2071 -14.2754 -15.2912 -14.8905 -18.0115 -19.4139 -16.3064 -12.1377 
-3.4225 -3.9725 -4.8945 -4.5175 -4.4155 -2.264 -4.065 -3.5435 -2.186 -2.9645 -2.264 -3.188 
-7.795001 -8.844501 -11.136 -9.234001 -7.163 -6.431001 -6.1265 -5.2365 -6.4285 -5.2985 -5.849 
-13.3624 -15.231 -15.8525 -12.1903 -11.9204 -8.704 -7.603 -10.504 -8.2305 -9.509001 
-19.7489 -19.9475 -18.8088 -16.9477 -14.1934 -10.5921 -13.0671 -12.306 -13.338 
-24.4654 -22.9038 -23.5662 -19.2207 -16.0815 -16.0562 -14.8691 -17.4135 
