-4.759 
n/a 
n/a 
n/a 
n/a 
-4.759 
n/a 
n/a 
n/a 
n/a 
-4.759 
n/a 
n/a 
n/a 
n/a 
-4.759 
n/a 
n/a 
n/a 
n/a 
-3.0835 -3.518 -1.7565 -3.522 -1.934 -8.1485 -4.1465 -3.594 
-5.979 -4.302 -5.4405 -5.1765 -10.3965 -12.6556 -7.101501 
-6.785501 -9.425 -7.762001 -14.4562 -14.9036 -15.6106 
-12.2737 -11.8947 -17.1393 -18.9633 -17.8586 
-14.7434 -21.272 -21.6464 -21.9183 
-4.0105 -3.522 0 -3.594 -1.7565 -4.1465 -1.7565 -8.27 0 
-8.1415 -3.522 -3.594 -4.857 -5.8335 -6.0475 -9.440001 -8.27 
-8.1415 -7.602 -4.857 -7.5805 -8.250501 -14.5632 -9.440001 
-12.6151 -8.9895 -7.5805 -10.5975 -16.9724 -14.5632 
-14.0026 -11.9816 -10.5975 -19.3194 -16.9724 
-8.27 -3.594 -1.7565 -4.1465 -2.186 -1.4985 -3.0835 -4.584 
-12.2908 -4.857 -5.8335 -6.4185 -3.339 -3.535 -7.693501 
-13.5538 -7.5805 -7.804 -7.571 -4.8925 -8.099501 
-16.2773 -9.0425 -8.696 -9.2345 -9.6945 
-17.7393 -10.2725 -10.6955 -14.2701 
-4.432 -3.522 -8.863001 -4.1465 -4.245 
-9.068501 -13.1484 -13.5935 -7.706 
-18.9557 -17.8789 -17.153 
-23.6862 -21.4384 
-27.2457 
