-4.759 
n/a 
n/a 
n/a 
n/a 
-4.759 
n/a 
n/a 
n/a 
n/a 
-4.759 
n/a 
n/a 
n/a 
n/a 
-4.759 
n/a 
n/a 
n/a 
n/a 
-1.4985 -4.8035 -1.7565 -3.7075 -2.186 -3.849 -3.7805 -4.6985 0 
-6.035 -5.676 -5.7275 -5.825 -4.8565 -7.592 -8.3135 -4.6985 
-6.437 -9.883 -8.22 -8.5535 -8.543501 -12.3704 -8.3135 
-10.4105 -12.8319 -11.1273 -12.5875 -13.5661 -12.3704 
-14.0594 -15.7392 -15.1613 -17.6101 -13.5661 
-3.7075 -2.229 -4.7885 -4.35 -2.186 -3.849 -2.5045 -4.1625 -4.445 0 
-5.5255 -6.6485 -6.498 -5.8735 -4.8565 -6.305 -7.179 -9.17 -4.445 
-8.5205 -8.272 -7.781001 -8.079 -7.104 -11.0831 -12.6713 -9.17 
-9.835501 -9.408501 -9.509001 -10.434 -12.0119 -16.5754 -12.6713 
-11.0618 -11.2545 -12.4018 -15.3419 -17.5042 -16.5754 
-3.7075 -3.9205 -2.5045 -4.7885 -4.35 -1.7565 -3.7805 -3.7345 
-8.5935 -4.449 -7.566 -6.498 -5.3865 -5.09 -7.5835 
-8.746 -9.084001 -9.649 -6.939001 -8.2705 -8.547001 
-13.8272 -11.3496 -10.7515 -10.463 -12.1097 
-16.0928 -12.4521 -14.2755 -14.3022 
-2.7835 -2.7295 -3.047 -1.4985 -3.7075 -3.757 -3.849 -2.5045 -2.3335 
-4.405 -5.018 -4.095 -4.6235 -8.296 -8.6005 -6.305 -5.165 
-6.831501 -5.9645 -6.721001 -8.903 -13.4677 -11.3937 -8.9725 
-7.8345 -8.449 -11.7043 -14.2879 -16.2609 -14.0612 
-10.4105 -13.7587 -17.0892 -17.0811 -18.9284 
