-4.759 
n/a 
n/a 
n/a 
n/a 
-4.759 
n/a 
n/a 
n/a 
n/a 
-4.759 
n/a 
n/a 
n/a 
n/a 
-4.759 
n/a 
n/a 
n/a 
n/a 
-3.3985 -3.0605 0 -6.6425 -12.16972 0 -4.628 -5.939 -4.328 0 -3.0015 0 
-5.2975 -3.0605 -6.6425 -20.04162 -12.16972 -4.628 -5.9615 -8.481 -4.328 -3.0015 -3.0015 
-5.2975 -10.119 -20.04162 -20.04162 -16.79772 -5.9615 -8.498501 -8.481 -7.3475 -3.0015 
-13.439 -23.90372 -20.04162 -24.66962 -18.13122 -8.498501 -8.498501 -11.8415 -7.3475 
-27.22372 -23.90372 -24.66962 -26.00312 -20.66822 -8.498501 -11.8766 -11.8415 
-3.3985 -3.0605 0 -6.6425 -12.16972 0 -6.6585 -4.328 0 -3.0015 0 
-5.2975 -3.0605 -6.6425 -20.04162 -12.16972 -6.6585 -11.08 -4.328 -3.0015 -3.0015 
-5.2975 -10.119 -20.04162 -20.04162 -18.82822 -11.08 -11.08 -7.3475 -3.0015 
-13.439 -23.90372 -20.04162 -26.70012 -23.24972 -11.08 -14.0995 -7.3475 
-27.22372 -23.90372 -26.70012 -31.12162 -23.24972 -14.0995 -14.0995 
-3.3985 -3.0605 0 -6.6425 -7.441 0 -4.628 -5.939 -4.328 0 -3.0015 0 
-5.2975 -3.0605 -6.6425 -8.731501 -7.441 -4.628 -5.9615 -8.481 -4.328 -3.0015 -3.0015 
-5.2975 -10.119 -8.731501 -8.731501 -9.739 -5.9615 -8.498501 -8.481 -7.3475 -3.0015 
-13.439 -12.5936 -8.731501 -11.2481 -10.3705 -8.498501 -8.498501 -11.8415 -7.3475 
-15.9136 -12.5936 -11.2481 -11.8796 -12.9075 -8.498501 -11.8766 -11.8415 
-3.3985 -3.0605 -10.738 -9.9165 
-5.2975 -14.3471 -20.6545 
-17.6671 -24.2636 
-27.5836 
n/a 
