-4.759 
n/a 
n/a 
n/a 
n/a 
-4.759 
n/a 
n/a 
n/a 
n/a 
-4.759 
n/a 
n/a 
n/a 
n/a 
-4.759 
n/a 
n/a 
n/a 
n/a 
-3.098 -2.789 0 -1.7565 -4.3665 -3.013 -2.9645 -1.4985 -3.213 -3.237 -4.1805 -4.764 -1.934 -3.875 -2.4265 -2.186 -6.4395 0 
-5.843 -2.789 -1.7565 -5.4475 -6.623 -6.1225 -3.957 -4.3955 -7.086 -5.522 -8.591 -6.016001 -4.7225 -6.2665 -3.292 -8.946501 -5.8225 
-5.843 -5.1755 -5.4475 -7.487501 -9.836 -6.7425 -7.133 -8.792 -9.035501 -9.84 -9.769 -8.175501 -6.679 -6.8375 -10.2935 -8.729501 
-7.335 -8.469 -7.487501 -10.6215 -10.6125 -8.3175 -11.8429 -10.8979 -13.6767 -10.7365 -11.8939 -9.286501 -7.222 -14.5992 -10.7175 
-9.190001 -10.213 -10.6215 -11.398 -12.1875 -15.0788 -13.9488 -15.5391 -14.5732 -12.8614 -13.0049 -9.599001 -15.0033 -14.5992 
-3.5085 -3.676 -3.213 -4.1805 -3.098 -2.789 0 -3.3785 -4.1805 -2.9645 -6.4395 0 -1.934 -3.875 0 
-8.68 -7.407001 -7.8225 -7.5495 -5.843 -2.789 -3.3785 -7.4165 -7.419 -10.031 -5.8225 -1.934 -4.7225 -3.875 
-12.6238 -12.6915 -11.8247 -10.5855 -5.843 -6.501 -7.4165 -11.3046 -14.6622 -9.856501 -8.266001 -4.7225 -4.7225 
-17.9083 -16.6937 -14.8607 -10.5855 -10.181 -11.1502 -11.3046 -18.5478 -14.6622 -12.474 -10.1675 -4.7225 
-21.9105 -19.7297 -14.8607 -14.9235 -14.8302 -15.0383 -18.5478 -18.5478 -17.2797 -14.3755 -10.1675 
-3.5085 -4.3665 -2.9645 -4.1805 -2.0935 -3.213 -2.186 -2.789 0 -2.3615 -2.186 -6.4395 0 -1.934 -3.875 
-9.0305 -7.215001 -7.414001 -5.9945 -5.222 -4.8695 -5.9595 -2.789 -2.3615 -3.5005 -8.946501 -5.8225 -1.934 -4.7225 
-12.0804 -12.1269 -9.493 -9.201 -7.5565 -9.259501 -5.9595 -5.9565 -3.5005 -10.8795 -8.729501 -8.266001 -4.7225 
-16.9923 -14.2059 -12.9525 -11.8331 -12.2967 -9.259501 -8.739 -6.807 -10.5975 -10.5975 -10.5975 -10.1675 
-19.0713 -17.6654 -15.5846 -16.5733 -12.2967 -12.181 -9.31 -14.0896 -10.5975 -12.4655 -12.499 
-4.5925 0 -2.789 0 -1.7565 -1.4985 -4.3665 -3.2955 -1.4985 -3.237 -4.1805 0 -2.3615 -2.742 -2.489 -6.4395 0 -1.934 -3.875 0 
-4.5925 -2.789 -2.789 -1.7565 -2.4195 -5.585 -7.445001 -4.8715 -4.1875 -5.522 -4.1805 -2.3615 -4.486 -3.301 -9.585 -5.8225 -1.934 -4.7225 -3.875 
-8.8205 -2.789 -5.1755 -2.4195 -6.532001 -8.540001 -8.234 -7.9655 -6.907001 -5.522 -6.9335 -4.486 -5.1425 -10.2205 -9.5245 -8.266001 -4.7225 -4.7225 
-8.8205 -5.1755 -5.925 -6.532001 -9.927601 -9.4235 -11.6722 -9.758 -6.907001 -8.0325 -8.6045 -5.1425 -12.6858 -10.2695 -12.108 -10.1675 -4.7225 
-11.2406 -5.925 -10.176 -9.927601 -10.8111 -12.9109 -13.4647 -9.758 -10.1305 -9.304501 -9.3575 -12.6858 -12.6858 -13.0074 -14.0095 -10.1675 
