-4.759 
n/a 
n/a 
n/a 
n/a 
-4.759 
n/a 
n/a 
n/a 
n/a 
-4.759 
n/a 
n/a 
n/a 
n/a 
-4.759 
n/a 
n/a 
n/a 
n/a 
-3.741 -6.373 0 -4.1865 -7.4655 0 -8.013 0 
-9.3195 -6.373 -4.1865 -12.9836 -7.4655 -7.397 -7.397 
-9.3195 -10.071 -12.9836 -12.9836 -15.3155 -7.397 
-13.1859 -19.5289 -12.9836 -20.8336 -15.3155 
-22.6438 -19.5289 -20.8336 -20.8336 
-6.373 0 -4.1865 -5.6625 0 -4.2215 -5.011 0 
-6.373 -4.1865 -8.283501 -5.6625 -4.2215 -7.991501 -5.011 
-10.071 -8.283501 -8.283501 -8.701 -7.991501 -7.991501 
-14.8288 -8.283501 -10.4425 -12.6734 -7.991501 
-14.8288 -10.4425 -15.1159 -12.6734 
-8.625501 0 -10.136 -12.16972 0 -8.012501 0 
-8.625501 -10.136 -22.41572 -12.16972 -7.831501 -7.831501 
-19.2969 -22.41572 -22.41572 -20.00122 -7.831501 
-31.57662 -22.41572 -30.24722 -20.00122 
-31.57662 -30.24722 -30.24722 
-6.373 0 -4.1865 -6.6 0 -5.011 0 
-6.373 -4.1865 -8.9275 -6.6 -5.011 -5.011 
-10.071 -8.9275 -8.9275 -12.3542 -5.011 
-10.1775 -8.9275 -14.8489 -12.3542 
-10.1775 -14.8489 -14.8489 
