-4.759 
n/a 
n/a 
n/a 
n/a 
-4.759 
n/a 
n/a 
n/a 
n/a 
-4.759 
n/a 
n/a 
n/a 
n/a 
-4.759 
n/a 
n/a 
n/a 
n/a 
-4.426 -1.7565 -1.4985 -3.0835 -4.7285 -4.1555 -13.216 -4.7885 -3.0835 -3.1335 -3.9535 0 -1.934 -4.239 -3.5195 -3.6905 -5.963 -3.5015 -4.0745 0 
-5.47 -2.4195 -3.535 -6.042 -8.4455 -16.6872 -18.8527 -8.816501 -6.288 -6.027 -3.9535 -1.934 -5.464 -6.245501 -7.590001 -10.2755 -10.7173 -7.609 -4.0745 
-5.9535 -4.6785 -6.335501 -9.523001 -20.5997 -21.6167 -22.8807 -12.2764 -9.633501 -6.027 -5.616 -5.464 -9.714001 -12.0112 -14.9484 -15.3228 -14.8248 -7.609 
-8.021 -7.476501 -10.0095 -21.7617 -25.3882 -25.6447 -26.3406 -15.6219 -9.633501 -7.452 -9.1005 -9.714001 -15.4797 -19.3696 -19.9957 -19.4303 -14.8248 
-9.983001 -11.3061 -22.3582 -26.5502 -29.4162 -29.1046 -29.6861 -15.6219 -10.1055 -11.2507 -13.4017 -15.4797 -22.8381 -24.4169 -24.1032 -19.4303 
-3.875 -4.7885 -3.0785 -3.8475 -1.934 -1.4985 -3.158 -4.239 -3.6905 -1.7565 -3.5195 -5.963 -4.06 -2.3615 -3.5015 0 
-10.1 -9.816501 -7.554 -5.4975 -2.6125 -4.178 -6.429501 -8.5425 -5.23 -5.347 -11.046 -10.2135 -6.633 -5.2225 -3.5015 
-15.128 -14.3562 -9.0315 -6.2775 -5.265 -7.706 -8.6745 -10.564 -6.7335 -12.8503 -15.2965 -12.9185 -9.687 -5.2225 
-19.6677 -15.8337 -9.9065 -8.654 -8.279 -10.3394 -11.036 -12.0675 -14.1372 -17.1008 -18.0015 -15.9725 -9.687 
-21.1452 -16.7087 -12.4764 -11.8968 -11.1396 -12.7009 -12.5395 -19.4712 -18.3877 -19.8058 -21.0555 -15.9725 
-3.875 -2.9905 -5.462 -3.1335 -1.7695 -4.239 -3.5195 -3.6905 -5.963 -4.7615 0 
-7.877501 -8.7615 -9.984001 -4.809 -6.571001 -6.245501 -7.590001 -10.2755 -11.9773 -4.7615 
-14.5699 -13.7077 -11.6595 -10.2667 -8.9559 -12.0112 -14.9484 -16.5828 -11.9773 
-19.5161 -15.3832 -17.1172 -12.6516 -14.7216 -19.3696 -21.2557 -16.5828 
-21.1916 -20.8409 -19.5021 -18.4173 -22.08 -25.6769 -21.2557 
-8.0745 -3.0835 -3.1335 -3.584 -1.934 -4.239 -3.67 -3.6905 -2.5045 -5.963 
-12.2996 -6.288 -6.928 -5.551 -5.464 -7.585501 -7.86 -6.057 -9.172501 
-15.5041 -10.078 -9.662001 -8.8595 -10.2135 -12.1761 -10.7627 -13.374 
-19.2941 -12.8982 -12.9955 -13.744 -14.8041 -15.0788 -18.0797 
-22.1143 -16.2317 -17.88 -18.3346 -17.7068 -22.3958 
