-4.759 
n/a 
n/a 
n/a 
n/a 
-4.759 
n/a 
n/a 
n/a 
n/a 
-4.759 
n/a 
n/a 
n/a 
n/a 
-4.759 
n/a 
n/a 
n/a 
n/a 
-4.569 -1.7695 -4.0535 -4.0415 -2.186 -9.731501 -8.9375 -4.682 -3.9115 -2.264 -4.628 -4.743 -4.0415 -2.264 -4.686 
-6.274 -5.266 -8.2425 -6.3265 -13.1279 -19.5334 -14.2663 -9.3165 -6.087 -7.132 -4.7515 -8.356501 -7.038 -7.969001 
-10.8049 -9.675501 -10.8051 -17.8004 -22.9298 -24.8622 -18.9008 -11.5 -11.563 -7.383 -8.3625 -10.0855 -13.3102 
-15.2144 -12.3231 -22.279 -27.6023 -28.2586 -29.4967 -21.0843 -16.976 -11.814 -11.465 -10.092 -16.5047 
-17.862 -23.797 -32.0809 -32.9311 -32.8931 -31.6802 -26.5603 -17.227 -15.896 -13.1945 -16.5042 
-3.2615 -1.4985 -5.8705 -4.6225 -2.9705 -4.0875 -3.5015 -1.934 -4.686 0 -1.4985 -4.348 -2.9705 -3.152 -1.934 -3.895 -4.732 -4.569 -3.9535 -1.7695 -4.985 0 
-4.032 -6.7565 -8.370501 -6.883501 -5.8935 -5.143 -4.704 -5.8635 -4.686 -1.4985 -5.722 -6.6125 -5.007 -4.9115 -5.1555 -8.4425 -8.745001 -9.137001 -5.098001 -5.2955 -4.985 
-9.574 -9.078001 -10.4765 -8.718 -6.199 -5.692 -8.825001 -5.8635 -6.2825 -5.722 -7.5185 -8.0245 -6.7335 -8.323 -9.697001 -12.8357 -13.53 -10.2815 -8.929501 -5.2955 
-10.751 -11.291 -12.311 -8.8155 -6.655 -9.1085 -8.825001 -6.903501 -10.7922 -7.5185 -8.922501 -9.438001 -9.823501 -12.9529 -14.214 -17.6207 -14.6745 -14.113 -8.929501 
-12.964 -13.1255 -12.4085 -9.2545 -10.248 -9.1085 -9.793501 -11.6182 -12.5887 -8.922501 -9.729 -12.747 -14.5022 -17.4699 -18.999 -18.7652 -18.506 -14.113 
-3.834 -3.158 -4.569 -1.4985 -4.225 -3.9665 -2.7415 -3.9605 -2.0935 -3.098 -5.087 -3.2615 -1.4985 -4.8 -2.229 -4.6225 -2.264 -4.686 -1.4985 -4.225 -3.9665 -3.9535 -5.138 0 
-7.479 -6.934501 -6.2165 -5.3335 -6.6785 -6.2925 -6.639 -6.731501 -6.16 -7.807 -8.409 -4.032 -6.112 -7.564 -6.785 -6.856 -7.969001 -6.2825 -5.3335 -6.6785 -8.200001 -9.182501 -5.138 
-10.586 -8.809 -10.0745 -8.408001 -8.7355 -9.376 -8.922501 -11.6608 -9.354501 -10.7495 -9.326 -8.9145 -9.1245 -12.5558 -8.756001 -13.1616 -9.920501 -10.0065 -8.408001 -9.528001 -13.7148 -9.182501 
-12.9575 -12.7292 -13.149 -10.0885 -12.0282 -11.7897 -13.9216 -14.8553 -12.421 -11.6665 -14.2395 -12.063 -14.7683 -14.5268 -15.522 -15.1131 -13.6445 -13.081 -11.4873 -16.0294 -13.7148 
-16.8777 -15.8037 -14.8295 -13.3812 -14.4419 -16.7888 -17.1161 -17.9218 -13.338 -16.58 -17.388 -17.7068 -16.7393 -21.2928 -17.4735 -18.8371 -16.719 -16.1603 -17.9887 -16.0294 

n/a 
n/a 
n/a 
n/a 
