-4.759 
n/a 
n/a 
n/a 
n/a 
-4.759 
n/a 
n/a 
n/a 
n/a 
-4.759 
n/a 
n/a 
n/a 
n/a 
-4.759 
n/a 
n/a 
n/a 
n/a 
-5.1845 -4.39 -4.1715 -1.4985 -3.288 
-10.168 -8.532501 -4.693 -4.3455 
-14.3105 -8.944001 -8.1415 
-14.722 -12.5663 
-18.3443 
-11.558 -2.9905 -1.7565 -4.39 
-16.0353 -3.6185 -5.7635 
-16.5003 -9.01 
-22.3074 
n/a 
-9.222 -4.0455 -4.4755 -1.934 -2.5685 -3.9035 -1.7565 -1.4985 -3.188 
-13.456 -8.967501 -6.256 -4.244 -5.716 -4.616 -2.4195 -3.619 
-19.6217 -10.7185 -8.2095 -6.513 -5.9055 -4.895 -4.4095 
-21.9327 -12.672 -9.31 -6.54 -6.06 -5.773 
-23.8862 -13.7725 -9.3155 -6.656 -6.769 
-9.6365 0 -3.936 -1.4985 -4.39 
-9.6365 -3.936 -4.263 -5.735001 
-13.6987 -4.263 -8.1665 
-14.0257 -8.1665 
-17.9292 
