-4.759 
n/a 
n/a 
n/a 
n/a 
-4.759 
n/a 
n/a 
n/a 
n/a 
-4.759 
n/a 
n/a 
n/a 
n/a 
-4.759 
n/a 
n/a 
n/a 
n/a 
-2.5045 -4.461 -4.3195 -2.264 -3.524 -4.393 -4.3215 -2.985 -3.5645 -4.6055 -2.356 -4.1865 -4.241 -4.4165 -3.9665 
-7.135 -8.267 -7.894 -4.855 -6.8355 -9.516001 -6.389501 -6.3795 -7.265 -5.3225 -6.507501 -7.936501 -6.8265 -7.6835 
-11.5952 -12.2551 -10.4185 -9.842001 -12.2725 -11.6142 -10.19 -9.439501 -8.101501 -9.039001 -10.718 -8.363501 -7.692501 
-15.5833 -14.7796 -15.4055 -15.279 -14.3707 -15.4147 -13.25 -10.205 -12.1516 -13.3913 -11.145 -8.436501 
-18.1078 -19.7666 -20.8425 -17.3772 -18.1712 -18.4747 -14.0155 -14.5291 -16.5039 -13.8183 -11.218 
-2.5045 -1.4985 -4.2605 -4.3145 -4.6475 0 -1.4985 -5.3745 -4.891 -4.8165 -11.6755 -2.356 -1.4985 -4.1865 -4.241 -4.4165 -3.9665 
-3.583 -4.8355 -8.160001 -8.7005 -4.6475 -1.4985 -6.2355 -7.061501 -9.9615 -14.3655 -11.2025 -3.1615 -5.177 -7.936501 -6.8265 -7.6835 
-6.889 -8.453 -9.871501 -8.7005 -6.0955 -6.2355 -7.2945 -13.5242 -20.3533 -16.2597 -12.0795 -6.849501 -8.515501 -8.363501 -7.692501 
-10.082 -10.0505 -9.871501 -10.316 -11.0633 -7.2945 -14.2904 -23.916 -21.7573 -16.9037 -15.7675 -9.935 -8.714001 -8.436501 
-11.6795 -10.0505 -11.5272 -15.2838 -12.1223 -14.2904 -24.6822 -25.32 -22.4013 -20.5917 -18.853 -9.976001 -8.7475 
-3.5065 -1.4985 -4.2605 -6.198 -1.4985 -5.3745 -4.891 -4.3215 -4.987 -5.5605 -1.7695 -1.4985 -4.1865 -4.241 -4.4165 -3.9665 0 
-4.358 -4.8355 -7.839001 -7.240001 -6.2355 -7.061501 -9.126501 -10.4855 -8.9905 -6.2715 -2.7955 -5.177 -7.936501 -6.8265 -7.6835 -3.9665 
-8.0825 -8.108 -9.074 -12.4354 -7.2945 -10.404 -15.5967 -14.489 -9.906501 -6.754 -6.5165 -8.515501 -8.363501 -7.692501 -7.6835 
-11.8366 -9.351 -14.3504 -13.4944 -10.434 -17.2042 -19.6002 -15.405 -10.372 -11.3958 -9.998 -8.714001 -8.436501 -7.692501 
-13.0796 -14.6744 -15.4094 -16.6339 -17.2744 -21.2077 -20.5162 -15.8705 -15.0138 -14.8773 -10.4395 -8.7475 -8.436501 
-4.2605 -3.7555 -6.9805 0 -6.144 -4.891 -4.3215 -3.5645 -7.488 -1.7695 -4.1865 -4.241 -4.4165 -3.9665 -2.264 -3.524 -2.5645 -4.393 0 
-7.790501 -9.8245 -6.9805 -6.144 -9.338 -9.126501 -8.436001 -9.074 -7.135 -6.303 -7.936501 -6.8265 -7.6835 -5.5885 -4.855 -5.5775 -6.808001 -4.393 
-14.3741 -9.8245 -13.9197 -9.338 -13.6691 -13.5472 -13.4646 -9.966001 -12.444 -10.4505 -8.363501 -7.692501 -9.687 -8.141001 -6.541 -8.625501 -6.808001 
-14.3741 -16.9137 -17.1137 -13.6691 -18.0898 -18.5758 -15.2436 -15.3946 -17.0241 -10.8775 -8.436501 -9.7165 -12.5849 -9.8985 -9.4165 -8.625501 
-21.4633 -20.1077 -21.4448 -18.0898 -23.1184 -20.3548 -21.0015 -19.7139 -17.4511 -10.9505 -10.9215 -12.6014 -14.3424 -12.9214 -9.4165 
