-4.759 
n/a 
n/a 
n/a 
n/a 
-4.759 
n/a 
n/a 
n/a 
n/a 
-4.759 
n/a 
n/a 
n/a 
n/a 
-4.759 
n/a 
n/a 
n/a 
n/a 
-4.87 -4.2215 0 -4.7195 -2.925 0 -5.192 0 -4.424 -2.3335 -3.098 -2.7295 -2.4945 -4.2425 -2.7455 -4.744 
-9.002501 -4.2215 -4.7195 -5.659 -2.925 -5.192 -5.192 -4.424 -6.88 -5.0465 -5.5325 -3.7725 -5.806 -4.994 -7.553 
-9.002501 -9.105501 -5.659 -5.659 -8.943501 -5.192 -8.785001 -6.88 -10.4765 -7.771501 -6.92 -6.7765 -6.305 -10.1995 
-14.2239 -9.458001 -5.659 -12.1505 -8.943501 -8.785001 -11.8056 -10.4765 -13.2015 -9.094001 -10.1855 -7.3175 -11.8547 
-14.5764 -9.458001 -12.1505 -12.1505 -12.9439 -11.8056 -15.4021 -13.2015 -14.524 -12.7589 -10.757 -13.035 
-2.7295 -3.61 -5.211 -3.115 -4.2215 0 -5.192 0 -4.19 -2.356 -4.75 
-5.1655 -10.907 -7.698001 -8.128 -4.2215 -5.192 -5.192 -4.19 -6.766 -6.191501 
-13.8295 -13.394 -12.7998 -8.128 -9.975 -5.192 -10.254 -6.766 -10.564 
-16.3165 -18.4958 -12.7998 -14.3401 -9.975 -10.254 -12.9848 -10.564 
-21.4183 -18.4958 -19.0119 -14.3401 -15.2462 -12.9848 -16.7828 
0 -2.7295 -2.7765 -3.047 -1.8085 -4.9135 -2.5045 -2.871 -3.6765 -3.0695 -2.8645 -3.183 -4.2215 0 -4.7195 0 -5.192 0 -1.756 -2.8645 -4.424 
-2.7295 -4.065 -4.5075 -4.618 -5.7665 -7.38 -4.7085 -5.168 -4.7945 -4.5495 -5.2295 -7.094501 -4.2215 -4.7195 -4.7195 -5.192 -5.192 -1.756 -4.3855 -5.9215 
-4.065 -5.696 -6.036 -8.465 -8.073 -9.533001 -7.175 -6.492001 -5.7695 -6.625501 -9.801001 -7.094501 -9.105501 -4.7195 -11.1779 -5.192 -6.554 -4.3855 -8.645 
-5.696 -7.177 -9.935 -10.8115 -10.298 -11.9457 -8.8655 -7.525001 -8.199 -11.4128 -9.801001 -12.3795 -9.105501 -11.1779 -11.1779 -6.554 -9.669001 -8.645 
-7.177 -11.1204 -12.4261 -13.0365 -12.7107 -13.6362 -9.918 -10.4265 -13.0779 -11.4128 -15.2266 -12.3795 -16.0549 -11.1779 -12.5399 -9.669001 -14.0203 
-2.7295 -3.047 -3.1385 -2.5045 -4.2215 0 -4.7195 0 -5.192 -1.756 -4.424 -1.756 -2.925 -4.209 -2.5045 -1.8085 -7.827 0 
-5.018 -6.0465 -5.524 -7.475 -4.2215 -4.7195 -4.7195 -5.192 -6.554 -5.698 -5.9015 -4.2585 -6.330501 -6.5 -3.3625 -8.778501 -7.827 
-7.4475 -7.976501 -10.078 -7.475 -9.105501 -4.7195 -11.1779 -6.554 -7.172501 -7.6 -7.785 -7.772 -8.363001 -7.0805 -9.8655 -8.778501 
-9.091001 -12.7049 -10.078 -12.748 -9.105501 -11.1779 -12.5399 -7.172501 -8.9875 -9.489 -11.5479 -9.2725 -9.137501 -14.4629 -9.8655 
-13.8682 -12.7049 -15.351 -12.748 -16.0549 -12.5399 -13.1584 -8.9875 -11.0767 -13.4233 -13.0484 -10.089 -16.4491 -14.4629 
