-4.759 
n/a 
n/a 
n/a 
n/a 
-4.759 
n/a 
n/a 
n/a 
n/a 
-4.759 
n/a 
n/a 
n/a 
n/a 
-4.759 
n/a 
n/a 
n/a 
n/a 
-2.645 -3.2295 0 -1.934 -3.691 0 -5.546 -5.2695 -2.4945 -4.2175 0 
-6.2145 -3.2295 -1.934 -4.8225 -3.691 -5.546 -7.906501 -6.8715 -5.2625 -4.2175 
-6.2145 -5.5925 -4.8225 -4.8225 -9.7075 -7.906501 -9.0795 -8.956 -5.2625 
-8.528501 -8.653501 -4.8225 -10.3345 -12.2106 -9.0795 -10.4595 -8.956 
-11.9079 -8.653501 -10.3345 -12.8376 -13.3836 -10.4595 -10.4595 
-3.321 0 -3.486 -3.8315 -4.371 -2.186 -4.1535 -2.3345 -3.5435 -3.147 -3.486 -3.8315 -4.8045 -2.7765 -3.0465 -2.5685 -1.4985 -3.2895 0 
-3.321 -3.486 -5.2965 -5.7005 -5.9015 -5.7 -4.843 -5.752501 -7.1925 -7.4805 -5.2965 -6.1435 -6.9685 -4.5705 -5.2205 -3.7015 -4.862 -3.2895 
-7.7015 -5.2965 -5.7215 -7.324 -9.4175 -6.193501 -7.8335 -9.501 -11.9808 -9.469001 -6.187 -8.014501 -8.4975 -6.57 -5.571 -6.3695 -4.862 
-9.2405 -5.7215 -7.333 -10.2275 -9.929001 -9.372001 -11.9848 -14.3957 -13.9693 -10.09 -8.062 -9.384501 -10.523 -6.9785 -8.954 -6.3695 
-9.643001 -7.333 -10.228 -10.739 -13.1249 -13.6013 -16.8795 -16.3842 -14.5903 -12.2194 -9.420501 -10.7035 -11.3107 -10.5965 -8.954 
-3.818 -5.546 -2.186 -2.6165 -1.4985 -7.344501 -1.4985 -3.5435 -4.928 -1.4985 -5.399 -3.8315 -1.756 -4.371 
-9.948 -7.675501 -3.5105 -4.2225 -8.764 -9.267 -4.2755 -8.580001 -5.547501 -7.09 -8.047501 -5.169001 -6.059 
-12.0775 -8.605501 -4.8535 -10.861 -9.740001 -11.685 -9.082001 -9.264001 -12.014 -9.903501 -9.5765 -7.566501 
-13.0075 -9.998501 -11.7605 -12.0085 -12.4794 -16.8207 -9.597001 -15.7897 -14.8275 -11.5343 -12.2482 
-14.4005 -17.0287 -13.0537 -14.9075 -17.5393 -17.3357 -16.1683 -18.6032 -16.4583 -14.206 
-3.147 0 -3.486 -4.361 -4.371 -2.4945 -4.3285 -3.5035 0 -3.486 -4.361 -4.928 -2.8645 -2.5685 -3.2895 0 
-3.147 -3.486 -7.9645 -8.8375 -6.953501 -5.63 -8.477501 -3.5035 -3.486 -7.9645 -9.749001 -8.1315 -5.509501 -3.4935 -3.2895 
-7.4805 -7.9645 -10.468 -11.5444 -10.4675 -10.4855 -8.477501 -7.9755 -7.9645 -13.5295 -12.9909 -10.76 -8.1285 -3.4935 
-12.5296 -10.468 -13.6095 -15.0584 -15.323 -10.4855 -13.3585 -13.3398 -13.5295 -16.7714 -15.6194 -13.379 -8.1285 
-15.0331 -13.6095 -17.1235 -19.9139 -15.323 -15.3665 -18.7228 -18.9048 -16.7714 -19.3999 -18.2384 -13.379 
