-4.759 
n/a 
n/a 
n/a 
n/a 
-4.759 
n/a 
n/a 
n/a 
n/a 
-4.759 
n/a 
n/a 
n/a 
n/a 
-4.759 
n/a 
n/a 
n/a 
n/a 
-3.436 -2.3335 -3.135 -3.7555 -4.814 -2.0935 -3.937 -3.0435 -1.756 -4.101 -3.0365 0 
-5.4805 -4.88 -7.5255 -9.4185 -6.3275 -5.5045 -5.3015 -4.5065 -5.32 -6.212501 -3.0365 
-8.2585 -9.112 -13.2703 -10.362 -10.1635 -6.982501 -7.055501 -8.4025 -7.861 -6.212501 
-12.6359 -14.972 -14.2138 -14.198 -11.6415 -8.4095 -11.3971 -11.2405 -7.861 
-18.4959 -15.9155 -18.0498 -15.676 -13.0685 -12.9419 -14.2351 -11.2405 
-3.436 -2.3335 -3.135 -3.6955 -2.356 -3.213 -4.28 -2.4285 -4.629 
-5.4805 -4.88 -7.12 -5.198 -6.0845 -7.879001 -6.4285 -6.6255 
-8.2585 -9.029501 -7.941501 -9.342501 -10.0715 -10.044 -10.254 
-12.5534 -9.878 -12.1064 -13.3663 -12.2365 -13.8695 
-13.4019 -14.1573 -16.1302 -15.5313 -16.062 
-2.3335 -3.436 -3.0465 -4.28 -1.7695 -3.0435 -2.0935 -3.135 -3.1385 0 
-5.763 -7.35 -6.4705 -5.027 -5.107 -5.3285 -4.4665 -4.8745 -3.1385 
-9.7585 -10.5325 -7.021501 -10.4035 -7.6055 -7.72 -6.125 -4.8745 
-12.8954 -11.7873 -12.7854 -12.902 -9.991501 -9.151 -6.125 
-14.1502 -17.5512 -15.2839 -15.288 -11.3139 -9.151 
-3.436 -2.3335 -3.135 -2.674 -3.6955 -3.147 -2.356 -3.6175 -4.629 
-5.4805 -4.88 -5.651 -5.082 -5.6215 -5.4785 -6.3545 -8.509 
-8.2585 -7.109 -7.931001 -6.873 -7.418 -9.995 -11.977 
-10.3815 -9.23 -9.9505 -8.5755 -12.2203 -15.6175 
-12.5025 -11.6519 -11.6236 -13.4698 -17.8428 
