-4.759 
n/a 
n/a 
n/a 
n/a 
-4.759 
n/a 
n/a 
n/a 
n/a 
-4.759 
n/a 
n/a 
n/a 
n/a 
-4.759 
n/a 
n/a 
n/a 
n/a 
-7.017 -1.4985 -3.817 -3.4635 -1.7695 -1.4985 -5.6265 -5.662 
-8.142 -4.737 -6.8595 -4.2045 -2.7955 -6.844001 -12.2373 
-11.6603 -7.940001 -7.236001 -4.7965 -8.034 -13.6922 
-14.8633 -8.129001 -7.856501 -9.862501 -15.185 
-15.0523 -8.679501 -13.3001 -17.1975 
-5.178 -5.2825 -3.4635 -4.767 -3.6615 
-10.598 -9.413 -8.855 -6.8135 
-14.7285 -14.8539 -10.323 
-20.1694 -16.3219 
-21.6374 
-4.191 -3.4635 -1.7695 -1.4985 -5.473 -4.6345 
-8.2095 -4.2045 -2.7955 -6.811501 -11.7997 
-8.522 -4.7965 -7.951001 -13.0574 
-9.363501 -9.394501 -14.3675 
-14.1739 -15.8342 
-4.191 -5.5235 -2.264 -5.473 -5.178 
-11.117 -6.147 -7.698501 -9.9895 
-11.7405 -12.3261 -12.5654 
-17.9196 -17.193 
-22.7865 
