-4.759 
n/a 
n/a 
n/a 
n/a 
-4.759 
n/a 
n/a 
n/a 
n/a 
-4.759 
n/a 
n/a 
n/a 
n/a 
-4.759 
n/a 
n/a 
n/a 
n/a 
-1.934 -2.3615 -8.311001 -1.4985 -3.616 -4.176 -3.8275 -1.7695 -2.489 -4.532 
-3.539 -10.3225 -10.533 -4.8055 -6.547501 -8.6265 -5.9455 -3.1405 -6.419001 
-12.205 -12.5445 -13.84 -7.447001 -10.5975 -11.0583 -7.3405 -7.135 
-14.427 -15.8515 -16.4815 -11.98 -13.0293 -12.4533 -11.7184 
-17.734 -18.493 -21.0145 -14.4118 -14.4243 -16.8312 
-3.851 -1.7695 -5.1645 -6.193501 -3.616 -4.176 -4.931 -3.6205 -2.7415 -4.0745 0 
-4.0015 -7.268001 -12.4544 -10.411 -6.547501 -8.74 -8.3065 -5.747 -6.1165 -4.0745 
-10.2148 -15.3757 -16.6719 -13.3425 -9.611501 -12.6059 -10.7495 -9.799 -6.1165 
-18.3225 -19.5932 -19.6034 -16.4065 -13.9676 -15.0489 -14.8015 -9.799 
-22.54 -22.5247 -22.6674 -20.7626 -16.4106 -19.1009 -14.8015 
-2.4265 -2.7415 -4.4015 -1.7695 -3.335 -1.8085 -3.616 -4.176 -4.931 -2.3615 -6.193501 
-3.681 -5.9195 -4.6435 -4.5005 -5.251 -5.1065 -6.547501 -8.74 -7.234 -8.088 
-6.045 -6.419001 -7.246 -6.019001 -8.3485 -7.8735 -9.611501 -11.5334 -13.3329 
-6.4315 -9.684 -8.799001 -9.213501 -11.3747 -9.8085 -12.8951 -17.6323 
-9.7005 -11.3818 -12.2083 -12.2075 -13.3097 -13.7835 -18.994 
-3.9595 -4.0175 -1.7695 -5.9125 -3.7015 -5.1645 -4.1035 -2.356 -3.616 -4.5645 0 
-8.570001 -4.953001 -8.236501 -6.886001 -9.2995 -9.906 -6.881001 -5.592501 -7.523001 -4.5645 
-9.377501 -12.6976 -9.4525 -13.0264 -14.219 -12.7625 -10.1185 -8.972501 -7.523001 
-17.1749 -13.9136 -15.5647 -17.9459 -17.0755 -16 -14.3589 -8.972501 
-18.3909 -20.0258 -20.4842 -20.8024 -20.313 -20.2404 -14.3589 
