-4.759 
n/a 
n/a 
n/a 
n/a 
-4.759 
n/a 
n/a 
n/a 
n/a 
-4.759 
n/a 
n/a 
n/a 
n/a 
-4.759 
n/a 
n/a 
n/a 
n/a 
-6.844 -3.8275 -3.741 
-8.3745 -5.1015 
-9.4075 
n/a 
n/a 
-5.7505 -3.8275 -3.741 
-10.884 -5.1015 
-12.158 
n/a 
n/a 
-4.426 -1.7565 -1.4985 -3.6115 -4.7285 -4.1555 -3.147 -6.844 -3.8275 
-5.47 -2.4195 -4.081 -6.5495 -8.4455 -5.77 -10.8392 -8.3745 
-5.9535 -5.180501 -6.670501 -9.978001 -9.541501 -13.6032 -12.3697 
-8.462501 -7.797 -10.054 -11.0524 -17.3747 -15.1337 
-10.2375 -11.2985 -11.1648 -18.8856 -18.9052 
-3.8275 -2.0935 -5.1845 -3.1385 -1.934 -6.899 
-5.976 -7.298 -7.4095 -4.522 -8.8275 
-10.194 -9.289001 -8.46 -12.1875 
-12.5452 -10.2285 -16.6225 
-13.4847 -18.379 
