-4.759 
n/a 
n/a 
n/a 
n/a 
-4.759 
n/a 
n/a 
n/a 
n/a 
-4.759 
n/a 
n/a 
n/a 
n/a 
-4.759 
n/a 
n/a 
n/a 
n/a 
-1.934 -4.365 -4.267 -1.4985 -4.365 -3.7805 -4.881 -3.222 -4.352 -3.638 
-6.322 -7.0085 -6.4665 -5.4465 -7.008 -8.977 -5.6785 -6.995501 -6.196 
-8.59 -9.5165 -8.908001 -8.271 -12.7291 -9.6735 -8.113 -7.4285 
-11.854 -10.6895 -12.5577 -14.2771 -13.4256 -12.2226 -8.454 
-13.027 -14.3392 -18.5638 -14.9736 -15.9747 -12.5636 
-1.934 -1.4985 -3.7075 -4.3305 0 -3.7075 -3.7805 -3.6615 -1.7695 -4.1985 -4.237 -3.638 0 
-2.6125 -4.6235 -8.158 -4.3305 -3.7075 -6.981 -7.3255 -4.667 -6.439001 -6.764501 -6.6705 -3.638 
-5.5835 -8.650001 -8.158 -7.929 -6.981 -10.733 -8.4705 -9.258501 -8.850501 -9.438001 -6.6705 
-9.706001 -8.650001 -10.233 -11.6843 -10.733 -11.878 -13.6598 -11.9084 -11.6438 -9.438001 
-9.706001 -10.6605 -13.9883 -15.4363 -11.878 -17.0673 -16.3097 -14.7017 -11.6438 
-3.7075 -4.983 -2.4945 -4.881 -1.934 -1.7695 -4.614 0 
-7.178 -6.5395 -6.0815 -6.82 -4.0395 -6.480501 -4.614 
-8.748501 -9.486501 -8.0465 -8.0795 -9.316501 -6.480501 
-11.7933 -11.6769 -9.347 -10.5225 -9.316501 
-13.9837 -12.9774 -11.7916 -10.5225 
-1.934 -3.7075 0 -1.4985 -4.365 -3.7805 -7.875 -2.186 -4.881 -3.222 -4.352 -3.638 0 
-6.1845 -3.7075 -1.4985 -5.4465 -7.008 -10.438 -9.251501 -6.005 -5.6785 -6.995501 -6.196 -3.638 
-6.1845 -5.487 -5.4465 -8.271 -12.1155 -11.1505 -11.661 -6.598001 -8.113 -7.4285 -6.196 
-8.865001 -8.124001 -8.271 -13.4562 -14.1586 -14.5647 -12.2968 -8.559501 -8.454 -7.4285 
-11.6922 -10.459 -13.4562 -15.3611 -17.2064 -14.9197 -13.7163 -8.767 -8.454 
