-4.759 
n/a 
n/a 
n/a 
n/a 
-4.759 
n/a 
n/a 
n/a 
n/a 
-4.759 
n/a 
n/a 
n/a 
n/a 
-4.759 
n/a 
n/a 
n/a 
n/a 
-6.899 -2.229 -9.919001 -4.567 -2.674 -1.8085 -3.9075 
-8.988 -12.743 -14.8412 -5.667 -3.63 -5.714 
-19.6774 -17.6652 -15.9412 -6.468 -8.2375 
-24.5996 -18.7652 -16.7422 -11.4079 
-25.6996 -19.5662 -21.6821 
-1.934 -6.6585 -10.7715 -2.8645 -2.847 -3.9075 0 
-7.809 -18.1886 -13.636 -4.6285 -7.663001 -3.9075 
-19.7963 -21.0531 -15.4 -9.3535 -7.663001 
-22.6608 -22.8171 -20.125 -9.3535 
-24.4248 -27.5421 -20.125 
-10.2665 -2.186 -1.4985 -3.5015 -3.3155 -3.0365 -2.186 -2.847 -3.9075 -1.934 -4.628 -4.743 0 
-10.985 -3.339 -4.737 -5.1555 -5.0985 -3.66 -4.1045 -7.663001 -5.7005 -5.9605 -4.7515 -4.743 
-12.138 -5.516 -5.664001 -6.921 -5.425 -4.256001 -8.609 -9.170001 -9.606001 -5.9845 -4.7515 
-14.315 -6.4165 -8.151001 -7.3745 -6.1365 -8.635 -9.769001 -13.3381 -9.663501 -5.9845 
-15.2155 -9.1905 -8.434501 -7.906 -9.210501 -9.7805 -13.7937 -13.3956 -9.663501 
-1.934 -9.4215 -1.4985 -3.5015 -3.4945 -3.9075 -2.186 -12.16972 0 
-10.7025 -11.0948 -4.737 -6.406 -9.141001 -5.9785 -15.56612 -12.16972 
-12.3758 -14.3333 -7.9705 -12.4073 -11.3288 -19.87562 -15.56612 
-15.6143 -17.5668 -14.1616 -14.5951 -25.22592 -19.87562 
-18.8478 -23.7579 -16.3494 -28.49222 -25.22592 
