-4.759 
n/a 
n/a 
n/a 
n/a 
-4.759 
n/a 
n/a 
n/a 
n/a 
-4.759 
n/a 
n/a 
n/a 
n/a 
-4.759 
n/a 
n/a 
n/a 
n/a 
-2.925 -4.6505 -1.4985 -4.031 -2.0935 -3.6055 -5.4995 0 -3.4155 -3.9965 -1.7565 -3.8005 -2.229 -5.938 0 -5.7105 -5.9185 -3.554 0 -4.704 -3.8375 -5.521 0 
-6.9165 -5.797501 -4.771 -4.8935 -4.7925 -8.834001 -5.4995 -3.4155 -6.032001 -5.462 -5.0365 -5.0465 -7.7555 -5.938 -5.7105 -6.078 -9.628501 -3.554 -4.704 -6.3775 -8.475 -5.521 
-7.81 -7.7825 -5.3855 -8.1685 -10.254 -8.834001 -9.314501 -6.032001 -6.599 -6.684 -5.932 -11.759 -7.7555 -12.5979 -6.078 -9.8325 -9.628501 -7.9775 -6.3775 -8.496 -8.475 
-9.218 -8.083501 -8.903 -13.857 -10.254 -12.8986 -12.219 -6.599 -6.705 -9.473001 -12.9779 -11.759 -14.7564 -12.9654 -9.8325 -9.8325 -14.2448 -10.7025 -8.496 -8.496 
-9.290501 -11.826 -14.6665 -13.857 -14.3186 -15.8031 -12.786 -6.705 -9.503 -16.7907 -12.9779 -18.7599 -15.1239 -16.7199 -9.8325 -14.5396 -16.9698 -12.821 -8.496 

n/a 
n/a 
n/a 
n/a 
-2.3615 -4.1665 -3.43 -3.826 -4.1885 -2.0935 -3.345 -5.181 -3.115 -3.3725 -1.7565 -3.554 -2.0935 -5.7105 -5.9185 0 -3.8005 -3.9965 -2.229 -5.938 0 -4.704 -3.8375 -5.2915 -4.5215 -1.756 -3.0415 -2.264 0 
-6.0275 -7.6375 -7.311 -7.634501 -5.5465 -4.212 -9.635 -8.026501 -7.579 -5.226501 -4.9395 -5.2705 -8.047001 -6.078 -5.9185 -3.8005 -7.5575 -6.717501 -7.7555 -5.938 -4.704 -6.3775 -8.26 -9.49 -6.3455 -4.454 -5.0065 -2.264 
-9.2925 -11.8133 -11.7249 -9.071501 -7.546 -10.7924 -12.6827 -12.6611 -9.35 -7.845 -6.567 -11.995 -8.5325 -6.078 -9.747001 -7.5575 -10.7175 -12.654 -7.7555 -11.5914 -6.3775 -8.6405 -12.8091 -12.1934 -8.9245 -5.0825 -5.0065 
-13.5901 -16.2272 -13.1619 -10.3415 -14.4048 -13.8401 -17.3173 -14.4321 -12.2997 -9.176001 -13.6447 -12.4805 -8.5325 -9.785001 -13.938 -10.7175 -16.654 -12.654 -13.7499 -13.2649 -8.6405 -12.9782 -15.5125 -14.7724 -10.0035 -5.0825 
-18.004 -17.6642 -14.4319 -17.2003 -17.4525 -18.4747 -19.0883 -17.3818 -13.6307 -16.4783 -14.1302 -12.4805 -12.4345 -14.0494 -17.098 -16.654 -16.654 -18.6484 -15.4234 -15.5279 -12.9782 -15.6816 -18.0915 -15.8514 -10.0035 
-2.4265 -4.4015 -1.4985 -4.031 -2.0935 -3.345 -1.756 -3.6055 -3.826 -3.6035 -3.115 -3.4155 -3.9965 -1.7565 -3.8005 -2.229 -5.938 0 -5.7105 -5.9185 -2.229 -3.554 0 -4.1215 -1.7565 -4.704 -3.8375 -5.521 
-6.765 -6.264 -4.771 -4.8935 -4.212 -5.2935 -5.005 -7.9835 -6.663 -7.245 -6.627501 -6.032001 -5.462 -5.0365 -5.0465 -7.7555 -5.938 -5.7105 -6.078 -8.189501 -5.5535 -3.554 -4.1215 -5.3395 -6.2865 -6.3775 -8.475 
-8.3595 -9.382 -5.3855 -7.509501 -6.3595 -5.4295 -9.379 -11.2771 -10.66 -11.1309 -9.156 -6.599 -6.684 -5.932 -11.759 -7.7555 -12.5979 -6.078 -8.4135 -11.7396 -5.5535 -7.337501 -5.3395 -9.5165 -7.5465 -8.496 
-11.6191 -10.16 -8.059 -9.485001 -6.4435 -9.8675 -12.7392 -15.2741 -14.5459 -13.6594 -10.111 -6.705 -9.473001 -12.9779 -11.759 -14.7564 -12.9654 -8.4135 -12.0502 -11.7396 -9.938 -9.5515 -9.5165 -10.6895 -9.978001 
-12.3971 -12.9845 -10.248 -9.541 -11.1375 -13.2929 -16.7362 -19.16 -17.0744 -14.6144 -10.174 -9.503 -16.7907 -12.9779 -18.7599 -15.1239 -15.3009 -12.0502 -12.0502 -16.1241 -12.284 -13.8087 -10.6895 -13.121 
