-4.759 
n/a 
n/a 
n/a 
n/a 
-4.759 
n/a 
n/a 
n/a 
n/a 
-4.759 
n/a 
n/a 
n/a 
n/a 
-4.759 
n/a 
n/a 
n/a 
n/a 
-4.4615 -3.2295 -3.514 -3.098 
-7.7415 -7.047 -6.743 
-10.3345 -9.649 
-12.9365 
n/a 
-5.5835 -4.0035 -1.934 -7.774 
-8.7005 -6.0185 -10.451 
-11.0949 -15.1089 
-20.1853 
n/a 
-2.3085 -3.0805 -4.379 -2.5195 -3.514 
-3.7245 -6.8335 -6.306 -6.4265 
-6.904 -8.0445 -9.654 
-8.049 -11.6835 
-11.6936 
0 -2.3085 -3.0805 -4.4615 -1.934 -1.4985 -3.514 0 
-2.3085 -3.7245 -6.646501 -5.9665 -2.6125 -4.8495 -3.514 
-3.7245 -6.756 -8.120001 -6.9395 -6.4705 -4.8495 
-6.756 -8.144501 -8.8125 -10.442 -6.4705 
-8.144501 -8.8205 -12.7256 -10.442 
