-4.759 
n/a 
n/a 
n/a 
n/a 
-4.759 
n/a 
n/a 
n/a 
n/a 
-4.759 
n/a 
n/a 
n/a 
n/a 
-4.759 
n/a 
n/a 
n/a 
n/a 
-3.6835 -4.02 -3.4985 -2.186 -1.4985 -3.895 -1.7565 -6.6215 -4.02 -3.922 0 -4.0955 -2.3345 -4.617 -1.4985 -4.2705 -3.6395 -5.2165 -3.886 -2.5195 -4.5735 -4.4385 -3.802 -1.4985 -3.0835 -3.9205 -4.224 -1.7565 -4.02 -3.4985 0 
-6.3715 -6.6515 -5.554 -3.339 -5.121 -5.073 -7.188001 -9.8225 -6.8955 -3.922 -4.0955 -6.455 -5.7 -5.18 -5.383 -6.004 -9.4865 -8.087 -5.8815 -6.318501 -6.2495 -9.2945 -5.3585 -3.535 -6.6305 -7.085001 -4.7445 -5.4345 -6.6515 -3.4985 
-9.019501 -8.169001 -6.8675 -6.7425 -5.411 -10.155 -10.238 -10.706 -6.8955 -8.586 -6.455 -9.4275 -6.0835 -9.099501 -7.0715 -12.9474 -12.5474 -9.445001 -9.191 -7.5 -10.5225 -10.7505 -7.626 -6.8125 -9.143001 -7.446001 -8.989 -7.676001 -6.6515 
-10.1995 -9.046 -9.5775 -6.8815 -10.3955 -10.7565 -10.711 -10.706 -10.543 -10.1225 -9.4275 -9.716001 -9.958501 -9.162001 -14.2611 -16.0083 -13.9054 -10.759 -10.4595 -10.7575 -10.7735 -10.786 -10.064 -9.154501 -9.213 -10.717 -10.27 -7.676001 
-10.768 -10.4035 -9.6335 -10.749 -10.761 -10.784 -10.711 -10.7775 -10.691 -10.6945 -9.716001 -10.6635 -10.0615 -16.416 -17.322 -17.3663 -15.2194 -10.779 -10.7725 -10.7775 -10.7935 -10.806 -10.755 -9.222 -10.7505 -10.7825 -10.27 
-2.3345 -4.7265 -2.7455 -3.347 -1.756 -4.378 0 -2.0935 -4.1885 -2.3615 -3.7075 -2.0935 -7.740001 -3.2495 -2.4945 -3.2955 -1.7695 -4.42 0 
-6.5455 -6.5205 -7.048 -5.283 -5.6365 -4.378 -2.0935 -5.2235 -6.3855 -5.029 -4.666 -10.0775 -9.360001 -5.757 -4.6305 -3.9425 -5.1225 -4.42 
-8.461 -11.3054 -9.0085 -9.646001 -5.6365 -5.8555 -5.2235 -7.0625 -9.986501 -7.009 -14.5586 -12.9927 -11.507 -7.9615 -5.1225 -6.2195 -5.1225 
-13.4111 -13.2659 -13.5671 -9.646001 -7.596 -10.5535 -7.0625 -10.5325 -11.9665 -17.1552 -16.6006 -14.8457 -13.802 -8.726001 -6.895 -6.2195 
-15.3716 -17.8245 -13.5671 -11.6055 -12.496 -12.3925 -10.5325 -12.5125 -22.1127 -19.1972 -18.4536 -17.1407 -14.4985 -10.434 -6.895 
-4.497 -1.756 -4.17 -1.4985 -4.497 -1.756 -4.1885 -1.7565 -1.4985 -4.7615 0 -3.1495 -3.5155 -4.523 -1.934 -5.7915 -1.4985 -5.101 -3.6615 0 
-5.851 -5.372 -5.1315 -5.7405 -5.851 -5.6005 -7.165 -2.4195 -6.26 -4.7615 -3.1495 -7.2475 -7.8 -6.3665 -7.066 -6.353 -5.9925 -8.118501 -3.6615 
-8.726501 -6.478 -9.28 -7.2105 -9.333 -8.3605 -8.007501 -7.214001 -6.26 -8.295501 -7.2475 -10.316 -9.67 -10.316 -7.515001 -9.908501 -9.507501 -8.118501 
-9.081 -10.8885 -10.3165 -11.1483 -12.1352 -9.359 -13.0132 -7.214001 -9.906 -12.5913 -10.316 -12.5076 -13.6165 -10.6315 -11.1717 -13.6783 -9.507501 
-13.8033 -11.925 -14.8003 -13.9505 -13.1337 -14.4297 -13.0132 -10.9314 -14.4874 -15.6598 -12.5076 -16.4541 -13.932 -14.2882 -14.9415 -13.6783 
-1.7695 -3.3785 -2.7455 -1.4985 -3.6615 -1.934 -1.4985 -3.188 0 -3.347 -3.6645 0 -1.756 -3.3425 -3.347 -3.6645 -1.7695 -5.359 -3.6615 -2.4945 -1.4985 -3.2495 -4.1895 -4.246 0 
-4.1685 -4.6985 -3.637 -4.9455 -4.437 -2.6125 -3.619 -3.188 -3.347 -7.681 -3.6645 -1.756 -5.163 -7.226501 -7.681 -5.5935 -5.8155 -9.512001 -5.3425 -3.9315 -4.1915 -8.0645 -8.9095 -4.246 
-5.138 -5.497 -6.6775 -5.731 -5.0245 -4.377 -3.619 -5.29 -7.681 -7.681 -5.064 -5.163 -9.3965 -12.3259 -9.903501 -8.8985 -9.6925 -11.573 -7.2825 -6.1025 -9.7165 -13.1345 -8.9095 
-5.989 -8.3535 -7.41 -6.1885 -7.2825 -4.377 -6.653501 -10.123 -7.681 -9.335501 -8.871 -9.3965 -14.5473 -14.5484 -13.3853 -12.9105 -11.8575 -13.513 -9.955501 -12.0053 -14.8983 -13.1345 
-8.763 -9.2185 -7.943 -8.209001 -7.2825 -8.0765 -12.4521 -10.123 -9.335501 -13.1931 -13.2569 -14.5473 -16.7698 -18.0302 -17.3973 -15.0755 -13.7975 -16.186 -15.8583 -17.1871 -14.8983 
