-4.759 
n/a 
n/a 
n/a 
n/a 
-4.759 
n/a 
n/a 
n/a 
n/a 
-4.759 
n/a 
n/a 
n/a 
n/a 
-4.759 
n/a 
n/a 
n/a 
n/a 
-2.8845 -9.941501 0 -5.7865 0 
-13.5604 -9.941501 -5.7865 -5.7865 
-13.5604 -15.7858 -5.7865 
-19.4047 -15.7858 
-19.4047 
-2.8845 0 -9.941501 0 -5.7865 0 
-2.8845 -9.941501 -9.941501 -5.7865 -5.7865 
-13.5604 -9.941501 -15.7858 -5.7865 
-13.5604 -15.7858 -15.7858 
-19.4047 -15.7858 
-2.8845 0 -12.16972 0 -8.1475 0 
-2.8845 -12.16972 -12.16972 -8.1475 -8.1475 
-15.78862 -12.16972 -20.31722 -8.1475 
-15.78862 -20.31722 -20.31722 
-23.93612 -20.31722 
-2.8845 0 -9.941501 0 -8.854 0 
-2.8845 -9.941501 -9.941501 -8.854 -8.854 
-13.5604 -9.941501 -18.8533 -8.854 
-13.5604 -18.8533 -18.8533 
-22.4722 -18.8533 
