-4.759 
n/a 
n/a 
n/a 
n/a 
-4.759 
n/a 
n/a 
n/a 
n/a 
-4.759 
n/a 
n/a 
n/a 
n/a 
-4.759 
n/a 
n/a 
n/a 
n/a 
-5.3885 -4.167 -3.5085 -3.4425 -2.186 -4.698 -10.8015 
-9.863501 -7.816 -6.09 -5.194 -7.884501 -13.5315 
-13.6877 -10.396 -7.524 -10.147 -17.0891 
-16.2677 -12.0682 -12.8094 -19.3516 
-17.9399 -17.3536 -22.014 
-3.4425 -1.7565 -5.3885 -2.7415 -12.16972 
-4.5535 -7.235001 -8.401501 -16.27702 
-9.309 -9.543 -22.06362 
-11.7434 -23.25912 
-25.45952 
-1.4985 -3.4425 -1.7565 -5.3885 -3.2875 -2.186 -4.698 -4.6595 -5.7335 
-4.4545 -4.5535 -7.235001 -7.8685 -5.4535 -7.884501 -8.487 -7.5965 
-5.141 -9.309 -8.797501 -9.6245 -11.6114 -11.9079 -10.4595 
-10.5425 -10.5435 -10.4185 -15.8376 -15.6348 -13.8804 
-11.777 -12.1645 -16.6316 -19.861 -17.6073 
-3.4425 -1.7565 -5.3885 -3.922 -6.5275 
-4.5535 -7.235001 -8.2815 -11.3243 
-9.309 -9.493501 -16.1022 
-11.6939 -17.4806 
-19.681 
