-4.759 
n/a 
n/a 
n/a 
n/a 
-4.759 
n/a 
n/a 
n/a 
n/a 
-4.759 
n/a 
n/a 
n/a 
n/a 
-4.759 
n/a 
n/a 
n/a 
n/a 
-7.946001 -9.633 -5.409 -1.7695 -4.168 -3.1385 -1.756 -5.452 -1.4985 -3.6115 -12.16972 -1.756 -4.3465 -1.4985 -4.0965 
-17.9652 -15.5128 -6.825 -7.2075 -8.247 -4.6325 -6.6605 -6.955 -4.081 -16.87562 -13.92572 -5.466001 -5.372001 -5.3165 
-23.845 -16.9288 -13.1558 -11.6661 -9.8205 -9.676001 -8.0065 -9.513 -17.73432 -18.63162 -17.63572 -6.53 -8.779501 
-25.261 -23.2596 -17.6144 -13.2396 -14.9148 -11.0962 -10.7495 -23.19112 -19.49032 -22.34162 -18.69972 -9.835501 
-31.5918 -27.7182 -19.1879 -18.3339 -16.335 -13.8392 -24.42762 -24.94712 -23.20032 -23.40562 -22.00522 
-2.9805 -4.5165 -3.091 -9.387 -1.756 -5.5235 -7.359 -8.164001 -1.7695 -4.4885 -11.0235 -3.741 -1.756 -3.2345 -3.595 -4.3965 -2.0935 -4.688 
-6.860001 -7.337 -10.7495 -10.674 -6.7255 -14.2689 -16.1518 -10.6605 -5.032 -16.494 -14.7645 -5.479 -4.5715 -5.6415 -7.83 -4.7705 -7.024 
-8.133 -15.5041 -12.0365 -15.6435 -15.9085 -23.0617 -18.6483 -13.923 -17.4411 -20.235 -16.5025 -9.128 -6.7475 -8.400001 -8.014 -9.307 
-16.3241 -16.7911 -17.006 -24.8265 -24.7013 -25.5582 -21.9108 -26.3321 -21.1821 -21.973 -20.1515 -11.479 -10.022 -8.5555 -12.8105 
-17.6111 -21.7606 -26.189 -33.6193 -27.1978 -28.8207 -34.3199 -30.0731 -22.9201 -25.622 -22.5025 -14.7535 -10.1355 -13.4664 
-2.4265 -2.186 -2.5195 -3.1495 -8.071501 -1.756 -4.9575 -2.5195 -1.4985 -4.8125 -1.7565 -1.4985 -4.9405 -4.2315 0 -2.3335 -2.7295 -4.9185 -1.4985 -3.9915 -1.7565 -3.3715 -4.6805 -1.756 -6.581 -1.756 -1.4985 -5.3255 -1.756 -8.443001 -7.412 -2.3345 -3.277 -1.4985 -4.106 -1.7565 -4.617 -3.1495 -3.9915 -1.7695 -2.664 -4.584 -4.397 -1.934 -2.9705 -1.4985 -3.6065 -4.9715 -1.7565 -5.4805 -2.7765 -2.489 -4.4495 -3.4045 -2.871 -3.571 -2.8645 -2.6165 -3.1125 -3.77 -1.7695 -3.1715 -1.7695 -1.4985 -6.771 
-3.292 -4.863 -5.0805 -9.923 -9.255501 -6.3025 -8.116001 -3.1695 -6.142 -6.218 -2.4195 -6.347501 -8.210501 -4.2315 -2.3335 -4.056 -6.3235 -6.198 -5.031 -5.0605 -4.845 -7.8275 -6.0645 -8.3535 -7.8735 -3.0405 -6.5585 -6.395 -9.399 -11.08 -7.872 -5.5635 -4.8285 -5.005 -5.439001 -5.824 -7.3585 -6.336 -5.7605 -4.185 -6.352 -9.295 -6.002501 -4.051 -4.186 -4.8665 -7.048 -5.667 -7.828001 -8.453 -3.495 -5.9125 -7.2665 -6.169001 -5.0305 -6.8245 -4.475 -4.595 -6.495 -4.2755 -4.257 -3.558 -2.7955 -7.702001 
-6.26 -7.716001 -10.674 -10.692 -10.7345 -8.960501 -8.705501 -7.8155 -6.9325 -6.8035 -7.016001 -8.284 -8.210501 -6.253 -4.056 -7.6555 -7.7355 -8.682001 -5.295001 -7.6385 -8.835001 -8.573001 -9.0585 -9.613501 -8.800501 -7.9315 -7.6505 -9.574501 -12.1444 -11.54 -10.13 -6.9745 -8.05 -5.6555 -8.151001 -8.295501 -10.6885 -7.921 -8.2225 -8.042001 -9.882501 -10.6475 -7.148001 -4.6815 -7.479501 -8.039001 -7.6775 -10.5425 -10.5135 -9.5915 -7.138 -8.2335 -9.697001 -7.625501 -8.123 -8.559 -4.915 -7.2375 -7.0665 -6.615 -5.2535 -5.472 -9.214001 
-7.8225 -10.733 -10.741 -10.761 -10.761 -9.5825 -10.733 -8.584001 -7.313001 -9.229 -9.092501 -8.284 -9.9805 -8.313001 -7.6555 -9.35 -10.3035 -8.943501 -7.724 -10.3675 -9.405001 -10.553 -10.1155 -10.306 -10.609 -9.2445 -10.1805 -12.3591 -12.6044 -13.798 -11.541 -10.134 -8.384501 -8.344501 -9.723001 -10.733 -10.727 -9.953 -10.7025 -10.6465 -10.6915 -10.74 -7.7875 -7.748001 -10.0925 -8.587501 -10.7325 -10.75 -10.6505 -10.7355 -9.198501 -10.213 -10.7045 -10.426 -9.641001 -9.136001 -7.3565 -8.003 -9.507501 -7.6245 -5.919001 -10.503 
-10.7325 -10.7595 -10.7825 -10.7875 -10.7875 -10.7355 -10.7595 -9.005501 -9.552001 -10.427 -9.092501 -10.1225 -10.722 -10.6735 -9.35 -10.7035 -10.3985 -10.733 -10.367 -10.633 -10.735 -10.7505 -10.403 -10.745 -10.753 -10.7335 -13.2223 -12.8191 -14.8624 -15.209 -14.7005 -10.474 -10.674 -10.322 -10.736 -10.7595 -10.7825 -10.7375 -10.758 -10.7545 -10.745 -10.7815 -10.586 -10.347 -10.6275 -10.733 -10.759 -10.7765 -10.771 -10.762 -10.6875 -10.741 -10.76 -10.673 -9.9825 -10.575 -8.1405 -10.66 -10.469 -8.445001 -10.609 
-3.9665 -1.7695 -9.759501 -9.633 -2.0935 -4.77 -1.7695 -3.6115 -10.144 -1.756 -3.264 -1.7695 -1.7695 -3.7905 -1.8085 -3.9725 
-5.6315 -10.907 -19.5323 -12.1973 -6.2245 -7.431001 -5.5385 -14.8499 -12.0592 -4.83 -4.908 -5.439 -4.482 -4.255 -5.728 
-15.4812 -20.6798 -22.0966 -16.3283 -9.425501 -11.5968 -17.1797 -16.7651 -15.1332 -6.368 -8.8395 -8.2535 -4.959 -8.0985 
-25.254 -23.2441 -26.2276 -19.5293 -13.6503 -23.238 -19.0949 -19.8391 -16.6712 -10.6595 -11.8608 -8.738 -8.416 
-27.8183 -27.3751 -29.4286 -23.7541 -25.2915 -25.1532 -22.1689 -21.3771 -20.9627 -13.6808 -12.3453 -12.3562 
