-4.759 
n/a 
n/a 
n/a 
n/a 
-4.759 
n/a 
n/a 
n/a 
n/a 
-4.759 
n/a 
n/a 
n/a 
n/a 
-4.759 
n/a 
n/a 
n/a 
n/a 
-3.7075 -2.5195 -3.1435 -4.763 -1.934 -2.5645 -4.277 -3.158 -2.742 -4.3195 -1.8085 -4.3125 -3.704 -3.757 0 
-6.690001 -4.948 -7.0995 -6.172 -5.1975 -5.3785 -7.0305 -5.765 -7.936501 -5.0655 -4.6875 -7.347 -6.422 -3.757 
-8.6715 -9.4785 -8.527 -9.7685 -8.503 -7.8715 -10.3475 -11.4917 -8.654 -7.366 -7.648001 -9.956 -6.422 
-13.5184 -10.8106 -12.2855 -13.2126 -11.3982 -11.6351 -16.176 -12.2092 -11.1067 -10.9935 -10.0885 -9.956 
-14.8505 -14.5691 -15.7296 -16.1078 -15.1618 -17.4636 -16.8935 -14.6619 -14.7342 -13.434 -10.0885 
-3.7075 -1.934 -3.1435 -4.853 -3.898 -2.742 -3.7905 -1.8085 -3.6135 -3.704 -3.757 -3.5445 -2.5645 -4.277 -3.277 0 
-6.0775 -4.335 -8.4785 -8.3745 -6.2945 -5.126 -4.255 -4.4545 -5.828 -6.422 -7.709001 -5.5085 -5.3785 -6.336 -3.277 
-7.9655 -9.85 -12.393 -11.0284 -8.698501 -5.951 -6.9225 -6.9935 -9.027 -10.1305 -9.657001 -10.3815 -7.126 -6.336 
-13.8675 -13.8321 -15.0469 -13.4324 -9.804501 -8.2465 -10.1635 -9.383 -12.9883 -12.2919 -14.8844 -12.129 -7.126 
-17.8496 -16.486 -17.4509 -14.5384 -12.1 -11.6139 -12.553 -13.4555 -15.1497 -17.5193 -16.6319 -12.129 
-3.7075 -2.356 -3.1435 -3.898 -3.5445 -2.5645 -3.748 -3.277 -3.0365 -2.742 -2.489 -1.934 -1.8085 -3.704 -3.684 -4.3305 0 
-6.5715 -4.6055 -6.2875 -6.849 -5.5085 -4.867 -5.8405 -5.79 -4.668 -3.301 -4.348 -3.2685 -5.2825 -6.358 -9.220501 -4.3305 
-8.192 -8.007 -9.1695 -9.848001 -9.4945 -7.3265 -8.420501 -7.157001 -4.759501 -5.1665 -5.4615 -6.567501 -7.707001 -12.4669 -9.220501 
-11.8173 -11.0474 -12.2571 -14.0908 -10.2875 -9.922501 -9.873501 -7.2305 -7.535501 -6.376 -8.9165 -8.782001 -14.0565 -12.4669 
-14.8577 -14.135 -16.4999 -14.8838 -13.0623 -11.3373 -9.951501 -10.2535 -9.035501 -9.740001 -11.3744 -15.4641 -14.0565 
-1.4985 -3.7075 -1.934 -3.1435 -3.898 -1.756 -1.934 -2.5645 -4.277 -3.277 -3.1425 -2.489 -4.164 -3.222 -1.8085 -3.383 -3.6135 -3.704 -3.757 0 
-4.6235 -6.0775 -4.335 -6.2875 -4.9375 -4.0205 -5.1975 -5.3785 -6.336 -6.469501 -3.7875 -5.190001 -6.4655 -4.144 -4.1695 -5.8785 -5.828 -6.422 -3.757 
-6.389501 -7.9655 -7.588 -7.1035 -7.3665 -7.568 -8.503 -7.126 -9.219001 -7.0505 -7.2145 -7.3035 -7.046 -6.593 -6.1985 -9.224001 -9.027 -6.422 
-8.096001 -11.6055 -8.351001 -9.509501 -11.1466 -11.1721 -8.993001 -10.122 -9.995501 -10.5745 -8.959001 -7.882 -9.378 -8.757 -9.4405 -12.6724 -9.027 
-11.8808 -12.3685 -10.142 -13.3788 -14.7507 -11.6621 -12.2128 -11.0841 -13.5195 -12.319 -9.420501 -10.574 -11.5996 -12.1436 -13.0271 -12.6724 
