-4.759 
n/a 
n/a 
n/a 
n/a 
-4.759 
n/a 
n/a 
n/a 
n/a 
-4.759 
n/a 
n/a 
n/a 
n/a 
-4.759 
n/a 
n/a 
n/a 
n/a 
-2.3615 -3.9605 -3.423 -1.7695 -3.383 -3.699 -1.7695 -4.737 -1.4985 -3.5025 0 
-6.4685 -4.7995 -5.017 -5.849 -5.014 -4.585 -5.0625 -6.029 -4.16 -3.5025 
-6.9215 -6.2425 -10.181 -8.049001 -5.7245 -7.6205 -6.3665 -8.924 -4.16 
-8.426001 -12.2623 -12.381 -9.4125 -8.792001 -8.616 -9.067 -8.924 
-14.7498 -14.4623 -13.7445 -12.7176 -9.896001 -11.4213 -9.067 
-1.4985 -3.9605 -3.423 0 -1.756 -1.4985 -4.238 -4.0325 -1.934 -2.664 -3.5025 -7.641001 -3.473 
-5.2295 -4.7995 -3.423 -1.756 -3.0405 -5.117001 -6.308001 -5.8335 -4.0475 -5.2245 -8.242001 -9.729501 
-5.6465 -4.7995 -4.8875 -3.0405 -6.988 -7.594001 -8.6675 -7.803501 -6.756001 -8.9375 -9.446501 
-5.6465 -6.045001 -6.1245 -6.988 -9.692 -9.5205 -10.389 -10.3955 -9.597 -9.4785 
-6.8025 -6.9795 -9.743 -9.692 -10.5545 -10.5335 -10.5655 -11.3925 -9.479 
-3.9605 -3.423 -2.186 -3.699 -1.7695 -3.5025 -2.0935 -4.6905 -4.0535 
-4.7995 -4.9605 -4.636 -4.585 -5.664001 -5.63 -5.9175 -9.255501 
-5.9995 -8.3335 -4.967 -8.9245 -8.0155 -9.334001 -10.9837 
-8.8315 -9.404 -9.626 -11.757 -11.9983 -14.723 
-10.8494 -14.3676 -12.6333 -15.7398 -17.3873 
-2.3615 -3.9605 -3.423 -2.186 -3.383 -4.3035 -1.7695 -4.0355 -1.7695 -1.4985 -3.16 -3.5495 0 
-6.4685 -4.7995 -4.9605 -4.438 -7.153 -5.2725 -4.562 -4.9985 -2.7955 -4.0625 -5.0605 -3.5495 
-6.9215 -5.9995 -8.381001 -7.5185 -7.8785 -8.988501 -5.42 -5.563 -5.483 -5.678 -5.0605 
-7.8345 -9.6 -11.8919 -8.064501 -11.8215 -9.906 -5.918 -7.476 -6.851501 -5.678 
-12.246 -13.1611 -12.4379 -12.0399 -12.739 -10.032 -7.831 -8.34 -6.851501 
