-4.759 
n/a 
n/a 
n/a 
n/a 
-4.759 
n/a 
n/a 
n/a 
n/a 
-4.759 
n/a 
n/a 
n/a 
n/a 
-4.759 
n/a 
n/a 
n/a 
n/a 
-4.1865 -4.3355 -4.1325 -3.952 -4.496 -1.756 -8.304001 -3.4815 -4.6175 -7.996 -1.934 -3.158 -1.756 -4.1385 -4.3355 -3.4815 -4.6175 -7.7305 -4.144 
-5.171 -10.093 -8.807 -6.8155 -5.422 -10.1725 -12.0165 -7.879 -13.7113 -10.195 -5.7375 -4.703 -5.779 -5.686 -9.140501 -7.879 -12.3435 -10.565 
-12.1879 -15.0147 -11.8717 -7.7655 -15.2839 -13.885 -16.414 -17.5216 -15.9103 -13.9985 -8.252501 -9.935 -7.7215 -10.4185 -13.772 -16.27 -16.0547 
-17.1096 -18.0794 -12.8217 -17.6418 -18.9964 -18.2825 -26.0566 -19.7206 -19.7138 -16.5135 -13.5923 -11.8775 -12.7566 -15.2642 -22.163 -19.865 
-20.1743 -19.0294 -22.698 -21.3543 -23.3939 -27.9251 -28.2556 -23.5241 -22.2288 -21.8533 -15.5348 -16.9126 -17.6023 -23.6552 -25.758 
-3.6135 -4.3355 -3.9035 -2.186 -4.339 -4.2735 -3.277 0 -2.3615 -10.9935 -3.355 -3.158 -3.7925 -4.653 -1.756 -12.16972 -4.3355 -3.355 -2.186 -3.158 -1.7565 -7.7305 -5.727 0 
-7.822001 -9.203501 -6.4815 -5.9745 -6.945001 -9.4895 -3.277 -2.3615 -14.6432 -14.3485 -6.834001 -7.273001 -7.910501 -6.2355 -14.93432 -16.50522 -8.143001 -5.3935 -7.056001 -4.71 -9.097501 -11.166 -4.537 
-13.1562 -12.2087 -10.354 -8.888 -13.1956 -9.4895 -5.49 -14.6432 -17.9982 -17.8275 -11.878 -11.7272 -10.0285 -20.14242 -19.26982 -20.31272 -10.5645 -10.6593 -8.292001 -12.7175 -13.4535 -10.833 
-16.1614 -16.0812 -13.2675 -15.2472 -13.1956 -11.7075 -18.1593 -17.9982 -21.4772 -22.8715 -16.3322 -13.8452 -24.02442 -24.47792 -23.07732 -22.73422 -15.8303 -11.8953 -16.9065 -18.1096 -14.6495 
-20.0339 -18.9947 -19.6267 -15.2472 -15.4136 -24.3768 -21.5143 -21.4772 -26.5212 -27.3257 -18.4502 -27.84112 -28.35992 -28.28542 -25.49882 -28.00002 -17.0663 -20.5098 -22.088 -18.1096 
-3.6135 -4.1115 -4.1325 -1.7565 -3.952 -1.4985 -3.9555 -1.756 -2.3615 -5.2635 -3.4815 -1.7695 -3.7925 -1.756 -7.7305 -6.314 -4.653 0 
-6.951 -9.599501 -5.706 -6.7935 -5.166 -5.385 -5.06 -4.4615 -9.9565 -10.964 -5.4715 -5.5725 -6.022 -9.4195 -13.308 -8.9835 -4.653 
-13.0716 -10.487 -10.609 -8.472 -9.5295 -6.4535 -8.0655 -12.4237 -15.1458 -12.954 -10.322 -7.5575 -12.7025 -16.6481 -16.2661 -8.9835 
-13.9591 -15.39 -12.2875 -12.9793 -10.6485 -10.1185 -16.2153 -17.613 -17.1358 -17.8045 -12.307 -14.9254 -19.9676 -19.3176 -16.2661 
-18.8621 -17.0685 -16.7948 -14.0983 -14.3135 -18.2683 -21.4046 -19.603 -21.9863 -19.7895 -19.6749 -21.6745 -22.6371 -19.3176 
-1.4985 -4.3355 -5.145 -2.4945 -5.6105 -4.906 -4.1655 0 -1.934 -2.3615 -1.4985 -7.399 -4.5515 -4.6175 -3.7925 -4.8565 -1.934 -1.8085 -3.158 -1.756 -1.4985 -4.1385 -4.3355 -4.5515 -4.6175 -7.7305 -5.381 -1.934 -1.8085 -3.158 0 
-5.199 -10.6507 -6.725 -7.6105 -9.5185 -7.674 -4.1655 -1.934 -3.539 -4.913 -8.5375 -12.5223 -8.84 -9.315001 -7.578501 -6.361 -3.2685 -4.406 -4.703 -3.0405 -5.0575 -5.686 -9.613001 -8.84 -12.3435 -12.724 -7.501 -3.2685 -4.406 -3.158 
-11.9914 -12.2307 -12.3596 -11.9995 -12.5393 -7.674 -5.77 -3.539 -6.6215 -12.1526 -13.8914 -16.8108 -13.7315 -13.1646 -8.923 -7.776 -5.7995 -5.5895 -5.8265 -5.92 -6.073501 -10.66 -14.2683 -16.8762 -18.6248 -15.1326 -9.0835 -5.7995 -4.406 
-13.5714 -17.8653 -16.7486 -15.0203 -12.5393 -9.779 -7.427 -6.6215 -14.0439 -17.5065 -18.1799 -21.7023 -17.5811 -14.5091 -10.3045 -10.1505 -6.9735 -7.005 -9.814001 -7.2005 -11.5219 -15.3153 -22.3045 -23.0413 -20.7448 -16.7151 -11.7331 -5.7995 
-19.206 -22.2543 -19.7694 -15.0203 -14.6443 -11.7908 -11.2071 -14.0439 -19.3978 -21.795 -23.0714 -25.5519 -18.9256 -15.8906 -13.1092 -11.3245 -8.278501 -11.1071 -11.2817 -12.9217 -16.1772 -23.3515 -28.4696 -25.1613 -22.3273 -19.3647 -11.7331 
