-4.759 
n/a 
n/a 
n/a 
n/a 
-4.759 
n/a 
n/a 
n/a 
n/a 
-4.759 
n/a 
n/a 
n/a 
n/a 
-4.759 
n/a 
n/a 
n/a 
n/a 
-2.3615 -2.186 -3.8535 -3.436 -2.4285 -3.2615 -1.4985 -3.8315 -2.4285 -1.7695 -6.6025 -1.4985 -5.409 0 
-3.5005 -4.972 -5.892 -5.5555 -5.036 -4.032 -5.577001 -6.147501 -4.3895 -7.442501 -8.215 -6.511001 -5.409 
-5.665 -7.3305 -7.752 -5.802 -5.819 -8.0745 -8.050501 -8.021001 -9.8015 -9.031 -9.8465 -6.511001 
-8.1495 -9.149 -8.151501 -6.259501 -10.1505 -10.228 -10.553 -13.8968 -11.4744 -10.7575 -9.8465 
-10.304 -9.22 -8.588 -10.458 -12.304 -13.0131 -16.4288 -15.5697 -13.2009 -10.7575 
-2.3615 -3.685 -2.186 -3.2955 -3.436 -2.4285 -3.2615 -4.361 -5.633 -1.7695 -5.5055 -5.532 0 
-4.9725 -5.5995 -4.348001 -6.332 -5.5555 -5.036 -7.3245 -6.104 -7.644501 -5.7815 -9.2375 -5.532 
-6.36 -8.432 -7.579 -8.0675 -5.802 -8.719 -8.005501 -8.1805 -10.7495 -9.420501 -9.2375 
-9.677 -11.7868 -9.595501 -8.344001 -9.935 -8.9685 -9.441501 -11.4317 -14.3885 -9.420501 
-13.0096 -13.8033 -9.7325 -12.618 -10.232 -10.7605 -12.9811 -15.0707 -14.3885 
-2.3615 -2.7765 -2.489 -2.664 -3.685 -3.858 -3.436 -2.4285 -3.2615 -4.361 -5.633 -2.4285 -2.664 -7.712 -1.7695 -4.2615 -1.4985 -4.142 -1.7565 -2.4265 0 
-4.876 -3.495 -4.563 -5.171 -7.507501 -6.427 -5.5555 -5.036 -7.3245 -6.104 -7.237 -4.6775 -8.627501 -7.9505 -4.7355 -5.128 -5.4315 -5.3145 -4.305 -2.4265 
-5.155 -5.7775 -7.17 -9.252001 -9.474501 -6.5535 -5.802 -8.719 -8.005501 -7.5525 -9.213501 -10.31 -8.76 -10.674 -5.475 -8.241 -5.589 -8.055 -4.305 
-7.0275 -8.518001 -11.9378 -11.3932 -9.5795 -6.6215 -9.935 -8.9685 -9.3085 -9.3295 -15.4062 -10.332 -11.5841 -11.4135 -8.755 -8.356501 -8.0905 -8.055 
-10.45 -13.6008 -14.079 -11.4982 -9.639501 -11.0927 -10.232 -10.412 -11.4125 -15.8426 -15.4282 -13.8351 -12.3236 -14.6935 -8.8975 -10.768 -8.0905 
-2.3615 -2.7765 -2.489 -3.8535 -3.436 -3.8315 -2.4285 -3.2615 -3.8315 -2.4285 -1.7695 -5.5055 -1.4985 -4.53 -3.5455 -4.361 -3.8465 0 
-4.876 -3.495 -4.6325 -5.892 -7.389501 -6.147501 -5.036 -6.7575 -6.147501 -4.3895 -5.7815 -6.276 -5.501 -7.3435 -7.0065 -6.073 -3.8465 
-5.155 -5.238501 -6.5405 -10.5975 -9.222501 -9.178501 -8.535501 -8.646 -8.021001 -8.446 -6.511 -9.6525 -8.7435 -11.1091 -7.676001 -6.073 
-5.9525 -7.832001 -11.6234 -12.4305 -10.5335 -10.223 -9.747001 -10.8733 -12.5413 -9.154 -9.882501 -13.0496 -12.6111 -11.7786 -7.676001 
-8.573501 -13.0517 -13.4564 -13.7415 -11.578 -11.4345 -12.2845 -15.3936 -13.2493 -12.7891 -13.2912 -16.9172 -13.2806 -11.7786 
