-4.759 
n/a 
n/a 
n/a 
n/a 
-4.759 
n/a 
n/a 
n/a 
n/a 
-4.759 
n/a 
n/a 
n/a 
n/a 
-4.759 
n/a 
n/a 
n/a 
n/a 
-2.872 -1.4985 -4.031 -2.0935 -3.091 -3.956 -2.7415 -2.6165 -3.7925 -4.629 -4.9405 
-4.035 -4.771 -4.8935 -4.5345 -5.4375 -6.064 -4.266 -4.5805 -7.3595 -8.655001 
-6.837 -5.3855 -6.9185 -7.3085 -6.8995 -7.2235 -6.502 -7.4085 -10.688 
-7.690001 -7.23 -8.783 -9.120501 -8.1265 -9.454 -9.314501 -10.7175 
-9.425501 -9.01 -9.8205 -10.6885 -10.5745 -10.6225 -12.7317 
-3.5725 -2.3335 -2.847 -2.645 -4.494 -2.915 -2.8645 -2.6165 -3.1125 -4.0925 0 
-6.5245 -4.8485 -4.6515 -7.97 -8.143001 -5.7285 -4.475 -4.595 -5.558001 -4.0925 
-9.256001 -6.6545 -9.6555 -11.7894 -11.4219 -6.9385 -4.915 -6.8525 -5.558001 
-11.2198 -12.1475 -13.7727 -15.0683 -12.6319 -7.022 -7.1255 -6.8525 
-16.7128 -16.2647 -17.0516 -16.2783 -12.7154 -9.096001 -7.1255 
-3.091 -4.0195 -1.7565 -3.956 -2.186 -2.6165 -4.5715 -6.4495 0 
-6.738501 -4.874001 -4.994 -5.8235 -3.5105 -6.769501 -9.477001 -6.4495 
-7.89 -5.779 -6.68 -6.9095 -7.804001 -12.3702 -9.477001 
-8.333 -7.2925 -7.875501 -11.7782 -13.6761 -12.3702 
-9.356501 -8.354 -12.9926 -17.6503 -13.6761 
-1.934 -3.333 -4.7365 -3.332 -3.956 -4.031 -3.013 -2.6165 -4.3215 
-3.9835 -8.674 -8.688001 -5.9655 -8.459001 -7.179 -3.724 -6.9325 
-10.304 -12.9565 -11.3831 -10.9135 -12.0488 -7.610001 -9.4426 
-14.8067 -15.6516 -16.3311 -14.5033 -12.4798 -13.5278 
-17.5018 -20.5996 -19.9209 -14.9343 -18.3976 
