-4.759 
n/a 
n/a 
n/a 
n/a 
-4.759 
n/a 
n/a 
n/a 
n/a 
-4.759 
n/a 
n/a 
n/a 
n/a 
-4.759 
n/a 
n/a 
n/a 
n/a 
-1.934 -4.602 -4.153 -4.628 -7.182 -9.9165 -3.452 -4.0445 -3.552 -3.5905 -9.785501 -3.594 0 
-6.816 -5.112 -8.689001 -8.9245 -17.7345 -13.4863 -7.633 -8.218 -7.554001 -13.413 -13.5015 -3.594 
-6.919001 -9.920501 -13.0877 -19.9094 -21.3043 -17.6673 -12.2133 -12.6338 -18.1119 -17.5877 -13.6533 
-12.3325 -14.1266 -24.0726 -23.4792 -25.4853 -22.2476 -16.6291 -23.1917 -22.0752 -17.5877 
-16.5386 -25.1115 -27.6424 -27.6602 -30.0656 -26.6634 -27.187 -27.155 -22.0752 
-4.628 -7.182 -9.9495 0 -2.9705 -2.7415 -4.0925 -1.934 -1.4985 -4.1805 -4.126 -1.7565 -1.4985 -4.602 -4.153 -2.186 -5.113 0 -4.013 -2.9905 -3.552 -3.594 -1.7565 -4.3075 -3.7865 -1.7565 -1.4985 -4.5735 -3.4795 0 
-8.9245 -17.7675 -9.9495 -2.9705 -4.512 -5.328 -5.2985 -2.6125 -4.733 -6.7475 -5.221001 -2.4195 -5.3995 -5.112 -6.3865 -7.297 -5.113 -4.013 -7.4785 -7.425501 -7.7185 -5.572 -5.902 -8.591501 -6.1105 -2.4195 -5.271 -7.4725 -3.4795 
-19.9424 -17.7675 -12.9532 -4.512 -6.5315 -5.962 -6.139 -5.9275 -6.934 -7.0595 -5.702001 -5.785501 -5.5865 -7.3925 -11.9083 -7.297 -10.523 -7.4785 -12.6099 -11.8468 -9.307 -9.5845 -10.543 -10.048 -6.798501 -5.830501 -8.041 -7.4725 
-19.9424 -20.7712 -14.4947 -6.5315 -6.9385 -6.973001 -9.5705 -7.5315 -7.169001 -7.594 -10.001 -5.842 -7.522 -13.0915 -11.9083 -13.0382 -13.9885 -12.6099 -17.0312 -13.4353 -13.8301 -14.5741 -11.9995 -11.3098 -8.874001 -9.111501 -8.041 
-22.9461 -22.3127 -16.5142 -6.9385 -8.0295 -10.6215 -11.2557 -7.793 -7.660501 -12.03 -10.177 -7.784501 -13.2204 -13.0915 -17.6495 -16.5037 -19.1199 -17.0312 -18.6197 -17.9584 -18.8197 -16.0306 -13.2613 -13.3853 -12.7324 -9.111501 
-1.934 -1.4985 -3.0835 -4.3755 -1.7565 -1.4985 -2.9965 -4.184 -4.153 0 -3.0365 -2.7415 -1.8085 -3.452 -3.849 -4.628 -7.182 -7.9655 -2.3335 -2.8645 -4.0445 -3.552 -3.594 -2.7455 -5.0235 0 
-2.6125 -3.535 -6.308001 -4.5345 -2.4195 -5.3455 -5.8575 -5.8855 -4.153 -3.0365 -4.2225 -3.891 -4.787 -6.285 -8.4825 -8.9245 -10.2755 -10.7464 -4.3785 -6.859 -8.218 -7.7185 -5.7965 -8.094501 -5.0235 
-4.5575 -6.6365 -6.542 -4.799 -6.121 -6.4255 -6.35 -5.8855 -6.654 -4.2225 -4.725 -7.094 -6.543 -10.634 -12.3914 -10.2865 -14.148 -12.7914 -8.993 -10.6215 -12.7983 -10.4425 -10.265 -8.094501 
-7.8475 -6.848001 -6.7895 -8.5485 -6.8035 -6.606 -6.35 -8.0665 -7.351001 -4.725 -7.777501 -8.537001 -10.9528 -14.5429 -13.7534 -14.3078 -16.193 -17.4059 -12.9223 -15.2018 -15.5223 -14.911 -10.265 
-8.024501 -6.9815 -11.0806 -10.019 -6.8595 -6.606 -8.509001 -8.6225 -7.699501 -7.777501 -9.049001 -12.998 -14.8617 -15.9049 -17.7747 -16.3528 -20.8075 -21.3352 -17.5026 -17.9258 -19.9908 -14.911 
-1.4985 -3.452 0 -4.628 -7.182 -9.9495 -2.9705 -4.0555 -3.222 -3.4625 -1.934 -1.4985 -5.1635 -3.355 -1.7565 -4.602 -4.153 -3.074 -5.6515 -2.7455 -3.552 -3.594 -2.264 -4.8675 0 
-4.4485 -3.452 -4.628 -8.9245 -17.7675 -12.9532 -5.965 -5.5095 -6.06 -5.1835 -2.6125 -5.413 -8.116501 -3.725 -6.552001 -5.112 -7.396001 -7.663 -9.394501 -6.7115 -7.7185 -5.3155 -7.934 -4.8675 
-4.4485 -8.772 -8.9245 -19.9424 -20.7712 -15.9477 -6.802001 -6.565 -7.1465 -5.7215 -6.806 -8.1555 -8.163 -8.71 -6.637001 -8.309501 -12.3108 -11.503 -13.5821 -11.572 -9.4595 -11.6819 -7.934 
-9.491 -12.8163 -19.9424 -22.9461 -23.7657 -16.7847 -8.037001 -7.359 -7.7335 -9.737 -8.735001 -8.1925 -13.487 -8.802501 -10.597 -13.3291 -16.1508 -15.6906 -18.4426 -13.313 -16.0899 -11.6819 
-13.4357 -23.8342 -22.9461 -25.9406 -24.6027 -18.0197 -8.502001 -7.9775 -12.1748 -12.1426 -8.7425 -13.5773 -13.5795 -12.8735 -15.6166 -17.1691 -20.3384 -20.5511 -20.1836 -19.9434 -16.0899 
