-4.759 
n/a 
n/a 
n/a 
n/a 
-4.759 
n/a 
n/a 
n/a 
n/a 
-4.759 
n/a 
n/a 
n/a 
n/a 
-4.759 
n/a 
n/a 
n/a 
n/a 
-3.506 -2.7035 0 -4.042 -6.9415 0 -4.628 -4.743 -3.801 -5.6515 
-5.5 -2.7035 -4.042 -11.8849 -6.9415 -4.628 -4.7515 -9.1365 -7.1975 
-5.5 -7.0325 -11.8849 -11.8849 -10.733 -4.7515 -9.1645 -12.824 
-9.687 -15.1014 -11.8849 -15.6764 -10.8565 -9.1645 -12.8756 
-17.9457 -15.1014 -15.6764 -15.7999 -15.2695 -12.8756 
-3.506 -2.7035 -4.042 -10.0725 0 -4.628 -5.939 -3.801 -5.6515 0 -3.0015 0 
-5.5 -7.0325 -15.0159 -10.0725 -4.628 -5.9615 -9.120501 -7.1975 -5.6515 -3.0015 -3.0015 
-9.687 -18.2324 -15.0159 -14.8793 -5.9615 -9.1365 -12.9772 -7.1975 -9.774 -3.0015 
-21.0767 -18.2324 -19.8227 -16.2128 -9.1365 -13.004 -12.9772 -11.7094 -9.774 
-21.0767 -23.0392 -21.1562 -19.3878 -13.004 -13.004 -17.4891 -11.7094 
-8.1435 -4.042 -6.9415 0 -3.324 -6.1525 -6.899 -3.801 
-12.7385 -11.8849 -6.9415 -3.324 -9.6735 -13.7533 -10.7335 
-20.5814 -11.8849 -10.766 -9.6735 -17.4621 -17.5878 
-20.5814 -15.7094 -17.1155 -17.4621 -21.2966 
-24.4059 -22.0589 -24.9041 -21.2966 
-3.506 -2.7035 -8.1105 -12.16972 0 -6.6585 -3.801 -6.4675 0 -3.0015 0 
-5.5 -11.1415 -20.61302 -12.16972 -6.6585 -10.7495 -11.4197 -6.4675 -3.0015 -3.0015 
-14.9438 -23.64402 -20.61302 -18.82822 -10.7495 -18.3682 -11.4197 -9.24 -3.0015 
-27.44632 -23.64402 -27.27152 -22.91922 -18.3682 -18.3682 -14.1922 -9.24 
-27.44632 -30.30252 -31.36252 -30.53792 -18.3682 -21.1407 -14.1922 
