-4.759 
n/a 
n/a 
n/a 
n/a 
-4.759 
n/a 
n/a 
n/a 
n/a 
-4.759 
n/a 
n/a 
n/a 
n/a 
-4.759 
n/a 
n/a 
n/a 
n/a 
-4.426 -1.7565 -1.4985 -3.0835 -4.7285 -4.1555 -6.5325 -3.321 -5.468 -1.7565 -2.664 -4.0395 -1.7695 -4.4225 -3.704 -6.298 -2.264 -4.4925 -3.193 -1.934 -4.5795 -1.7565 -3.45 -3.0695 -4.424 -4.3915 -1.4985 -4.1265 -3.5455 -3.8275 
-5.47 -2.4195 -3.535 -6.042 -8.4455 -8.731501 -8.752001 -8.513 -6.634501 -3.9595 -5.153 -5.285 -5.08 -6.896501 -7.806001 -8.104 -6.816 -5.587 -4.837 -5.477 -5.4175 -4.322 -4.273 -5.528 -8.085001 -5.311 -4.572001 -7.277 -7.0575 
-5.9535 -4.6785 -6.335501 -9.523001 -13.331 -12.381 -12.546 -9.465501 -8.574501 -6.524 -6.5885 -7.978001 -7.716001 -9.696001 -9.1735 -9.734 -6.954 -7.6105 -7.699 -5.511 -7.710501 -5.289 -6.7515 -8.505501 -9.1145 -7.6395 -7.523001 -9.6155 
-8.021 -7.476501 -10.0095 -14.493 -16.2001 -16.1682 -13.3021 -10.1825 -9.504001 -7.9025 -9.986 -10.0505 -9.898001 -9.874001 -9.8745 -9.763 -8.598001 -9.332001 -7.7105 -7.7635 -8.007001 -7.167 -9.1805 -9.370501 -9.911 -9.972 -9.8985 
-9.983001 -11.3061 -15.0895 -17.3621 -19.9397 -16.8007 -13.3226 -10.2735 -9.877501 -10.228 -10.2325 -10.152 -9.9615 -9.9645 -9.878 -10.124 -9.940001 -9.3465 -9.3985 -8.0565 -8.808001 -9.5235 -9.908 -10.0135 -10.155 -10.155 
-2.4265 -2.186 -4.4155 -2.3335 -5.815 -2.7415 -3.7855 -2.3345 -9.6145 -5.7415 0 -7.1415 -2.3345 -12.16972 -1.756 -6.0755 -2.3345 -8.384501 -6.2685 0 
-3.292 -6.0275 -4.943 -8.376 -8.436 -5.209001 -5.0075 -12.2796 -15.5154 -5.7415 -7.1415 -10.66 -14.83482 -13.92572 -7.635 -9.382501 -10.061 -11.117 -6.2685 
-6.4815 -6.572001 -11.4275 -9.703501 -11.0115 -6.337501 -15.5962 -18.1805 -15.5154 -11.08 -10.66 -23.16032 -16.59082 -19.80472 -10.4505 -17.1206 -12.7935 -11.117 
-6.5765 -13.2329 -12.755 -12.3106 -12.14 -17.1278 -21.4971 -18.1805 -20.8539 -14.5985 -23.16032 -24.91632 -22.46982 -22.62022 -18.1886 -19.8531 -12.7935 
-13.2396 -14.5604 -15.3621 -13.4391 -22.9303 -23.0287 -21.4971 -23.519 -24.3724 -27.09882 -24.91632 -30.79532 -25.28532 -30.35832 -20.9211 -19.8531 
-5.815 -5.7415 0 -4.3955 0 -3.8315 -3.4005 -1.7695 -3.776 0 
-10.703 -5.7415 -4.3955 -4.3955 -3.8315 -5.887 -5.559 -5.4185 -3.776 
-10.703 -10.2645 -4.3955 -8.835501 -5.887 -7.849501 -9.2675 -5.4185 
-15.226 -10.2645 -8.835501 -11.0362 -7.849501 -12.005 -9.2675 
-15.226 -14.7045 -11.0362 -12.9987 -12.005 -12.005 
-2.4265 -4.603 -8.425 -5.9035 -2.3345 -9.6145 -5.7415 0 -8.524501 -2.3345 -12.16972 -1.756 -8.728001 -2.3345 -10.052 0 
-7.5935 -13.7986 -14.5861 -7.08 -12.2796 -15.5154 -5.7415 -8.524501 -10.9986 -14.83482 -13.92572 -10.821 -9.973001 -12.7171 -10.052 
-16.9393 -19.9597 -15.7626 -17.7121 -18.1805 -15.5154 -14.9804 -10.9986 -23.49892 -16.59082 -22.99072 -12.066 -22.3206 -12.7171 
-23.1004 -21.1362 -26.3947 -23.613 -18.1805 -24.7543 -17.4545 -23.49892 -25.25492 -25.65582 -24.23572 -24.4136 -22.3206 
-24.2769 -31.7683 -32.2956 -23.613 -27.4194 -27.2284 -29.95482 -25.25492 -34.31992 -26.90082 -36.58332 -24.4136 
