-4.759 
n/a 
n/a 
n/a 
n/a 
-4.759 
n/a 
n/a 
n/a 
n/a 
-4.759 
n/a 
n/a 
n/a 
n/a 
-4.759 
n/a 
n/a 
n/a 
n/a 
-4.621 0 -10.914 0 -5.943501 0 
-4.621 -10.914 -10.914 -5.943501 -5.943501 
-15.969 -10.914 -16.8575 -5.943501 
-15.969 -16.8575 -16.8575 
-21.9125 -16.8575 
-4.621 -12.16972 0 -5.943501 0 
-17.22472 -12.16972 -5.943501 -5.943501 
-17.22472 -18.11322 -5.943501 
-23.16822 -18.11322 
-23.16822 
-4.621 -9.6405 0 -5.9045 0 
-14.6955 -9.6405 -5.9045 -5.9045 
-14.6955 -15.8446 -5.9045 
-20.8996 -15.8446 
-20.8996 
-11.8125 -7.129 0 -5.943501 0 
-20.5149 -7.129 -5.943501 -5.943501 
-20.5149 -9.432 -5.943501 
-22.8179 -9.432 
-22.8179 
