-4.759 
n/a 
n/a 
n/a 
n/a 
-4.759 
n/a 
n/a 
n/a 
n/a 
-4.759 
n/a 
n/a 
n/a 
n/a 
-4.759 
n/a 
n/a 
n/a 
n/a 
-4.4155 -3.1385 -1.7695 -4.319 -3.5155 -1.934 -1.4985 -3.873 -1.756 -1.934 -1.4985 -4.1115 -3.4715 0 
-8.1745 -4.6115 -4.9595 -7.6145 -5.1185 -2.6125 -4.7405 -5.114 -4.0205 -2.6125 -4.843 -6.271 -3.4715 
-9.797501 -7.5605 -8.137501 -9.215 -5.714 -5.722 -5.849 -7.046 -4.6845 -6.0655 -7.386001 -6.271 
-12.7465 -11.2143 -9.647 -9.936001 -8.774 -7.044001 -7.768001 -7.4285 -7.774 -8.3655 -7.386001 
-16.4003 -12.7238 -10.4605 -13.0658 -9.856 -8.899 -8.055 -8.295 -10.2535 -8.3655 
-4.667 -3.3755 -7.72 -4.319 -3.5155 -1.934 -4.1115 -1.756 -3.873 
-9.7215 -11.6335 -10.8905 -7.6145 -5.1185 -6.27 -5.537 -5.383 
-18.2401 -14.5528 -12.974 -9.215 -9.5815 -8.109501 -7.129001 
-20.9686 -17.6681 -13.6998 -13.7916 -9.907001 -9.181001 
-24.0839 -18.2721 -19.0516 -14.1171 -10.6025 
-1.4985 -3.2495 -4.1965 0 -1.4985 -4.485 -2.0935 -3.8275 -1.7695 -4.1115 -1.756 -3.873 0 
-4.1915 -6.0405 -4.1965 -1.4985 -6.112 -6.2325 -5.919001 -5.9455 -5.9195 -5.537 -5.383 -3.873 
-6.555 -6.0405 -6.052001 -6.112 -7.7275 -10.4572 -8.086 -10.4945 -7.106 -7.129001 -5.383 
-6.555 -7.676 -9.956 -7.7275 -12.2422 -12.6242 -12.8468 -11.681 -9.305 -7.129001 
-8.238001 -11.7884 -11.6423 -12.2422 -14.4092 -17.385 -14.0333 -13.88 -9.305 
-9.807501 -3.515 -3.515 -4.319 -3.5155 -3.873 -1.756 -4.1115 
-13.8429 -6.285 -7.660501 -7.6145 -7.151 -5.114 -5.7375 
-16.6129 -10.8987 -11.568 -11.6216 -7.347 -6.448 
-21.2266 -14.8062 -15.5751 -11.8176 -7.877 
-25.1341 -18.8133 -15.7711 -12.3476 
