-4.759 
n/a 
n/a 
n/a 
n/a 
-4.759 
n/a 
n/a 
n/a 
n/a 
-4.759 
n/a 
n/a 
n/a 
n/a 
-4.759 
n/a 
n/a 
n/a 
n/a 
-2.9905 -1.7565 -4.588 -7.951 0 -4.588 -3.499 -2.8645 -3.1125 -3.917 
-3.6185 -6.667 -12.9438 -7.951 -4.588 -7.9335 -6.7545 -3.5345 -5.639 
-8.166 -15.3608 -12.9438 -13.0542 -7.9335 -11.3466 -7.3865 -5.922 
-17.3006 -15.3608 -18.047 -16.3997 -11.3466 -11.9786 -9.835501 
-17.3006 -20.464 -21.3925 -19.8128 -11.9786 -14.4276 
-1.4985 -5.3885 -3.922 -2.8645 -3.917 -4.588 -5.715 -1.756 -4.588 -3.499 0 
-7.283501 -8.2815 -6.1245 -6.1455 -8.587 -10.001 -6.8635 -7.147 -7.9335 -3.499 
-8.824 -9.592501 -8.507 -11.0949 -14.3262 -10.58 -12.7733 -10.4185 -7.9335 
-9.7845 -12.1078 -13.5506 -16.8341 -14.9052 -16.4898 -16.0448 -10.4185 
-12.3188 -17.1514 -19.2898 -17.4131 -20.815 -19.7613 -16.0448 
-4.8215 -4.588 -12.16972 -4.588 -5.715 -1.7565 -1.4985 -3.2875 -3.152 -4.645 0 
-10.8215 -17.16252 -16.75772 -10.001 -6.897 -2.4195 -4.127 -6.6555 -6.427 -4.645 
-23.39602 -21.75052 -22.17072 -11.2838 -7.176 -4.8825 -7.0585 -10.071 -6.427 
-27.98402 -27.16352 -23.45352 -11.5628 -8.248 -7.52 -10.6036 -10.071 
-33.39702 -28.44632 -23.73252 -12.6348 -10.4675 -11.1695 -10.6036 
-4.8215 -3.595 -4.588 -5.633 -2.742 -2.489 -5.032 -2.0935 -4.588 -4.688 
-7.66 -9.024 -10.8415 -8.3865 -3.301 -8.527 -7.2 -7.475 -9.557501 
-13.3088 -15.4947 -13.595 -8.7425 -9.658001 -10.647 -13.1279 -12.8205 
-19.7795 -18.2482 -13.951 -15.5127 -11.8164 -16.5749 -18.4734 
-22.533 -18.6042 -20.7212 -17.6711 -17.7443 -21.9204 
