-4.759 
n/a 
n/a 
n/a 
n/a 
-4.759 
n/a 
n/a 
n/a 
n/a 
-4.759 
n/a 
n/a 
n/a 
n/a 
-4.759 
n/a 
n/a 
n/a 
n/a 
-3.995 -2.186 -6.2275 -2.5045 -3.8905 -4.1065 -2.5045 -7.298 -1.756 -3.1385 -3.9535 -6.339 
-5.7465 -7.337501 -7.380001 -6.0905 -7.7815 -5.875 -10.186 -8.7335 -5.0125 -6.5115 -8.756001 
-10.13 -8.2325 -8.6225 -10.1995 -9.1555 -14.0591 -11.6215 -12.418 -7.6635 -10.01 
-11.213 -9.552501 -12.8521 -11.5735 -17.396 -15.4946 -15.306 -15.069 -11.4334 
-12.533 -13.7843 -14.2261 -19.814 -18.8315 -19.1791 -17.957 -18.8389 
-2.925 -4.7615 -1.4985 -3.995 -2.5045 -3.8905 0 -2.3335 -3.6245 -1.8085 -4.1285 -5.303 0 
-7.133 -6.251501 -4.712 -6.1995 -6.0905 -3.8905 -2.3335 -5.5785 -6.159 -5.5155 -8.572001 -5.303 
-7.949501 -8.9595 -6.650001 -8.5845 -6.0905 -5.8265 -5.5785 -7.863501 -9.604 -9.097 -8.572001 
-10.155 -9.956 -8.944 -8.5845 -8.7845 -9.583 -7.863501 -11.4715 -13.2637 -9.097 
-11.1937 -12.322 -8.944 -11.5635 -12.7336 -12.0998 -11.4715 -15.1312 -13.2637 
-5.1845 -4.1785 0 -4.569 -3.2955 -1.7695 -3.8095 -1.4985 -5.1845 -3.6885 
-8.34 -4.1785 -4.569 -6.441 -3.9425 -4.549 -5.2515 -6.5205 -7.323501 
-8.34 -9.387501 -6.441 -7.053 -6.653 -5.863 -10.298 -8.096001 
-13.8592 -10.6895 -7.053 -9.832001 -7.495501 -10.3535 -10.4205 
-15.1612 -11.3015 -9.832001 -10.284 -10.476 -10.453 
-1.4985 -6.5395 -1.7565 -5.637 -3.871 -2.5045 -5.8665 -4.8925 -4.6205 -8.5905 -5.9215 -1.4985 -4.39 -1.7565 -3.1495 -4.2645 -5.1765 -6.461 -1.4985 -5.501 -5.465 -3.251 -3.222 -1.4985 -5.637 
-7.4445 -7.679501 -7.241001 -8.262 -6.3135 -8.6435 -8.5695 -9.193501 -12.483 -10.087 -7.465 -5.256001 -4.681 -3.914 -6.0515 -8.829 -9.539501 -7.666 -6.679501 -7.145501 -8.9445 -5.039001 -3.7835 -6.3745 
-8.33 -9.6875 -9.047001 -9.9335 -10.7495 -9.4875 -10.7575 -11.685 -11.272 -8.949 -10.2985 -5.366 -6.2425 -6.713 -10.223 -10.575 -10.033 -10.688 -7.849501 -10.287 -9.825 -5.3545 -7.9745 
-10.13 -10.166 -10.4345 -10.7545 -10.785 -10.7585 -10.7965 -10.8485 -12.19 -10.641 -10.314 -6.797 -8.725 -10.532 -10.583 -10.5935 -10.695 -10.7815 -10.6875 -10.4775 -9.996 -8.993501 
-10.5925 -10.759 -10.763 -10.7905 -10.805 -10.7985 -10.819 -10.835 -12.4595 -10.605 -10.4625 -9.3855 -10.575 -10.591 -10.6015 -10.725 -10.789 -10.8035 -10.7815 -10.547 -10.3245 
