-4.759 
n/a 
n/a 
n/a 
n/a 
-4.759 
n/a 
n/a 
n/a 
n/a 
-4.759 
n/a 
n/a 
n/a 
n/a 
-4.759 
n/a 
n/a 
n/a 
n/a 
-3.834 -3.3635 0 -1.8085 -3.5085 -1.7565 -4.122 -3.711 -5.6495 -2.9905 -1.7695 -1.4985 -3.7345 -1.756 -4.351 -4.541 -3.074 0 -3.325 -1.4985 -5.137 -4.397 0 -4.8655 -3.1385 -4.957 -2.264 -1.4985 -4.1455 -1.7565 -1.4985 -4.4515 -1.934 -3.3785 0 -3.711 -3.0695 -2.7765 -3.511 -1.934 -1.4985 -3.7345 -2.4945 -3.45 -3.0695 -2.4945 -3.8245 -1.934 -1.4985 -3.38 -3.7345 -4.8015 0 
-6.7825 -3.3635 -1.8085 -4.6755 -4.8005 -5.9805 -7.586 -8.741501 -8.196501 -4.444 -2.7955 -4.9965 -5.0665 -5.659 -7.962 -8.2845 -3.074 -3.325 -3.898 -6.087501 -10.3225 -4.397 -4.8655 -7.303 -7.363 -6.4495 -2.9195 -4.870501 -5.11 -2.4195 -5.0235 -6.223001 -4.5895 -3.3785 -3.711 -5.3125 -4.7695 -5.7745 -4.582 -2.6125 -4.9965 -6.47 -5.1125 -4.273 -4.2085 -5.751 -4.7245 -2.6125 -4.4895 -5.935 -8.774501 -4.8015 
-6.7825 -5.679501 -4.6755 -4.927 -7.532001 -8.774 -12.8901 -11.4437 -8.734 -5.374001 -6.4545 -6.4705 -9.195 -9.6675 -12.5531 -8.2845 -6.4185 -3.898 -9.250501 -10.5425 -10.3225 -9.5905 -7.303 -11.9153 -8.8985 -7.1025 -5.568 -5.3985 -5.3235 -5.680501 -6.6215 -9.458 -4.5895 -7.493 -5.3125 -7.316 -7.6285 -6.7205 -5.3785 -5.795 -7.907001 -9.039001 -5.9735 -5.167 -6.681 -6.158 -5.4215 -5.736 -6.1455 -12.9182 -8.774501 
-9.002501 -7.585001 -4.927 -7.5785 -10.503 -14.0905 -15.5923 -11.9812 -9.3585 -9.317 -7.968 -10.3535 -13.2133 -14.457 -12.5531 -11.9534 -7.0885 -9.250501 -13.9011 -10.5425 -15.516 -12.1208 -11.9153 -13.4508 -9.269 -8.988001 -5.951 -5.6005 -7.2615 -7.2995 -9.786 -9.458 -8.0965 -9.495501 -7.316 -10.003 -8.387 -7.512001 -8.692 -8.346001 -10.717 -10.168 -6.848001 -7.6545 -7.1675 -6.855 -9.134501 -7.965 -14.1325 -12.9182 
-10.173 -7.614501 -7.5785 -10.542 -15.8195 -16.7927 -16.1298 -12.6057 -13.3187 -10.61 -11.9738 -14.3718 -18.0028 -14.457 -16.222 -12.6234 -12.649 -13.9011 -13.9011 -15.736 -18.0463 -16.7331 -13.4508 -13.8213 -11.2593 -9.049001 -6.194 -7.2975 -8.750501 -10.4755 -9.786 -13.0456 -9.5395 -11.6014 -10.003 -10.722 -8.812501 -10.275 -11.536 -11.289 -11.846 -11.0425 -9.4375 -8.2325 -7.8525 -10.9204 -9.59 -15.5644 -14.1325 
-4.732 -3.3635 0 -4.122 -4.269 -3.152 -5.2635 -1.7695 -3.7345 -1.756 -3.5865 -1.7695 -3.995 -1.756 -3.074 -2.846 -4.269 -3.152 -4.957 -2.264 -4.4515 -3.325 -5.137 -3.4105 -4.7935 -1.4985 -4.269 -3.0695 -3.152 -1.934 -3.7345 -2.4945 -3.511 -1.934 -3.7345 -4.0465 0 
-8.132 -3.3635 -4.122 -7.6835 -6.461 -8.7205 -5.826 -5.992001 -5.0665 -5.1945 -4.1825 -5.497 -5.3025 -4.566 -7.189 -7.2075 -6.461 -8.209001 -6.4495 -6.9945 -7.559 -8.847 -7.5115 -8.6115 -6.863501 -5.71 -5.369 -4.8015 -4.9115 -5.3795 -6.47 -6.6135 -4.582 -5.3795 -5.636 -4.0465 
-8.132 -7.833 -7.6835 -9.1085 -12.5875 -9.9835 -9.3585 -7.250501 -8.4935 -5.8615 -6.863 -6.5715 -8.0455 -8.841001 -11.8171 -8.921 -12.076 -9.653001 -9.606501 -10.5904 -13.6328 -11.5061 -13.3175 -11.3027 -11.3506 -6.581 -6.7845 -6.3035 -8.5345 -7.7315 -10.8498 -7.8875 -8.1565 -8.4705 -5.636 
-12.9053 -11.6869 -9.1085 -15.3228 -13.8505 -13.516 -10.1435 -9.858001 -9.1645 -8.183001 -8.14 -9.368001 -12.6183 -13.5463 -13.5306 -14.8028 -13.52 -12.7344 -13.3384 -16.6642 -16.2919 -17.3121 -16.0087 -15.7898 -12.2216 -7.7675 -8.263 -10.3815 -11.1705 -12.2943 -12.1238 -11.7238 -10.634 -8.4705 
-16.7592 -13.1119 -15.3228 -16.5858 -17.383 -14.301 -12.85 -10.3375 -9.679 -9.932 -11.1891 -13.992 -17.3236 -15.2598 -19.4124 -16.2468 -16.6014 -16.4663 -19.4122 -19.3233 -22.0979 -20.0033 -20.4958 -16.6608 -13.4081 -9.192 -12.591 -13.0175 -15.7333 -13.5683 -15.9601 -14.2013 -10.634 
-2.3345 -3.3635 0 -4.5925 -4.122 -3.1385 -2.674 -4.368 -1.7695 -1.4985 -3.7345 -1.756 -4.518 -3.251 -3.995 -1.756 -1.934 -2.3615 -3.3255 -1.4985 -5.137 -3.6205 0 -4.8655 -3.1385 -2.674 -4.957 -2.264 -1.4985 -4.4515 -4.251 0 -3.45 -3.0695 -3.511 -1.934 -3.7345 -2.4945 -1.4985 -3.1385 -3.0695 -3.511 -1.934 -1.4985 -3.7345 -4.437 0 
-6.6215 -3.3635 -4.5925 -9.717001 -6.502501 -4.8995 -5.2625 -5.5235 -2.7955 -4.9965 -5.0665 -6.254 -7.4735 -8.4145 -5.3025 -4.0205 -3.539 -6.154 -3.8945 -6.087501 -9.444 -3.6205 -4.8655 -7.303 -4.8995 -6.559 -6.4495 -2.9195 -5.0235 -9.3435 -4.251 -3.45 -4.273 -5.514501 -4.582 -5.3795 -6.47 -3.9315 -4.2575 -4.286 -5.514501 -4.582 -2.6125 -4.9965 -6.9135 -4.437 
-6.6215 -8.5625 -9.717001 -12.1931 -8.055 -7.326 -6.1245 -6.206 -6.4545 -6.4705 -9.484501 -8.682 -13.309 -9.84 -7.1485 -5.759501 -8.533001 -6.9025 -8.956501 -10.064 -9.444 -8.623 -7.303 -8.691 -8.319 -7.9785 -7.1025 -5.8805 -9.6745 -9.3435 -7.268001 -4.273 -6.356 -5.868001 -8.1565 -7.7315 -7.8875 -6.105 -5.1225 -6.087 -5.868001 -5.3785 -5.795 -8.5395 -6.9135 
-12.1807 -14.0722 -12.1931 -13.7456 -10.304 -7.959001 -6.8295 -10.1345 -7.968 -11.2557 -12.4519 -14.6433 -14.7345 -11.686 -8.898001 -10.7595 -9.184001 -12.1813 -13.1066 -10.064 -14.5685 -11.4957 -8.691 -10.3675 -9.259501 -8.335 -7.566 -10.6465 -9.6745 -12.4185 -8.101001 -6.356 -6.7655 -10.022 -10.7997 -9.2205 -10.396 -6.5465 -6.6265 -6.4185 -6.4515 -8.692 -10.0375 -8.5395 
-17.6904 -16.5483 -13.7456 -15.9946 -10.743 -8.759501 -10.7456 -11.765 -12.876 -14.2231 -18.4132 -16.0688 -16.5805 -13.4355 -13.965 -11.4105 -14.5338 -16.3314 -13.1066 -15.1885 -17.4412 -12.8837 -10.3675 -10.43 -9.3725 -8.489 -12.722 -10.6465 -12.7495 -13.2515 -10.3745 -6.7655 -10.749 -12.6652 -12.2887 -11.8462 -10.772 -8.5085 -7.0385 -7.019001 -9.994501 -13.2275 -10.0375 
-4.732 -8.6595 -3.158 -3.5085 -4.122 -8.352 -4.101 -4.0435 -1.4985 -4.5285 -1.756 -4.518 -1.4985 -3.995 0 -3.321 -1.934 -2.3615 -8.545 -3.2 -2.846 -3.1385 -4.101 -1.7695 -4.4515 -3.17 -4.094 -2.925 -2.7765 -3.511 -1.934 -1.4985 -3.7345 -1.4985 -3.1385 -3.0695 -4.1555 -1.7695 -4.3645 0 
-14.2651 -10.451 -6.1945 -7.607 -13.1236 -12.835 -6.797 -4.6045 -4.936 -5.889 -6.254 -5.2805 -4.712 -3.995 -3.321 -5.4075 -3.539 -12.1947 -12.164 -6.566 -6.190001 -6.7025 -4.6905 -7.121 -8.036 -6.1665 -7.153501 -4.3215 -5.7745 -4.582 -2.6125 -4.9965 -5.5285 -4.2575 -4.286 -6.213 -4.988501 -6.626 -4.3645 
-16.0566 -13.4875 -10.411 -16.866 -17.6066 -15.531 -7.789001 -8.199501 -6.0385 -11.3648 -6.918 -8.51 -4.712 -7.0885 -5.4075 -7.415501 -14.0772 -15.8137 -15.53 -10.2535 -9.726001 -7.219501 -9.185 -10.3095 -10.688 -8.290001 -8.9615 -6.924001 -6.7205 -5.3785 -5.795 -6.982 -8.6385 -5.1225 -8.758501 -6.808001 -9.943501 -6.626 
-19.0931 -17.704 -19.67 -21.349 -20.3026 -16.523 -11.562 -9.245001 -11.8133 -12.0288 -9.6945 -8.51 -7.48 -8.972 -7.415501 -18.1243 -17.6962 -19.1797 -19.2175 -13.7895 -10.034 -11.9634 -12.5217 -13.2961 -12.8115 -10.66 -11.7604 -7.804501 -7.512001 -8.692 -7.849501 -9.549001 -9.1625 -9.6105 -9.257001 -12.2162 -9.943501 
-23.3096 -26.963 -24.153 -24.045 -21.2946 -20.296 -12.6075 -15.1176 -12.4773 -14.8053 -9.6945 -11.5834 -9.436501 -11.166 -18.1243 -21.7433 -21.0622 -22.8672 -22.7535 -14.0975 -15.0289 -15.3001 -15.5083 -15.4196 -15.1815 -13.4589 -12.6409 -8.616501 -10.275 -10.533 -10.5141 -10.271 -14.1255 -10.1355 -14.842 -12.2162 
