-4.759 
n/a 
n/a 
n/a 
n/a 
-4.759 
n/a 
n/a 
n/a 
n/a 
-4.759 
n/a 
n/a 
n/a 
n/a 
-4.759 
n/a 
n/a 
n/a 
n/a 
-2.3085 -2.8635 -4.4525 -7.5605 -2.5045 -2.857 -4.2245 -3.2615 -6.797 -8.2875 0 
-3.5415 -6.309 -13.108 -10.5755 -5.232 -5.2205 -7.113 -10.27 -10.5135 -8.2875 
-6.312 -15.2711 -16.123 -13.303 -7.3155 -8.139 -14.5715 -14.1477 -10.5135 
-15.2763 -18.2861 -18.8505 -15.3865 -10.76 -15.7999 -18.4492 -14.1477 
-18.2913 -21.0136 -20.934 -18.831 -18.4209 -19.6776 -18.4492 
-3.2615 -9.736501 -2.3085 -10.014 -1.7695 -4.2815 -2.857 -4.2245 -1.934 -7.5605 0 
-14.1116 -12.0848 -12.7927 -12.3461 -7.9045 -7.8455 -5.2205 -5.8735 -9.637501 -7.5605 
-16.4599 -22.569 -15.1248 -18.4811 -11.1889 -10.6875 -6.903 -14.3874 -9.637501 
-26.9441 -24.9011 -21.2598 -21.7655 -14.0309 -12.37 -15.6599 -14.3874 
-29.2762 -31.0361 -24.5442 -24.6075 -15.7134 -21.1269 -15.6599 
-3.2615 -8.725 0 -8.445001 -2.186 -2.857 -3.736 
-13.1001 -8.725 -8.445001 -11.3628 -4.678 -5.5985 
-13.1001 -17.5482 -11.3628 -13.8548 -7.2655 
-21.9233 -20.466 -13.8548 -16.4423 
-24.8411 -22.958 -16.4423 
0 -3.2615 -8.512501 -2.3085 -3.0805 -4.4525 -7.5605 -2.5045 -2.857 -4.2245 0 
-3.2615 -12.8876 -11.0145 -3.7245 -6.5245 -13.108 -10.5755 -5.232 -5.2205 -4.2245 
-12.8876 -15.3896 -12.4305 -6.573 -15.468 -16.123 -13.303 -7.3155 -5.2205 
-15.3896 -16.8056 -15.279 -15.5355 -18.483 -18.8505 -15.3865 -7.3155 
-16.8056 -19.6541 -24.2415 -18.5505 -21.2105 -20.934 -15.3865 
