-4.759 
n/a 
n/a 
n/a 
n/a 
-4.759 
n/a 
n/a 
n/a 
n/a 
-4.759 
n/a 
n/a 
n/a 
n/a 
-4.759 
n/a 
n/a 
n/a 
n/a 
-7.4445 -2.229 -3.941 -3.3195 -4.09 
-8.910501 -6.2155 -6.1545 -6.589001 
-13.1318 -8.535001 -10.101 
-15.4513 -12.5291 
-19.4454 
-12.16972 -8.736 -3.711 
-20.90572 -12.6974 
-24.86712 
n/a 
n/a 
-7.4445 -2.229 -3.941 -3.3195 -2.229 -12.16972 
-8.910501 -6.2155 -6.1545 -6.0345 -14.99372 
-13.1318 -8.535001 -9.395 -19.54282 
-15.4513 -11.8231 -23.16712 
-18.7394 -25.59522 
-7.4445 -2.229 -3.6675 -3.251 -3.3195 -4.795 
-8.910501 -5.6825 -6.282001 -7.285501 -9.680501 
-12.5988 -9.0935 -8.304001 -14.2203 
-16.0098 -11.3523 -15.8434 
-18.2686 -18.8917 
