-4.759 
n/a 
n/a 
n/a 
n/a 
-4.759 
n/a 
n/a 
n/a 
n/a 
-4.759 
n/a 
n/a 
n/a 
n/a 
-4.759 
n/a 
n/a 
n/a 
n/a 
-4.1375 -5.377 -1.7695 -3.6385 -3.956 
-8.797501 -7.0935 -5.8345 -7.48 
-10.7575 -11.6659 -9.940001 
-15.3299 -15.7714 
-19.4354 
-5.016 -4.1665 -2.4945 -4.031 -2.8645 -1.7695 -4.209 0 
-9.557501 -5.728 -7.5705 -6.9505 -4.4755 -5.1975 -4.209 
-11.477 -10.733 -11.2042 -7.805 -7.5595 -5.1975 
-16.482 -14.3667 -12.0587 -11.6456 -7.5595 
-20.1157 -15.2212 -15.8993 -11.6456 
-3.956 -1.934 -8.977 
-5.3455 -11.559 
-14.9103 
n/a 
n/a 
-4.426 -1.7565 -1.4985 -3.0835 -4.7285 -4.1555 -3.147 0 
-5.47 -2.4195 -3.535 -6.042 -8.4455 -5.77 -3.147 
-5.9535 -4.6785 -6.335501 -9.523001 -9.541501 -5.77 
-8.021 -7.476501 -10.0095 -10.7035 -9.541501 
-9.983001 -11.3061 -11.3 -10.7035 
