-4.759 
n/a 
n/a 
n/a 
n/a 
-4.759 
n/a 
n/a 
n/a 
n/a 
-4.759 
n/a 
n/a 
n/a 
n/a 
-4.759 
n/a 
n/a 
n/a 
n/a 
-7.4885 -1.934 -6.557 
-9.125 -7.536 
-14.9966 
n/a 
n/a 
-4.426 -1.7565 -1.4985 -3.6115 -4.7285 -4.1555 -9.704 -9.359 
-5.47 -2.4195 -4.081 -6.5495 -8.4455 -13.146 -20.5714 
-5.9535 -5.180501 -6.670501 -9.978001 -17.0585 -23.3354 
-8.462501 -7.797 -10.054 -18.5694 -27.1069 
-10.2375 -11.2985 -18.6818 -28.6178 
-1.4985 -7.4885 -1.934 -5.1845 -5.74 
-8.1875 -9.125 -6.564 -5.7465 
-9.337501 -14.0246 -6.819 
-14.3375 -14.2796 
-14.5925 
-7.4885 -1.934 -5.1845 -5.74 
-9.125 -6.564 -5.7465 
-14.0246 -6.819 
-14.2796 
n/a 
