-4.759 
n/a 
n/a 
n/a 
n/a 
-4.759 
n/a 
n/a 
n/a 
n/a 
-4.759 
n/a 
n/a 
n/a 
n/a 
-4.759 
n/a 
n/a 
n/a 
n/a 
-5.346 -9.426001 -9.136001 -2.5045 -5.128 -2.5045 -6.221 -1.7695 -6.234 -4.5235 
-15.9798 -18.717 -11.9463 -8.577001 -6.971 -8.972 -7.866 -8.175 -11.6029 
-25.2708 -21.5273 -18.0188 -10.4945 -14.1457 -10.9412 -15.1519 -14.0415 
-28.0811 -27.5998 -19.9363 -17.6692 -16.1149 -18.2271 -21.0184 
-34.1536 -29.5173 -27.111 -19.6384 -23.4008 -24.0936 
-1.4985 -4.873 -3.998 -2.7455 -2.3335 -2.186 -3.458 -1.4985 -3.7075 -3.9115 -1.756 -1.4985 -3.7075 -4.4695 
-6.0205 -8.886 -5.4695 -4.9975 -3.7085 -5.6835 -4.063 -4.6235 -7.925501 -5.049 -3.0405 -4.6235 -8.231501 
-9.664501 -10.5645 -6.8055 -6.903501 -7.034501 -6.4975 -7.3255 -9.779001 -10.0218 -6.585 -6.186 -9.000501 
-11.508 -11.9005 -9.259001 -10.6335 -7.6685 -8.97 -13.5248 -11.6985 -11.5578 -10.1909 -10.3475 
-12.844 -14.354 -13.074 -11.2675 -10.2668 -16.1975 -15.4443 -13.2345 -15.1637 -14.3524 
-4.5235 -3.9765 -2.3335 -1.4985 -3.7075 -2.229 -5.1795 -2.186 -5.8 -1.934 -4.4385 0 
-6.8325 -4.531 -3.3515 -4.6235 -5.5255 -6.7015 -6.946 -8.0515 -7.9145 -5.7805 -4.4385 
-7.12 -5.2865 -6.584 -5.9985 -8.56 -7.8145 -9.040501 -8.840501 -8.299 -5.7805 
-7.830501 -8.265 -7.865 -8.647 -9.816 -9.353001 -10.1305 -9.102 -8.299 
-10.9746 -9.7615 -10.4845 -9.842001 -11.3545 -10.4932 -10.392 -9.102 
-5.0025 -3.9765 -3.7075 -4.6175 -1.934 -1.4985 -5.653 -5.0975 0 
-9.6045 -8.570001 -7.650001 -5.923 -2.6125 -6.650001 -11.8539 -5.0975 
-14.441 -12.8815 -9.040001 -6.346 -7.928 -13.1405 -11.8539 
-18.7525 -14.2715 -9.464001 -12.4925 -14.6341 -13.1405 
-20.1425 -14.6955 -16.0365 -19.1986 -14.6341 
