-4.759 
n/a 
n/a 
n/a 
n/a 
-4.759 
n/a 
n/a 
n/a 
n/a 
-4.759 
n/a 
n/a 
n/a 
n/a 
-4.759 
n/a 
n/a 
n/a 
n/a 
-3.9485 -2.356 -1.4985 -3.873 -4.1355 -1.7565 -3.4225 -3.875 0 -2.4265 -2.186 -5.139 -2.3345 -3.5455 -4.1115 0 -3.6085 -4.951 0 -10.462 -4.1115 0 -4.5495 -4.1115 -1.756 -4.4935 -4.3355 0 
-4.311 -3.1615 -4.7405 -7.223001 -6.009501 -5.6355 -7.397 -3.875 -2.4265 -3.292 -6.0175 -5.2295 -6.271 -5.818 -4.1115 -3.6085 -8.7475 -4.951 -10.462 -14.5735 -4.1115 -4.5495 -6.7455 -5.537 -6.5145 -5.761 -4.3355 
-4.981 -6.576 -8.0305 -9.009001 -10.061 -8.8835 -7.397 -6.2665 -3.292 -7.0265 -6.06 -9.074 -8.764 -5.818 -7.979 -8.7475 -8.7475 -16.2452 -14.5735 -14.5735 -8.2535 -6.7455 -7.8905 -8.471001 -7.685 -5.761 
-8.565001 -10.31 -9.795501 -13.3437 -13.7538 -8.8835 -9.316501 -6.8375 -7.0265 -7.0825 -9.925 -11.5596 -8.764 -8.528501 -13.7366 -8.7475 -20.4235 -20.3567 -14.5735 -18.7155 -8.411 -7.8905 -10.19 -8.618501 -7.685 
-12.3974 -12.075 -14.1062 -17.0365 -13.7538 -10.76 -9.782001 -9.7045 -7.0825 -11.1039 -12.4106 -11.5596 -11.8291 -15.1749 -13.7366 -20.4235 -24.535 -20.3567 -18.7155 -18.873 -9.3795 -10.19 -10.5405 -8.618501 
-2.3615 -4.1485 -2.0935 -1.4985 -3.873 -4.8015 -2.9705 -2.186 -2.356 -3.9675 -1.7565 -4.1755 0 -5.139 -2.3345 -3.5455 -4.1115 0 -3.6085 -3.955 0 -8.901501 -4.1115 0 -4.5495 -4.1115 -1.756 -4.4935 -4.3355 0 
-6.976501 -4.852 -2.9725 -4.7405 -7.708 -7.385 -3.89 -5.208 -6.559 -4.4555 -5.3105 -4.1755 -5.139 -5.2295 -6.271 -5.818 -4.1115 -3.6085 -6.535501 -3.955 -8.901501 -13.3524 -4.1115 -4.5495 -6.7455 -5.537 -6.5145 -5.761 -4.3355 
-7.742 -5.3845 -6.469501 -8.3435 -10.304 -7.933001 -7.6885 -10.382 -8.285501 -5.7345 -5.3105 -9.245001 -5.2295 -9.074 -8.764 -5.818 -7.979 -6.535501 -6.535501 -13.7411 -13.3524 -13.3524 -8.2535 -6.7455 -7.8905 -8.471001 -7.685 -5.761 
-8.195001 -9.033 -10.513 -10.7335 -10.852 -11.9605 -12.9545 -12.1085 -9.0565 -5.7345 -9.774 -9.277501 -9.074 -11.5596 -8.764 -8.528501 -8.4375 -6.535501 -16.9836 -18.192 -13.3524 -17.4944 -8.411 -7.8905 -10.19 -8.618501 -7.685 
-12.0075 -13.1309 -12.903 -11.2815 -14.8795 -17.2265 -14.681 -12.8795 -9.0565 -10.9086 -9.815001 -13.3122 -11.5596 -11.5596 -11.8291 -8.578501 -8.4375 -16.9836 -21.4345 -18.192 -17.4944 -17.6519 -9.3795 -10.19 -10.5405 -8.618501 
-4.1485 -2.0935 -1.4985 -3.873 -5.9735 -2.356 -1.4985 -3.9675 -1.7565 -4.1755 0 -2.4265 -2.186 -5.139 -2.5195 -1.4985 -2.8965 -4.6525 -2.3345 -1.4985 -3.5455 -4.1115 0 -3.6085 -3.955 0 -5.117 -4.1115 0 -4.5495 -4.1115 -1.756 -1.4985 -4.4935 -4.1115 
-4.852 -2.9725 -4.7405 -7.888 -8.213 -3.1615 -5.1285 -4.4555 -5.3105 -4.1755 -2.4265 -3.292 -6.0175 -8.465 -3.1695 -3.928 -7.1535 -6.639 -3.233 -4.554 -5.818 -4.1115 -3.6085 -6.535501 -3.955 -5.117 -7.2125 -4.1115 -4.5495 -6.7455 -5.537 -3.0405 -5.299 -7.4805 
-5.3845 -6.469501 -8.711 -10.7335 -8.943001 -7.1815 -5.356 -5.7345 -5.3105 -6.754001 -3.292 -7.0265 -9.130001 -9.2215 -5.6085 -7.493 -8.7115 -7.3755 -6.3955 -6.1545 -5.818 -7.979 -6.535501 -6.535501 -8.854 -7.2125 -7.2125 -8.2535 -6.7455 -7.8905 -6.3295 -6.736 -8.137 
-9.033 -10.733 -11.8175 -11.4635 -10.6345 -7.2645 -6.34 -5.7345 -7.6785 -7.3125 -7.0265 -9.935 -9.990001 -11.7949 -8.8205 -9.295501 -9.441 -10.213 -8.2005 -6.1545 -8.528501 -8.4375 -6.535501 -8.9755 -8.9005 -7.2125 -8.969501 -8.411 -7.8905 -8.6455 -8.4245 -9.521 
-13.3509 -13.8395 -12.5475 -13.155 -10.6555 -7.8335 -6.34 -8.3465 -8.102 -10.476 -9.935 -10.7615 -12.5634 -15.0069 -10.513 -9.978001 -12.3799 -10.617 -8.2005 -8.7405 -8.578501 -8.4375 -8.9755 -8.9855 -8.9005 -8.969501 -8.985001 -9.3795 -8.6455 -9.836 -11.7779 
-2.4265 -2.7415 -5.4915 -2.3345 -7.693 0 -3.6085 -7.563 0 -8.901501 -4.1115 0 -4.5495 -4.1115 -1.756 -4.4935 -4.3355 0 -2.8965 -3.1575 -1.4985 -3.873 -3.4425 -1.7565 -4.1755 -3.9675 
-3.681 -7.737 -6.084001 -9.7605 -7.693 -3.6085 -10.123 -7.563 -8.901501 -13.3524 -4.1115 -4.5495 -6.7455 -5.537 -6.5145 -5.761 -4.3355 -2.8965 -4.4055 -4.1355 -4.7405 -6.015 -4.5535 -5.3105 -6.526 
-8.554501 -8.006001 -14.2238 -9.7605 -11.8831 -10.123 -10.123 -16.9295 -13.3524 -13.3524 -8.2535 -6.7455 -7.8905 -8.471001 -7.685 -5.761 -8.102501 -4.4055 -5.1555 -7.706 -6.982 -6.951 -8.615 -7.4015 
-8.904501 -16.3506 -14.2238 -13.9506 -18.3976 -10.123 -19.4895 -21.3804 -13.3524 -17.4944 -8.411 -7.8905 -10.19 -8.618501 -7.685 -9.186501 -9.3915 -5.1555 -8.4245 -9.258501 -7.576 -9.826 -10.9738 
-17.3095 -16.3506 -18.4139 -20.4651 -18.3976 -19.4895 -23.9404 -21.3804 -17.4944 -17.6519 -9.3795 -10.19 -10.5405 -8.618501 -10.7595 -10.75 -10.1435 -8.4245 -10.4634 -9.493501 -9.9975 -12.3444 
