-4.759 
n/a 
n/a 
n/a 
n/a 
-4.759 
n/a 
n/a 
n/a 
n/a 
-4.759 
n/a 
n/a 
n/a 
n/a 
-4.759 
n/a 
n/a 
n/a 
n/a 
-4.1485 -1.756 -4.746 -1.7565 -3.8275 
-5.923 -6.8295 -5.2905 -4.8265 
-10.3745 -7.0845 -6.744 
-10.5545 -9.17 
-12.64 
-1.4985 -4.662 -1.7565 -3.8275 -1.934 -3.5315 
-5.515 -5.68 -4.8265 -5.2615 -5.027 
-6.0925 -9.3295 -6.421 -8.3755 
-9.85 -10.675 -9.4685 
-11.1955 -13.7225 
-3.5315 -4.153 0 -3.8275 -4.3215 
-9.506001 -4.153 -3.8275 -8.6495 
-9.506001 -9.198501 -8.6495 
-14.9079 -14.3459 
-20.0553 
-3.5315 -6.9705 -1.756 -3.8275 -4.746 
-12.1706 -8.352 -5.858 -7.7165 
-13.5521 -12.6854 -10.543 
-17.8855 -17.3704 
-22.5705 
