-4.759 
n/a 
n/a 
n/a 
n/a 
-4.759 
n/a 
n/a 
n/a 
n/a 
-4.759 
n/a 
n/a 
n/a 
n/a 
-4.759 
n/a 
n/a 
n/a 
n/a 
-3.995 -4.4385 -2.186 -5.383 -4.918 -2.186 -6.5015 -3.9615 -5.936 -2.186 -7.083 -5.1165 -5.057 0 
-8.691501 -6.318501 -8.421 -9.2995 -6.8395 -9.4575 -10.3045 -8.816 -7.6105 -8.8585 -12.9135 -9.605501 -5.057 
-10.533 -13.0065 -12.6017 -11.4518 -14.4082 -13.2711 -15.3092 -10.703 -14.5804 -15.0836 -17.4025 -9.605501 
-17.221 -17.1872 -14.754 -19.0205 -18.2218 -18.2758 -17.1962 -17.6729 -20.8055 -19.5726 -17.4025 
-21.4017 -19.3395 -22.3227 -22.8341 -23.2265 -20.1628 -24.1661 -23.898 -25.2945 -19.5726 
-3.995 -1.7695 -3.737 -1.7565 -5.6115 -1.756 -3.995 -3.874 -1.7695 -4.4295 -2.0935 -1.4985 -5.3745 -1.7695 -4.0645 
-5.9385 -5.321 -5.3145 -7.7085 -7.2205 -5.736 -7.315001 -5.652 -4.984 -7.255 -2.9725 -7.594501 -8.191501 -7.863501 
-10.5535 -8.093 -12.0169 -8.927501 -11.8103 -10.634 -10.5842 -8.349 -7.772 -8.093 -9.2135 -9.637 -14.9121 
-13.3255 -15.1264 -13.2359 -13.8103 -16.7083 -13.9032 -13.2812 -11.4864 -8.602501 -14.6476 -10.6105 -16.218 
-20.3589 -16.3454 -18.1187 -18.7083 -19.9775 -16.6002 -16.4186 -12.3169 -15.2131 -16.0446 -17.1915 
-4.426 -1.7565 -1.4985 -3.6115 -4.7285 -4.1555 -3.147 -3.995 -3.5015 -1.934 -4.07 -1.7565 -5.936 -4.07 -6.32 0 
-5.47 -2.4195 -4.081 -6.5495 -8.4455 -5.77 -7.914001 -8.3885 -4.704 -6.0675 -5.1955 -7.8915 -10.2815 -10.468 -6.32 
-5.9535 -5.180501 -6.670501 -9.978001 -9.541501 -10.3615 -12.7131 -9.6285 -8.638 -8.169001 -12.0707 -12.5372 -16.8955 -10.468 
-8.462501 -7.797 -10.054 -11.0524 -14.133 -15.1606 -13.9531 -13.7351 -11.0177 -16.0068 -16.7164 -19.1512 -16.8955 
-10.2375 -11.2985 -11.1648 -15.6439 -18.9321 -16.4006 -18.0597 -16.1148 -18.8555 -20.6525 -23.3304 -19.1512 
-3.995 -4.4385 -5.6985 -4.356 -3.9615 -5.2415 -1.756 -3.9615 -5.936 -1.756 -5.1945 -3.115 -4.3305 0 
-8.691501 -8.3535 -9.9405 -7.701001 -8.9585 -6.329 -5.686 -8.816 -6.953001 -6.3625 -8.237 -7.396 -4.3305 
-12.8223 -13.1225 -13.3757 -13.0864 -9.733001 -9.880501 -10.6215 -10.147 -12.2563 -9.597 -13.3544 -7.396 
-17.5913 -16.5577 -18.7611 -13.8609 -13.7635 -14.952 -11.9525 -15.4503 -15.4908 -15.1826 -13.3544 
-21.0265 -21.9431 -19.5356 -17.8914 -18.835 -16.283 -17.2558 -18.6848 -21.0764 -15.1826 
