-4.759 
n/a 
n/a 
n/a 
n/a 
-4.759 
n/a 
n/a 
n/a 
n/a 
-4.759 
n/a 
n/a 
n/a 
n/a 
-4.759 
n/a 
n/a 
n/a 
n/a 
-1.934 -4.02 -3.959 -2.5685 -1.4985 -3.6005 -3.681 -2.0935 -7.190001 -3.152 -1.934 -4.7985 -1.756 -3.333 -1.934 -4.118 -2.0935 -3.627 
-5.3455 -6.338 -6.0575 -3.7015 -4.9615 -8.2155 -5.6355 -8.856001 -11.046 -4.9115 -6.86 -6.1905 -5.5005 -4.374 -5.5795 -6.235 -5.708 
-6.9535 -9.123 -7.9335 -6.398 -8.8955 -9.596001 -13.1438 -12.9086 -12.8055 -10.6465 -8.248 -9.989 -6.6505 -6.632 -7.72 -9.212 
-9.772 -9.7765 -10.947 -9.399 -9.9665 -17.2429 -17.1964 -14.6681 -18.5405 -12.0345 -12.4255 -11.2148 -9.136001 -8.6215 -10.9914 
-10.47 -13.1122 -13.948 -10.196 -17.7844 -21.2955 -18.9559 -20.4031 -19.9285 -16.212 -13.6513 -13.7003 -11.2907 -12.1013 
-1.934 -3.5455 -3.7575 -1.4985 -4.0655 -3.43 -4.775 -2.4945 -3.985 -2.0935 -7.190001 0 
-4.8495 -5.799001 -5.52 -6.111 -5.8345 -8.661 -6.5755 -7.666 -6.01 -8.856001 -7.190001 
-8.013 -7.684 -10.5035 -7.363 -8.984 -10.703 -12.459 -10.2135 -13.7323 -8.856001 
-10.5035 -12.8841 -11.7555 -10.6143 -11.522 -16.5865 -15.0065 -17.9358 -13.7323 
-15.7036 -14.1361 -15.0068 -13.1523 -17.4055 -19.134 -22.7288 -17.9358 
-9.8815 -2.4945 -4.423 -1.7695 -2.664 -2.5685 -1.4985 -3.681 -3.3785 -8.1545 0 
-12.6062 -6.706501 -6.8505 -4.185 -5.128 -3.7015 -4.9615 -7.7475 -12.678 -8.1545 
-16.8182 -8.455501 -9.397 -6.5105 -7.817 -5.869 -9.910501 -17.5914 -12.678 
-18.5672 -11.2496 -12.1043 -9.608001 -10.0705 -10.9866 -19.7544 -17.5914 
-21.3613 -13.9569 -15.2018 -12.0551 -15.2349 -20.8305 -19.7544 

n/a 
n/a 
n/a 
n/a 
