-4.759 
n/a 
n/a 
n/a 
n/a 
-4.759 
n/a 
n/a 
n/a 
n/a 
-4.759 
n/a 
n/a 
n/a 
n/a 
-4.759 
n/a 
n/a 
n/a 
n/a 
-2.4265 -2.186 -3.768 -2.0935 -1.8085 -4.1145 -1.7695 -4.931 -1.4985 -4.5845 -4.923 -2.0935 -3.2775 -3.4095 0 -4.157 0 -2.3345 -7.572001 -4.481 0 -1.756 -4.599 -3.074 -6.2825 -1.7695 -3.999 -3.493 0 
-3.292 -4.7835 -5.1955 -3.385 -5.757 -6.6525 -5.5535 -5.9225 -5.9125 -9.252501 -6.702001 -4.911 -6.5375 -3.4095 -4.157 -4.157 -2.3345 -8.759001 -10.523 -4.481 -1.756 -5.3075 -6.887001 -9.209001 -6.663 -5.301 -5.774 -3.493 
-4.9545 -5.9895 -6.241 -7.224 -7.547 -9.498501 -6.344 -9.3795 -10.0035 -10.2875 -9.6885 -8.486 -6.5375 -8.333 -4.157 -7.326 -8.759001 -10.5535 -10.523 -5.732 -5.3075 -7.1385 -10.564 -9.5345 -9.832001 -7.035501 -5.774 
-6.071 -6.792 -10.19 -8.9965 -10.543 -10.5545 -9.6125 -10.5545 -10.558 -10.5635 -10.5555 -8.486 -10.504 -8.333 -7.326 -10.553 -10.5535 -10.5535 -10.5805 -9.324501 -7.1385 -10.564 -10.582 -10.567 -10.507 -7.035501 
-6.8255 -10.5425 -10.4265 -10.5755 -10.592 -10.583 -10.554 -10.572 -10.5755 -10.581 -10.5555 -10.5535 -10.504 -10.533 -10.553 -10.5705 -10.5535 -10.5815 -10.5985 -10.5045 -10.564 -10.582 -10.6 -10.585 -10.507 
-4.1145 -2.8645 -1.4985 -4.656 -2.3345 -7.572001 -1.4985 -4.481 -1.7695 -3.5185 0 -4.116 0 -3.115 -4.5845 -4.923 -1.756 -3.074 -1.7695 -3.6955 -3.251 -2.0935 -5.483 0 
-7.138 -4.3545 -4.866 -7.3625 -8.759001 -7.977001 -6.047501 -6.160501 -4.134 -3.5185 -4.116 -4.116 -3.115 -8.373501 -9.252501 -6.4705 -4.566 -5.1765 -4.452 -4.9205 -5.351 -8.044001 -5.483 
-8.2875 -7.119 -8.58 -14.1636 -9.059501 -12.8544 -7.969501 -8.187 -4.134 -7.31 -4.116 -7.614 -8.373501 -13.3635 -10.9168 -9.1315 -5.8385 -8.213501 -5.595 -6.491 -12.0617 -8.044001 
-11.7306 -10.532 -15.5575 -14.4641 -13.9821 -14.7764 -10.0505 -8.187 -7.7475 -7.31 -7.614 -13.2187 -13.3635 -15.0278 -13.5778 -10.4425 -8.9905 -9.464001 -7.0165 -13.7673 -12.0617 
-15.1436 -17.5095 -15.858 -19.3867 -15.9041 -16.8574 -10.0505 -11.9113 -7.7475 -11.37 -13.2187 -18.2087 -15.0278 -17.6888 -14.8888 -13.9413 -10.115 -11.0731 -14.4526 -13.7673 
-1.4985 -3.2015 -2.7765 -2.489 -4.351 -2.3345 -4.7695 -1.4985 -4.336 -3.7345 -3.115 -5.4245 -2.3345 -8.663501 -3.0365 -2.186 -3.074 -1.8085 -4.2055 -1.7695 -3.6955 -1.7695 -3.999 -3.493 
-4.9495 -6.3555 -3.495 -5.209 -5.5695 -5.690001 -5.385 -5.6555 -6.3065 -6.8935 -8.5845 -7.654 -10.862 -12.0922 -3.66 -4.156 -4.639 -4.713 -4.621 -4.452 -4.4705 -5.301 -5.774 
-8.179001 -6.7945 -6.568501 -6.384 -9.7566 -6.526 -10.586 -7.144 -9.079501 -12.6046 -11.0396 -16.5403 -14.2907 -12.7157 -5.212501 -4.962 -7.235001 -4.9405 -7.0695 -5.3415 -8.9375 -7.035501 
-8.438001 -10.3876 -7.677001 -11.4825 -10.5926 -11.9834 -12.0745 -10.2695 -15.0854 -15.0597 -19.9259 -19.969 -14.9142 -14.2682 -5.522501 -7.6305 -7.5425 -7.375501 -7.903 -9.3575 -11.0818 
-12.0263 -11.4961 -13.4893 -12.3185 -16.05 -13.4719 -15.2 -16.2754 -17.5405 -23.946 -23.3546 -20.5925 -16.4667 -14.5782 -7.975501 -8.036501 -10.298 -8.242001 -11.9466 -12.1758 
-5.675 -2.7765 -4.267 -1.4985 -3.914 -3.7345 -4.5625 -1.756 -3.0465 -4.4265 -5.2125 -1.756 -3.999 -3.493 
-8.968 -8.504001 -6.655 -6.972501 -8.487 -8.139501 -6.0235 -4.477 -6.983 -9.568001 -6.1755 -5.2735 -5.774 
-14.9931 -9.797501 -12.5046 -12.0735 -13.1362 -9.106501 -8.384 -8.4585 -12.6471 -10.2505 -8.6785 -6.6615 
-16.2866 -15.6471 -17.6056 -16.7227 -14.1032 -11.8358 -13.0715 -14.302 -13.3296 -12.7535 -10.9759 
-22.1362 -20.7481 -22.2548 -17.6897 -16.8325 -16.5233 -18.915 -14.9845 -15.8326 -15.0509 
