-4.759 
n/a 
n/a 
n/a 
n/a 
-4.759 
n/a 
n/a 
n/a 
n/a 
-4.759 
n/a 
n/a 
n/a 
n/a 
-4.759 
n/a 
n/a 
n/a 
n/a 
-6.341 -7.1795 -3.8625 -1.7695 -6.041 -3.8015 0 
-8.9245 -11.5948 -5.2885 -7.5255 -9.887501 -3.8015 
-13.5258 -13.0208 -12.0725 -12.1836 -9.887501 
-14.9518 -19.8048 -16.7306 -12.1836 
-21.7358 -24.4629 -16.7306 
-7.689 -2.186 -3.115 -7.2175 0 
-9.953501 -4.989 -10.7175 -7.2175 
-12.8853 -13.2253 -10.7175 
-21.1216 -13.2253 
-21.1216 
-2.186 -6.341 -7.1155 -4.4615 -3.711 -3.8315 0 
-8.5585 -8.844501 -12.1536 -8.736 -6.912001 -3.8315 
-11.3818 -14.0916 -16.4281 -12.5868 -6.912001 
-16.6289 -18.3661 -20.2789 -12.5868 
-20.9034 -22.2169 -20.2789 
-2.186 -6.341 -7.1795 -5.0075 -1.7695 -5.0295 0 
-8.5585 -8.9245 -12.7398 -5.113 -7.653501 -5.0295 
-11.4618 -14.6708 -12.8453 -11.4138 -7.653501 
-17.2081 -14.7763 -19.1461 -11.4138 
-17.3136 -21.0771 -19.1461 
