-4.759 
n/a 
n/a 
n/a 
n/a 
-4.759 
n/a 
n/a 
n/a 
n/a 
-4.759 
n/a 
n/a 
n/a 
n/a 
-4.759 
n/a 
n/a 
n/a 
n/a 
-2.264 -3.531 -4.919 0 -3.6645 -4.1645 -3.152 -4.493 -1.756 -4.565 -3.152 -4.874 -3.851 -1.7695 -1.4985 -4.8475 -1.7565 -1.8085 -4.3215 -2.3335 -2.7415 -3.4625 -4.834 -3.936 -8.129001 -3.9075 -1.934 -4.511 0 
-4.8755 -6.4245 -4.919 -3.6645 -8.0775 -6.1555 -5.593 -5.8585 -5.927 -7.5 -6.21 -7.574 -4.0015 -2.7955 -5.757501 -5.6715 -3.2595 -5.6455 -6.5085 -4.2725 -5.288 -6.528501 -7.798 -13.392 -9.295001 -5.7005 -5.5905 -4.511 
-7.268001 -6.4245 -9.5015 -8.0775 -9.6295 -7.6835 -6.381001 -7.8615 -8.245501 -8.6055 -8.776501 -7.578 -4.5775 -6.9595 -5.8545 -7.0645 -6.9145 -7.258 -7.890501 -6.596001 -7.852 -8.907001 -17.4416 -14.558 -10.7585 -8.845501 -5.5905 
-7.268001 -11.6366 -13.9821 -9.6295 -10.69 -8.283 -8.179001 -8.9165 -8.8285 -11.271 -8.782001 -8.1475 -7.9055 -7.0345 -7.281001 -8.8395 -8.4545 -8.5065 -9.666 -9.076 -10.1505 -18.665 -18.6076 -16.0215 -13.9035 -8.845501 
-12.5875 -16.1172 -15.5341 -10.69 -11.2895 -10.459 -8.9475 -9.243 -11.5056 -11.2765 -9.3205 -10.5745 -7.968 -8.464001 -8.9805 -10.159 -9.473001 -9.98 -12.3944 -11.4677 -19.9843 -19.831 -20.0711 -19.1665 -13.9035 
-3.531 -3.281 -1.4985 -10.8475 -1.7695 -2.489 -9.099001 -1.7695 -2.489 -4.424 
-5.5235 -5.584001 -13.4398 -12.617 -3.1405 -10.5345 -11.1125 -3.1405 -8.421 
-7.849 -17.7269 -15.2093 -13.988 -11.213 -12.0975 -12.4875 -9.0345 
-20.1553 -19.4964 -16.5803 -22.1545 -12.862 -13.4725 -18.8343 
-21.9248 -20.8674 -24.7468 -23.7095 -14.237 -19.8193 
-3.531 -3.281 0 -4.511 -3.936 -3.9075 -4.3215 -4.4195 -2.645 -3.1575 -3.6645 -4.1645 -4.493 
-5.5235 -3.281 -4.511 -9.2435 -7.820001 -6.484 -7.926001 -7.652 -3.72 -5.5575 -8.0775 -7.418 
-5.5235 -7.968 -9.2435 -13.3791 -10.259 -10.6875 -12.1417 -8.458 -5.714 -9.199 -11.6238 
-11.3263 -13.5515 -13.3791 -15.8181 -14.4625 -14.9032 -12.9477 -10.3745 -9.213 -13.1067 
-16.9098 -17.6871 -15.8181 -20.0216 -18.6782 -15.7092 -14.8642 -13.8735 -13.1363 
-3.6645 -4.1645 -2.4945 -4.424 -1.934 -1.4985 -1.4985 -4.3215 -2.9705 -2.186 -3.859 -3.2295 -1.4985 -8.129001 -3.9075 -4.4195 -3.539 -2.264 -3.531 -3.281 -2.5045 -4.511 
-8.0775 -5.7405 -8.615 -5.195 -2.6125 -4.935 -5.2155 -6.738 -3.89 -6.7795 -6.793 -3.844 -9.294001 -9.295001 -8.6675 -5.7145 -5.0015 -4.8755 -5.5235 -5.827 -7.707001 
-9.6945 -12.514 -9.308001 -6.055501 -6.1305 -8.646 -7.472501 -7.474501 -8.333 -9.5205 -7.705 -12.3719 -9.5865 -14.3148 -10.459 -7.901501 -8.291 -6.4555 -7.535501 -11.7775 
-16.5754 -13.207 -9.461 -9.712001 -9.9665 -11.0368 -8.252501 -12.2193 -11.31 -9.937 -16.7965 -12.6644 -14.7145 -16.1063 -12.646 -11.6342 -9.787001 -8.6025 -13.8258 
-17.2684 -13.36 -13.9109 -13.5994 -12.3573 -11.8168 -13.0537 -15.1963 -11.7265 -19.0285 -17.089 -17.7924 -16.506 -18.2933 -16.3787 -13.1302 -12.2782 -14.587 
