-4.759 
n/a 
n/a 
n/a 
n/a 
-4.759 
n/a 
n/a 
n/a 
n/a 
-4.759 
n/a 
n/a 
n/a 
n/a 
-4.759 
n/a 
n/a 
n/a 
n/a 
0 -2.9635 -1.4985 -3.8015 -2.3335 -2.4945 -4.49 -1.934 -1.4985 -3.881 -3.8875 0 
-2.9635 -4.424 -4.8 -5.89 -3.947 -5.492001 -4.943 -2.6125 -5.357 -5.6665 -3.8875 
-4.424 -8.134001 -6.4975 -7.623 -6.628 -5.806 -5.374 -6.403 -6.7275 -5.6665 
-8.134001 -9.715 -8.1295 -10.0535 -7.059 -6.1905 -7.205 -7.561 -6.7275 
-9.715 -12.3756 -10.6335 -10.49 -7.440501 -8.529 -7.955 -7.561 
0 -4.3955 -2.911 -3.5495 -3.074 -3.197 -2.4265 
-4.3955 -7.917 -6.2735 -6.743 -5.4255 -4.6855 
-7.917 -9.658 -10.411 -10.5975 -6.764 
-9.658 -14.6857 -14.2655 -11.936 
-14.6857 -18.5402 -15.604 
-4.426 -1.7565 -1.4985 -3.0835 -4.7285 -4.1555 -3.147 0 -3.619 -1.7565 -3.9105 -1.934 -3.774 
-5.47 -2.4195 -3.535 -6.042 -8.4455 -5.77 -3.147 -3.619 -6.9385 -6.8125 -5.943 -6.035 
-5.9535 -4.6785 -6.335501 -9.523001 -9.541501 -5.77 -6.8605 -6.9385 -12.7393 -8.697001 -10.3675 
-8.021 -7.476501 -10.0095 -10.7035 -9.541501 -8.206 -10.9382 -12.7393 -14.6238 -13.2381 
-9.983001 -11.3061 -11.3 -10.7035 -11.9775 -14.2137 -16.739 -14.6238 -19.1649 
-3.047 -2.3335 -3.881 -2.186 -3.074 -3.1335 -4.0465 
-4.808 -7.134001 -6.112 -4.156 -7.212 -5.971 
-9.748 -8.234 -8.054501 -9.002001 -10.6215 
-10.7195 -10.6735 -13.1467 -12.7355 
-13.159 -15.7657 -16.8802 
