-4.759 
n/a 
n/a 
n/a 
n/a 
-4.759 
n/a 
n/a 
n/a 
n/a 
-4.759 
n/a 
n/a 
n/a 
n/a 
-4.759 
n/a 
n/a 
n/a 
n/a 
-4.2875 -3.8275 -3.074 -1.934 -1.4985 -3.97 
-5.364501 -7.1405 -4.93 -2.6125 -5.476 
-8.330501 -8.8055 -5.5645 -6.857501 
-10.634 -9.436501 -9.724501 
-11.265 -13.6157 
-8.115001 -2.186 -4.968 -2.0935 -3.97 0 
-7.206 -8.2515 -6.349501 -6.6895 -3.97 
-14.1077 -9.739 -11.5695 -6.6895 
-16.0588 -15.0306 -11.5695 
-21.3504 -15.0306 
-4.2875 -3.8275 -1.756 -3.97 
-5.364501 -5.1855 -5.355 
-6.680501 -7.655 
-10.6875 
n/a 
-4.2875 -3.8275 -1.756 -7.161 -3.97 
-5.364501 -5.1855 -8.107 -10.7495 
-6.680501 -12.5517 -11.8743 
-14.5573 -16.319 
-18.3246 
