-4.759 
n/a 
n/a 
n/a 
n/a 
-4.759 
n/a 
n/a 
n/a 
n/a 
-4.759 
n/a 
n/a 
n/a 
n/a 
-4.759 
n/a 
n/a 
n/a 
n/a 
-2.4265 -2.7415 -4.4695 -2.0935 -1.4985 -4.4525 -1.7565 -3.554 -1.934 -1.4985 -3.188 0 
-3.681 -6.768001 -5.6265 -2.9725 -5.514 -5.591001 -4.9395 -5.4455 -2.6125 -3.619 -3.188 
-8.250501 -7.016 -6.787 -6.785501 -6.323 -7.489501 -6.5835 -6.127 -4.377 -3.619 
-8.514001 -8.178 -10.8966 -8.591001 -8.321 -9.018001 -7.173 -7.4315 -4.377 
-9.400001 -12.4156 -12.7021 -10.7575 -9.572001 -9.946501 -8.7745 -7.4315 
-4.426 -1.7565 -1.4985 -3.6115 -4.7285 -4.1555 -3.147 -2.3615 -2.186 -4.4695 -2.0935 -4.4525 -1.7565 -3.554 0 
-5.47 -2.4195 -4.081 -6.5495 -8.4455 -5.77 -5.445 -3.5005 -6.053 -5.6265 -6.969501 -5.591001 -4.9395 -3.554 
-5.9535 -5.180501 -6.670501 -9.978001 -9.541501 -8.02 -6.151 -8.875 -6.184 -11.3609 -9.0495 -7.489501 -4.9395 
-8.462501 -7.797 -10.054 -11.0524 -11.7915 -8.458501 -11.8091 -9.4595 -12.1204 -13.4409 -11.225 -7.489501 
-10.2375 -11.2985 -11.1648 -13.3024 -12.23 -14.6294 -12.3936 -15.5677 -14.2004 -15.6164 -11.225 
-3.188 -2.186 -7.7085 -2.3615 -2.5045 -4.4525 -1.7565 -3.554 
-5.1175 -10.0785 -10.335 -5.006 -7.3655 -5.591001 -4.9395 
-13.4722 -12.705 -12.9795 -10.5535 -7.901 -7.489501 
-16.0987 -15.3495 -18.527 -11.089 -9.910501 
-18.7432 -20.897 -19.0625 -13.0985 
-2.3615 -5.0895 -4.4525 -1.7565 -3.554 -2.186 -3.188 -4.4695 0 
-7.547501 -8.4995 -5.591001 -4.9395 -5.2935 -6.3455 -5.684 -4.4695 
-10.341 -8.579 -7.489501 -6.7565 -10.0345 -7.391 -5.684 
-10.445 -9.2255 -9.429501 -11.6183 -11.1916 -7.391 
-10.712 -11.4051 -14.3663 -12.7754 -11.1916 
