-4.759 
n/a 
n/a 
n/a 
n/a 
-4.759 
n/a 
n/a 
n/a 
n/a 
-4.759 
n/a 
n/a 
n/a 
n/a 
-4.759 
n/a 
n/a 
n/a 
n/a 
-4.5845 -4.299 -2.264 -12.16972 -4.9685 -3.515 0 
-7.709001 -5.322001 -15.46572 -17.13822 -9.522 -3.515 
-9.059 -19.08812 -20.43422 -21.69172 -9.522 
-23.11792 -24.05662 -24.98772 -21.69172 
-28.08642 -28.61012 -24.98772 
-2.5195 -3.599 -3.9665 -2.925 -5.198 -1.4985 -6.3155 -4.891 
-6.3255 -4.743 -6.9115 -7.008 -6.178501 -6.986501 -12.3909 
-7.4985 -8.095 -10.1225 -7.6045 -10.5855 -13.5423 
-11.3279 -11.4254 -10.724 -12.1743 -17.1413 
-14.6583 -12.0269 -15.2938 -18.7301 
-3.599 -4.5845 -4.7195 -12.16972 -3.599 -4.299 
-8.385501 -8.175501 -17.92082 -15.76872 -6.837501 
-12.4995 -22.92962 -21.51982 -19.00722 
-27.25362 -26.52862 -24.75832 
-30.85262 -29.76712 
-5.159 -10.059 -4.319 
-16.2438 -14.563 
-20.7478 
n/a 
n/a 
