-4.759 
n/a 
n/a 
n/a 
n/a 
-4.759 
n/a 
n/a 
n/a 
n/a 
-4.759 
n/a 
n/a 
n/a 
n/a 
-4.759 
n/a 
n/a 
n/a 
n/a 
-12.16972 -1.756 -3.598 -4.397 -1.7565 -4.0145 0 
-13.92572 -5.2825 -9.1785 -5.847 -5.774001 -4.0145 
-17.45222 -11.5224 -10.7235 -10.2485 -5.774001 
-23.69212 -13.0674 -15.125 -10.2485 
-25.23712 -17.4689 -15.125 
-4.3475 -1.756 -5.1905 -3.4775 -3.6205 
-5.884501 -7.0895 -6.8195 -6.74 
-9.812501 -9.390501 -10.7976 
-12.3749 -13.798 
-16.7824 
-4.3475 -1.756 -1.4985 -5.1905 -3.2 
-5.884501 -3.0405 -6.231 -7.123 
-6.7105 -7.848001 -7.727 
-9.814 -9.051001 
-10.202 
-3.6205 -2.0935 -8.189 -1.756 -3.5015 -3.4775 
-4.8125 -10.718 -9.318501 -5.2435 -6.6585 
-14.0472 -11.8475 -12.8656 -7.932 
-15.1767 -15.3946 -15.5541 
-18.7238 -18.0831 
