-4.759 
n/a 
n/a 
n/a 
n/a 
-4.759 
n/a 
n/a 
n/a 
n/a 
-4.759 
n/a 
n/a 
n/a 
n/a 
-4.759 
n/a 
n/a 
n/a 
n/a 
-3.458 -1.4985 -3.498 -1.7565 -3.158 -5.6485 -1.756 -3.4975 -4.6225 0 -2.7455 -6.509501 -6.2085 -3.152 -4.024 -1.7695 -4.559 -2.229 -3.4975 -5.4435 0 
-4.063 -4.0295 -4.005 -5.26 -8.7985 -7.840501 -5.427 -5.928 -4.6225 -2.7455 -7.0985 -9.6365 -7.894501 -5.7885 -4.5525 -6.2435 -5.3525 -5.835 -6.8365 -5.4435 
-6.474 -4.188 -5.8405 -11.3027 -10.1425 -11.8235 -8.689501 -5.928 -7.683001 -6.7745 -11.658 -11.0235 -9.055 -6.1485 -8.493501 -6.942 -8.582 -8.461 -6.8365 
-6.834 -6.72 -12.3638 -12.6467 -14.1255 -15.086 -8.689501 -9.132501 -10.1265 -10.1465 -10.4365 -10.701 -9.304001 -9.4235 -9.856501 -10.0035 -8.646501 -8.461 
-9.4515 -13.6949 -13.7078 -16.6297 -17.388 -15.086 -12.0318 -10.1665 -10.1825 -10.17 -11.4094 -11.2709 -12.712 -10.7185 -12.918 -10.0825 -8.646501 
-2.264 -5.6485 -3.2615 -3.4975 -4.6225 -3.458 0 -4.3435 -6.509501 -5.3265 -4.024 -1.7695 -4.559 -3.959 0 
-8.9875 -9.1415 -7.277 -5.928 -8.3935 -3.458 -4.3435 -7.6585 -9.940001 -9.034 -4.5525 -6.2435 -8.9375 -3.959 
-12.6847 -13.2596 -10.054 -9.59 -8.3935 -8.198 -7.176001 -12.564 -14.3166 -9.352 -8.493501 -11.2258 -8.9375 
-16.8028 -16.0366 -13.716 -9.59 -13.2591 -11.4385 -13.085 -17.2071 -14.6346 -13.4438 -13.7578 -11.2258 
-19.5798 -19.6986 -13.716 -14.5226 -16.4996 -17.3475 -17.2071 -17.5251 -18.7264 -18.7081 -13.7578 
-2.5045 -1.4985 -4.1595 -5.6485 0 -3.458 -3.4975 -5.8635 0 -3.6215 -6.509501 -8.022 -3.152 -4.024 -1.7695 -6.009 -2.229 -3.676 -5.5495 -3.59 0 
-3.1915 -4.3575 -10.9798 -5.6485 -3.458 -6.962501 -8.006001 -5.8635 -3.6215 -7.6875 -11.936 -9.830501 -5.7885 -4.5525 -7.9915 -7.826 -5.957 -9.396 -8.9615 -3.59 
-7.052 -11.8406 -10.9798 -9.399501 -6.962501 -11.9964 -8.006001 -8.417 -7.286 -14.8243 -14.3493 -12.5198 -6.1485 -10.1675 -9.4245 -11.8762 -12.4966 -13.0632 -8.9615 
-14.9703 -11.8406 -14.7308 -13.3572 -11.9964 -11.9964 -10.7387 -12.8735 -15.0875 -17.092 -17.0386 -12.8798 -11.8989 -11.6005 -13.5539 -18.4158 -16.1638 -13.0632 
-14.9703 -15.5916 -18.6885 -18.3911 -11.9964 -14.7291 -15.1952 -20.675 -17.092 -19.7813 -17.3986 -18.6302 -13.3319 -15.7299 -20.0935 -22.083 -16.1638 
-5.394 -4.87 -3.152 -4.024 -1.7695 -3.676 -6.39 -3.158 -5.6485 
-11.2858 -7.4585 -5.7885 -4.5525 -5.5605 -10.3045 -9.109 -8.7985 
-13.8743 -10.0315 -6.1485 -8.061501 -12.9058 -13.0235 -14.9053 
-16.4473 -10.182 -9.0495 -15.737 -15.6248 -18.8198 
-16.5978 -13.083 -16.8098 -18.456 -21.4211 
