-4.759 
n/a 
n/a 
n/a 
n/a 
-4.759 
n/a 
n/a 
n/a 
n/a 
-4.759 
n/a 
n/a 
n/a 
n/a 
-4.759 
n/a 
n/a 
n/a 
n/a 
-1.934 -1.4985 -3.5085 -3.8355 -4.5435 -1.4985 -6.492 -2.186 -4.469 -1.756 -4.071 0 -1.934 -1.4985 -3.5085 -3.836 -3.883 -1.756 -4.306 
-2.6125 -4.4755 -7.0305 -8.046 -5.460501 -6.689501 -9.0825 -7.7075 -6.001 -5.619 -4.071 -1.934 -2.6125 -4.4755 -6.108 -8.104 -5.146 -5.7585 
-6.026 -7.971001 -11.9398 -10.155 -11.4789 -9.568501 -14.7926 -8.988 -6.303 -5.619 -6.4775 -2.6125 -6.026 -7.069 -10.9544 -9.236501 -9.078 
-9.136001 -13.2585 -14.0488 -16.1734 -14.3579 -15.235 -16.0731 -9.236501 -6.303 -7.975 -7.476 -6.026 -8.5395 -12.5898 -12.0869 -13.6911 
-14.5957 -15.3675 -20.0672 -19.0524 -20.0244 -16.5155 -16.3216 -9.236501 -8.909 -8.708 -10.6875 -8.5395 -14.1993 -13.7223 -16.5415 
-1.934 -3.5085 -3.0435 -5.419 0 -4.469 -1.756 -4.071 -3.627 -2.489 -1.4985 -3.8385 -1.7565 -1.4985 -3.891 -4.1395 -1.934 -3.432 -3.836 -3.883 -1.756 -3.674 
-5.161 -6.5705 -8.6195 -5.419 -4.469 -6.001 -5.619 -5.4245 -7.5865 -3.9675 -4.778501 -4.716001 -2.4195 -5.2725 -6.588 -5.586 -5.689 -5.1825 -8.104 -5.146 -5.4215 
-8.636001 -9.9375 -8.6195 -10.688 -6.001 -6.303 -7.1395 -9.691 -8.627 -7.08 -5.202 -5.204 -6.12 -6.809 -8.061501 -10.2595 -6.6485 -10.0155 -9.236501 -6.361 
-12.2776 -9.9375 -13.9881 -12.22 -6.303 -7.955 -11.8054 -10.7315 -12.5645 -7.316 -5.5205 -8.5915 -8.133501 -8.196 -12.8548 -11.219 -10.647 -11.148 -9.5185 
-12.2776 -16.3527 -15.5201 -12.522 -7.955 -12.8583 -12.8459 -14.669 -12.8005 -7.6045 -9.3505 -11.0262 -9.135501 -12.9949 -13.8143 -15.2175 -11.7795 -11.43 
-3.5085 -3.8355 -1.756 -4.071 -4.425 -3.5085 -3.8355 -4.2085 0 -1.934 -3.432 -4.2085 -3.883 -1.756 -3.2275 
-7.0305 -5.1405 -5.619 -9.4245 -8.734 -7.0305 -8.091001 -4.2085 -1.934 -5.689 -5.757 -8.252001 -5.146 -5.0605 
-8.283 -7.895 -11.5257 -13.9229 -12.4752 -11.9848 -8.091001 -6.007 -5.689 -7.256001 -10.5425 -9.506501 -7.4235 
-11.4605 -14.2761 -16.0241 -17.6641 -17.4295 -11.9848 -10.4265 -10.281 -7.256001 -12.4945 -11.797 -11.8408 
-17.8416 -18.7745 -19.7653 -22.6184 -17.4295 -14.3203 -14.7005 -11.848 -12.4945 -13.749 -14.1313 
-4.426 -1.7565 -1.4985 -3.6115 -4.7285 -4.1555 -3.147 -2.264 -3.5085 -3.0435 -4.867 0 -4.469 0 -4.071 -3.0435 -2.4945 -2.264 -3.177 -4.521 -1.7695 -3.883 0 -3.674 0 
-5.47 -2.4195 -4.081 -6.5495 -8.4455 -5.77 -5.243 -6.172 -6.5705 -6.649 -4.867 -4.469 -4.469 -4.071 -6.1565 -6.156 -4.634 -4.764501 -9.014 -5.107 -5.518 -3.883 -3.674 -3.674 
-5.9535 -5.180501 -6.670501 -9.978001 -9.541501 -8.72 -9.572001 -9.344001 -11.1524 -6.649 -9.5185 -4.469 -6.469 -6.1565 -9.0395 -8.825001 -7.005 -11.5287 -9.459001 -9.630001 -5.518 -5.6825 -3.674 
-8.462501 -7.797 -10.054 -11.0524 -12.4915 -13.291 -13.0896 -13.9513 -11.1524 -11.7763 -9.5185 -6.469 -8.769501 -9.0395 -11.7425 -11.5538 -14.303 -11.9737 -14.4094 -9.630001 -8.646501 -5.6825 
-10.2375 -11.2985 -11.1648 -14.0024 -17.0625 -16.8086 -17.6969 -13.9513 -16.2797 -11.7763 -11.9643 -8.769501 -12.0519 -11.7425 -14.4713 -18.8518 -14.748 -16.9241 -14.4094 -12.9259 -8.646501 
