-4.759 
n/a 
n/a 
n/a 
n/a 
-4.759 
n/a 
n/a 
n/a 
n/a 
-4.759 
n/a 
n/a 
n/a 
n/a 
-4.759 
n/a 
n/a 
n/a 
n/a 
-2.3615 -3.7965 -4.317 -4.926 0 -5.6305 -4.5845 0 
-5.157 -7.787001 -8.349501 -4.926 -5.6305 -7.002501 -4.5845 
-9.894501 -12.7187 -8.349501 -9.4795 -7.002501 -7.002501 
-14.8262 -12.7187 -10.634 -9.581 -7.002501 
-14.8262 -15.0032 -10.6815 -9.581 
-2.5195 -2.3615 -3.115 -3.994 -4.926 0 -5.6305 -4.5845 0 -3.843 0 
-4.4095 -6.408 -7.9265 -9.2915 -4.926 -5.6305 -7.002501 -4.5845 -3.843 -3.843 
-8.732 -11.5717 -13.5676 -9.2915 -9.4795 -7.002501 -7.002501 -8.531501 -3.843 
-14.0079 -17.2128 -13.5676 -14.2654 -9.581 -7.002501 -11.6107 -8.531501 
-19.649 -17.2128 -18.5415 -14.3669 -9.581 -11.6107 -11.6107 
-1.934 -2.3335 -4.317 -4.891 -1.756 -5.7385 -4.891 -3.152 -3.9285 0 
-4.359 -7.052 -7.487 -6.593 -7.489501 -9.608 -7.253 -5.8345 -3.9285 
-9.2685 -10.757 -8.679001 -13.0147 -11.96 -12.1276 -10.4265 -5.8345 
-13.1661 -11.949 -15.4171 -17.4852 -14.4796 -15.3011 -10.4265 
-14.3581 -18.6871 -19.8876 -20.0048 -17.6531 -15.3011 
-1.934 -2.3335 -6.234 -4.926 0 -5.6305 -4.5845 -3.074 -3.9285 
-4.359 -9.0185 -11.9422 -4.926 -5.6305 -7.002501 -8.1435 -5.4325 
-11.6364 -14.9149 -11.9422 -9.4795 -7.002501 -10.1815 -10.66 
-17.5328 -14.9149 -16.4957 -9.581 -10.1815 -12.698 
-17.5328 -19.4684 -16.5972 -13.1348 -12.698 
