-4.759 
n/a 
n/a 
n/a 
n/a 
-4.759 
n/a 
n/a 
n/a 
n/a 
-4.759 
n/a 
n/a 
n/a 
n/a 
-4.759 
n/a 
n/a 
n/a 
n/a 
-4.4155 -2.356 -1.8085 -4.202 0 
-7.086 -3.4075 -5.58 -4.202 
-8.229 -6.6745 -5.58 
-11.7448 -6.6745 
-11.7448 
-2.9805 -4.1585 -2.356 -3.4155 -4.333 
-5.319 -6.922501 -5.218 -6.7425 
-9.078501 -8.485001 -8.184501 
-10.3165 -10.7495 
-12.581 
-3.1495 -3.644 -3.383 -5.956 0 
-8.151501 -6.1035 -8.163 -5.956 
-10.7262 -10.1145 -8.163 
-14.7372 -10.1145 
-14.7372 
-2.9805 -4.744 -2.4265 -5.0915 0 
-6.467 -6.314001 -7.422501 -5.0915 
-8.222 -11.855 -7.422501 
-13.9882 -11.855 
-13.9882 
