-4.759 
n/a 
n/a 
n/a 
n/a 
-4.759 
n/a 
n/a 
n/a 
n/a 
-4.759 
n/a 
n/a 
n/a 
n/a 
-4.759 
n/a 
n/a 
n/a 
n/a 
-1.934 -3.0835 -3.995 -4.0375 -3.106 -5.513 0 
-5.331 -6.769 -7.252501 -7.6885 -8.0255 -5.513 
-10.1345 -11.2779 -11.5403 -12.766 -8.0255 
-14.2756 -15.5657 -16.6178 -12.766 
-18.5634 -20.6432 -16.6178 
-1.756 -2.4265 -2.742 -2.489 -7.354001 -1.934 -5.936 0 
-3.949 -4.095 -3.301 -10.6605 -9.543501 -8.619 -5.936 
-5.276 -4.601 -11.9161 -12.85 -16.3817 -8.619 
-5.7665 -13.4703 -14.1056 -19.6882 -16.3817 
-14.9284 -15.6598 -20.9438 -19.6882 
-3.0835 0 -1.934 -1.4985 -5.936 -3.1205 -5.7335 
-3.0835 -1.934 -2.6125 -6.1495 -9.357 -8.2095 
-5.265 -2.6125 -8.52 -9.83 -14.7402 
-5.862 -8.52 -12.4229 -15.2584 
-12.1005 -12.4229 -17.8513 
-3.0835 -4.35 -1.7565 -9.791 -3.42 0 -6.02 -1.7565 -3.9475 0 -2.186 -3.1205 -4.323 
-6.4445 -5.3865 -12.4967 -13.3172 -3.42 -6.02 -6.981501 -5.2715 -3.9475 -2.186 -6.274 -6.831 
-7.104 -16.8515 -16.0229 -13.3172 -8.9665 -6.981501 -7.273001 -5.2715 -5.855 -6.274 -8.799001 
-18.8636 -20.3777 -16.0229 -18.8637 -10.6605 -7.273001 -7.273001 -7.227 -9.986501 -8.799001 
-22.3898 -20.3777 -21.5694 -20.5577 -10.952 -7.273001 -9.043501 -11.4199 -12.6547 
