-4.759 
n/a 
n/a 
n/a 
n/a 
-4.759 
n/a 
n/a 
n/a 
n/a 
-4.759 
n/a 
n/a 
n/a 
n/a 
-4.759 
n/a 
n/a 
n/a 
n/a 
-4.628 -5.939 -2.229 -3.3825 -1.7565 -3.36 -3.5125 
-5.9615 -8.535 -5.6745 -4.3095 -5.318501 -6.924 
-8.5745 -12.3345 -6.844501 -7.7745 -8.530001 
-12.4188 -13.5045 -10.757 -11.499 
-13.5888 -17.417 -14.4815 
-3.5125 -1.7565 -6.2095 -3.6215 -1.7565 -4.628 -4.743 
-4.312 -8.632 -10.8258 -3.936 -6.107501 -4.7515 
-11.7297 -13.4059 -11.1403 -9.031 -6.281001 
-16.5036 -13.7204 -16.2353 -9.076 
-16.8181 -18.8154 -16.2803 
-6.899 -4.789 -3.6215 -3.5125 
-12.6984 -8.32 -6.9175 
-16.2294 -11.7722 
-19.6816 
n/a 
-3.5125 -1.7565 -8.643001 -4.789 
-4.312 -10.2135 -13.647 
-13.3112 -15.2175 
-18.3152 
n/a 
