-4.759 
n/a 
n/a 
n/a 
n/a 
-4.759 
n/a 
n/a 
n/a 
n/a 
-4.759 
n/a 
n/a 
n/a 
n/a 
-4.759 
n/a 
n/a 
n/a 
n/a 
-3.0415 -2.3335 -3.098 -3.135 -3.1385 -5.759501 -2.3335 -2.925 -5.448 -5.4425 -6.5625 -2.356 -3.9355 -3.845 0 
-4.132 -5.0465 -5.9945 -4.8745 -7.697001 -7.971001 -4.0295 -7.6485 -11.8143 -7.282 -9.183001 -5.9975 -6.676001 -3.845 
-6.0835 -7.4055 -7.8425 -8.6365 -9.614501 -9.7335 -8.581 -14.8042 -13.6538 -9.499001 -12.9167 -8.905001 -6.676001 
-8.92 -8.608001 -11.8665 -9.986501 -11.3878 -14.4466 -15.7485 -16.6437 -15.8708 -13.3441 -15.8242 -8.905001 
-10.096 -12.9576 -13.2165 -11.7598 -16.1009 -21.6141 -17.588 -18.8607 -19.7159 -16.2516 -15.8242 
-2.871 -3.2795 -1.7565 -3.1385 -4.4015 -3.1495 -2.5685 -4.2895 -2.4945 -5.0825 -5.4425 -6.5625 0 
-5.8545 -4.4575 -4.388 -7.311 -8.034 -6.428 -7.14 -6.288 -7.7375 -11.8116 -7.282 -6.5625 
-6.4525 -5.6625 -8.380501 -10.733 -11.6111 -10.27 -8.9335 -12.0936 -14.7912 -13.6511 -7.282 
-7.305501 -8.8935 -12.0381 -14.3101 -15.4531 -12.1959 -15.0141 -19.1473 -16.6307 -13.6511 
-10.6735 -12.7651 -15.6152 -18.1521 -17.379 -18.2765 -22.0678 -20.9868 -16.6307 
-3.0415 -4.859 -1.8085 -4.031 -3.135 -3.2795 -1.7565 -3.1385 -2.4945 -4.7135 -2.3335 -5.4425 -6.5625 -3.251 -3.1125 -4.9055 -2.3345 -3.845 
-6.620501 -5.9895 -5.249001 -6.6425 -6.898001 -4.4575 -4.388 -4.588 -6.238501 -6.6915 -8.0585 -7.282 -9.163501 -4.28 -6.4275 -5.839001 -6.6095 
-7.7515 -8.824 -8.213 -10.749 -7.698501 -5.6625 -5.892 -7.535501 -8.5245 -12.8005 -10.4035 -9.541 -10.3895 -7.3255 -6.9485 -9.772 
-10.316 -12.2236 -12.5909 -11.5495 -8.277 -7.598001 -8.8485 -9.788 -14.7347 -15.1455 -12.6625 -10.7832 -13.435 -7.813 -10.7025 
-13.8332 -16.6015 -13.3914 -12.128 -9.9615 -10.7671 -11.1378 -16.102 -17.0797 -17.4045 -13.9047 -13.8287 -13.9225 -11.6902 
-4.859 -3.5485 -5.4425 -6.5625 -2.7415 -4.912 -2.356 -3.6205 -2.186 -1.4985 -5.9665 -1.7565 -3.135 -3.32 0 
-6.023 -9.359 -7.282 -8.714001 -6.759501 -7.403501 -6.802501 -5.2355 -3.339 -6.604501 -6.858 -4.6765 -7.7435 -3.32 
-12.4487 -11.4131 -9.127 -12.8614 -9.1675 -12.3622 -9.734001 -6.6435 -8.406 -7.373501 -9.508 -9.036 -7.7435 
-14.5028 -13.2581 -13.3638 -15.2694 -14.2074 -15.2937 -11.2118 -12.1441 -9.177 -10.1675 -13.9793 -9.036 
-16.3478 -17.4949 -15.7718 -20.3093 -17.1389 -16.7715 -16.7124 -12.9151 -11.9922 -14.6388 -13.9793 
