-4.759 
n/a 
n/a 
n/a 
n/a 
-4.759 
n/a 
n/a 
n/a 
n/a 
-4.759 
n/a 
n/a 
n/a 
n/a 
-4.759 
n/a 
n/a 
n/a 
n/a 
-3.769 -4.4345 0 
-8.014501 -4.4345 
-8.014501 
n/a 
n/a 
-3.769 -3.868 0 -3.673 -5.805 
-5.601501 -3.868 -3.673 -8.830501 
-5.601501 -8.819 -9.011001 
-11.1101 -14.4986 
-16.7897 
-4.013 -4.216 -4.39 -2.7765 -3.074 -4.4775 -1.7695 -2.3615 
-8.298 -6.1805 -7.059 -4.359 -6.289001 -4.816501 -3.736 
-9.9305 -8.4385 -8.9835 -7.12 -6.4075 -6.127501 
-12.2617 -10.051 -11.8233 -7.2485 -7.9455 
-13.8742 -13.0534 -11.9518 -8.6975 
-3.769 -4.4345 
-8.014501 
n/a 
n/a 
n/a 
