-4.759 
n/a 
n/a 
n/a 
n/a 
-4.759 
n/a 
n/a 
n/a 
n/a 
-4.759 
n/a 
n/a 
n/a 
n/a 
-4.759 
n/a 
n/a 
n/a 
n/a 
-2.925 -2.4945 -8.933001 -1.756 -5.831 -6.249 
-3.7675 -12.8557 -10.6345 -8.085001 -6.4665 
-14.3541 -14.5572 -16.9635 -8.783001 
-16.0556 -20.8862 -17.6615 
-22.3846 -21.5842 
-1.4985 -2.4945 -3.9205 -2.5045 -5.831 -7.311501 -1.756 -6.965 -6.249 0 
-6.1475 -5.3595 -4.449 -8.568501 -11.117 -9.766001 -8.516001 -7.0305 -6.249 
-9.134001 -6.1115 -10.016 -14.4081 -13.5715 -16.577 -8.54 -7.0305 
-9.771 -11.9153 -15.938 -16.8626 -20.3825 -16.601 -8.54 
-15.6054 -17.8373 -18.3925 -23.6736 -20.4065 -16.601 
-2.925 -2.4945 -6.965 -5.8395 -1.756 -5.831 -5.8395 
-3.7675 -10.688 -10.821 -7.643001 -8.085001 -10.1225 
-12.1864 -14.4402 -12.6245 -14.3606 -12.7239 
-15.9386 -16.2437 -19.3421 -18.9995 
-17.7421 -22.9613 -23.981 
-2.925 -2.4945 -6.965 -5.8395 -1.756 -5.831 -5.8395 
-3.7675 -10.688 -10.821 -7.643001 -8.085001 -10.1225 
-12.1864 -14.4402 -12.6245 -14.3606 -12.7239 
-15.9386 -16.2437 -19.3421 -18.9995 
-17.7421 -22.9613 -23.981 
