-4.759 
n/a 
n/a 
n/a 
n/a 
-4.759 
n/a 
n/a 
n/a 
n/a 
-4.759 
n/a 
n/a 
n/a 
n/a 
-4.759 
n/a 
n/a 
n/a 
n/a 
-4.4245 0 -9.080001 0 -2.701 0 
-4.4245 -9.080001 -9.080001 -2.701 -2.701 
-13.8719 -9.080001 -12.1226 -2.701 
-13.8719 -12.1226 -12.1226 
-16.9145 -12.1226 
-4.4245 -5.7865 0 -2.701 0 
-10.5535 -5.7865 -2.701 -2.701 
-10.5535 -9.861501 -2.701 
-14.6285 -9.861501 
-14.6285 
-4.4245 0 -9.080001 0 -2.701 0 
-4.4245 -9.080001 -9.080001 -2.701 -2.701 
-13.8719 -9.080001 -12.1226 -2.701 
-13.8719 -12.1226 -12.1226 
-16.9145 -12.1226 
-4.4245 0 -6.1665 0 -2.701 0 
-4.4245 -6.1665 -6.1665 -2.701 -2.701 
-10.298 -6.1665 -9.978001 -2.701 
-10.298 -9.978001 -9.978001 
-14.1095 -9.978001 
