-4.759 
n/a 
n/a 
n/a 
n/a 
-4.759 
n/a 
n/a 
n/a 
n/a 
-4.759 
n/a 
n/a 
n/a 
n/a 
-4.759 
n/a 
n/a 
n/a 
n/a 
-2.925 -3.5795 -3.2495 -2.4285 -2.645 -4.285 -4.7315 0 
-5.773 -6.261001 -4.957 -4.1105 -6.9315 -7.3015 -4.7315 
-8.1145 -7.6645 -5.207 -8.1165 -10.3045 -7.3015 
-10.1345 -7.762001 -8.9425 -10.523 -10.3045 
-10.335 -11.7953 -10.647 -10.523 
-2.925 -2.4945 -4.0935 -3.2495 -2.4285 -2.645 -3.1575 -3.307 -3.8145 0 
-3.7675 -8.592001 -6.143 -4.957 -4.1105 -3.72 -7.705501 -6.1775 -3.8145 
-10.107 -10.598 -7.758 -5.207 -6.0635 -8.771501 -10.9656 -6.1775 
-12.2468 -12.213 -7.829 -8.2015 -11.5168 -12.0674 -10.9656 
-13.8618 -12.284 -11.1411 -14.6592 -14.8127 -12.0674 
-2.4265 -3.5795 -3.2495 -2.4285 -2.645 -6.785501 -3.8145 
-6.6875 -6.261001 -4.957 -4.1105 -11.08 -10.9575 
-9.545 -7.6645 -5.207 -13.2163 -15.252 
-10.9949 -7.762001 -14.769 -17.3883 
-11.0924 -17.6218 -18.941 
-3.1495 -3.2495 -2.4285 -3.7515 -3.9555 -3.8145 -3.5005 0 
-4.8975 -4.957 -5.3875 -8.7015 -7.4615 -7.0565 -3.5005 
-7.966 -8.9845 -10.485 -12.4557 -11.5445 -7.0565 
-11.4851 -14.2362 -14.2392 -16.5387 -11.5445 
-16.7368 -17.9904 -18.3222 -16.5387 
