-4.759 
n/a 
n/a 
n/a 
n/a 
-4.759 
n/a 
n/a 
n/a 
n/a 
-4.759 
n/a 
n/a 
n/a 
n/a 
-4.759 
n/a 
n/a 
n/a 
n/a 
-3.188 -5.1845 -3.127 -3.433 -3.307 
-8.0565 -9.3255 -6.3415 -5.832 
-12.9373 -13.2698 -10.264 
-16.8816 -17.1923 
-20.8041 
-3.188 -5.1845 -3.433 -3.2795 0 
-8.0565 -9.599501 -6.0165 -3.2795 
-13.2113 -12.4886 -6.0165 
-16.1004 -12.4886 
-16.1004 
-3.188 -5.1845 -2.915 -3.433 -3.9535 
-8.0565 -9.107 -4.682 -6.5275 
-12.7188 -9.8035 -7.9085 
-13.4153 -13.1914 
-16.8032 
-3.38 -5.1845 -2.915 -3.307 
-8.237 -9.107 -5.2625 
-13.1751 -10.5435 
-14.6116 
n/a 
