-4.759 
n/a 
n/a 
n/a 
n/a 
-4.759 
n/a 
n/a 
n/a 
n/a 
-4.759 
n/a 
n/a 
n/a 
n/a 
-4.759 
n/a 
n/a 
n/a 
n/a 
-4.129 -4.126 -4.442 0 -4.442 -1.7565 -3.6135 -4.2085 -2.882 -2.489 0 
-8.4655 -9.190001 -4.442 -4.442 -6.240001 -5.479 -8.1105 -7.643001 -3.631 -2.489 
-13.7901 -9.190001 -7.163501 -6.240001 -10.096 -9.995001 -11.9036 -8.268001 -3.631 
-13.7901 -11.9467 -8.885501 -10.096 -14.7268 -13.8667 -12.5286 -8.268001 
-16.5468 -13.6687 -12.9501 -14.7268 -18.5985 -14.4917 -12.5286 
-4.253 -4.442 0 -3.768 -4.8445 -1.934 -4.2285 -4.9545 -3.098 0 
-9.4825 -4.442 -3.768 -9.925501 -6.3775 -5.8895 -7.7945 -8.283001 -3.098 
-9.4825 -8.003 -9.925501 -11.4585 -10.3675 -9.014501 -11.5418 -8.283001 
-13.1045 -14.3789 -11.4585 -15.4485 -13.4925 -12.669 -11.5418 
-19.4804 -15.9119 -15.4485 -18.5735 -17.147 -12.669 
-4.129 -3.8405 -4.0455 -2.4945 -3.8825 -1.7695 -3.45 -1.7565 -4.2085 -4.442 
-8.154501 -9.025001 -6.871 -5.5245 -4.5575 -4.5965 -4.638 -5.647 -6.883 
-13.5656 -12.0135 -9.555 -5.799 -5.6445 -5.626 -9.258 -7.605 
-16.5541 -14.6975 -9.875501 -6.3225 -6.266 -10.286 -10.5335 
-19.2381 -15.018 -10.569 -6.87 -10.853 -11.5615 
-4.1805 -4.763 -3.6135 -4.2085 -3.898 -2.925 -4.442 -2.4945 -4.25 -3.301 0 
-6.5945 -8.693001 -8.1105 -7.328001 -7.441 -7.590001 -5.9795 -6.028 -7.246 -3.301 
-11.1537 -13.6592 -11.5886 -11.3204 -12.8278 -9.485001 -9.062501 -8.554501 -7.246 
-16.1199 -17.1373 -15.581 -16.7072 -14.7228 -12.59 -11.847 -8.554501 
-19.598 -21.1297 -20.9678 -18.6022 -17.8278 -15.3745 -11.847 
