-4.759 
n/a 
n/a 
n/a 
n/a 
-4.759 
n/a 
n/a 
n/a 
n/a 
-4.759 
n/a 
n/a 
n/a 
n/a 
-4.759 
n/a 
n/a 
n/a 
n/a 
-1.4985 -3.6115 -4.126 -3.644 -3.3975 0 -4.3285 0 -3.4005 0 -3.5895 -3.0365 -3.074 
-4.081 -5.923 -7.955001 -7.665001 -3.3975 -4.3285 -4.3285 -3.4005 -3.4005 -3.5895 -6.4355 -5.981501 
-6.248 -10.4595 -11.979 -7.665001 -8.7005 -4.3285 -8.129001 -3.4005 -6.9065 -6.4355 -9.2355 
-11.3323 -14.4835 -11.979 -13.415 -8.7005 -8.129001 -8.129001 -6.9065 -10.7335 -9.2355 
-15.3563 -14.4835 -17.729 -13.415 -12.9066 -8.129001 -11.9438 -10.7335 -13.5335 
-3.6115 -8.6105 0 -3.4005 -1.756 -8.620501 0 
-13.3975 -9.570001 -3.4005 -4.503 -11.136 -8.620501 
-13.5161 -12.3083 -4.503 -15.275 -11.136 
-16.2544 -13.8268 -15.275 -15.275 
-17.7729 -24.9944 -15.275 
-3.6115 -3.717 0 -2.7455 -3.3975 0 -4.3285 0 -3.4005 0 -3.778 -1.756 -3.0785 0 
-6.7825 -3.717 -2.7455 -6.312 -3.3975 -4.3285 -4.3285 -3.4005 -3.4005 -3.778 -5.524 -4.899 -3.0785 
-6.7825 -6.571 -6.312 -6.312 -8.7005 -4.3285 -8.129001 -3.4005 -7.9115 -5.524 -9.160501 -4.899 
-10.4035 -11.0901 -6.312 -12.3546 -8.7005 -8.129001 -8.129001 -7.9115 -9.863501 -9.160501 -9.160501 
-14.9226 -11.0901 -12.3546 -12.3546 -12.9066 -8.129001 -12.9488 -9.863501 -13.5188 -9.160501 
-3.6115 -3.892 0 -3.3975 0 -4.037 0 -3.4005 0 -1.756 -3.992 
-6.9975 -3.892 -3.3975 -3.3975 -4.037 -4.037 -3.4005 -3.4005 -1.756 -5.193501 
-6.9975 -7.9525 -3.3975 -8.2335 -4.037 -8.2825 -3.4005 -4.503 -5.193501 
-11.7204 -7.9525 -8.2335 -8.2335 -8.2825 -8.2825 -4.503 -8.6005 
-11.7204 -13.2209 -8.2335 -12.8214 -8.2825 -9.588 -8.6005 
