-4.759 
n/a 
n/a 
n/a 
n/a 
-4.759 
n/a 
n/a 
n/a 
n/a 
-4.759 
n/a 
n/a 
n/a 
n/a 
-4.759 
n/a 
n/a 
n/a 
n/a 
-1.934 -5.371 0 -3.5195 -2.855 0 -4.8045 -1.7565 -8.3745 -6.1285 -1.756 -6.1565 -7.923 0 -8.066501 -2.7415 -4.2215 -2.9805 -2.8645 -3.301 -1.934 -5.154 -2.5045 -1.4985 -3.7515 -1.7565 -4.748 -4.761 
-6.5765 -5.371 -3.5195 -5.4615 -2.855 -4.8045 -6.9875 -11.0802 -14.9514 -7.821001 -7.9315 -9.423 -7.923 -8.066501 -11.117 -4.7885 -6.969501 -4.3245 -5.956 -5.499001 -8.241 -7.5515 -3.1915 -4.705501 -4.6045 -7.118501 -9.526501 
-6.5765 -8.5275 -5.4615 -5.4615 -8.217501 -6.9875 -16.8268 -17.6571 -16.6439 -14.3917 -11.501 -9.423 -16.4007 -11.117 -13.164 -7.1835 -8.4145 -7.1525 -8.9455 -12.4074 -10.9115 -8.061501 -5.443 -4.844501 -10.7025 -12.6658 
-10.66 -10.4945 -5.4615 -11.9212 -10.7447 -16.8268 -23.4037 -19.3496 -23.2146 -17.9612 -11.501 -18.0805 -19.4512 -13.164 -15.559 -8.701 -11.4849 -9.6695 -16.5487 -15.0779 -11.4215 -9.362 -5.454 -11.5685 -16.2498 
-12.627 -10.4945 -11.9212 -14.4484 -20.584 -23.4037 -25.0962 -25.9203 -26.7841 -17.9612 -20.1585 -21.131 -21.4982 -15.559 -17.0765 -11.8708 -14.0019 -17.8145 -19.2192 -15.5879 -12.722 -9.363501 -13.6938 -17.1158 
-1.934 -3.5195 -2.855 -5.371 0 -2.9805 -2.7415 -4.2215 -1.7565 -9.9495 -2.0935 -9.338 -6.1285 -1.756 -7.728 -7.923 0 -2.9805 -2.7415 -3.849 -12.16972 0 -1.756 -2.5045 -1.4985 -3.7515 -1.7565 -2.855 -2.9805 -3.7555 -4.649 -1.934 -5.029 
-5.009 -5.4615 -7.919 -5.371 -2.9805 -4.004 -4.7885 -6.009501 -10.9315 -12.1382 -12.4225 -15.7961 -7.821001 -9.5345 -16.1292 -7.923 -2.9805 -4.004 -5.431 -16.17932 -12.16972 -1.756 -4.604 -3.1915 -4.705501 -4.6045 -5.1705 -6.615 -5.3095 -9.7375 -5.302 -7.937 
-7.8885 -9.447001 -7.919 -7.5535 -4.004 -5.7885 -6.9515 -16.0231 -13.1202 -22.4672 -18.8806 -17.4886 -15.9947 -17.9677 -16.1292 -10.3415 -4.004 -6.6115 -18.15012 -16.17932 -13.92572 -4.604 -5.134 -5.443 -4.844501 -7.0135 -8.146501 -9.074 -11.7469 -10.193 -12.4368 
-12.3422 -9.447001 -10.1145 -8.118501 -5.7885 -7.8455 -17.3335 -18.2118 -23.4492 -28.9253 -20.5731 -25.6623 -24.4279 -17.9677 -18.5477 -11.365 -6.6115 -19.74382 -18.15012 -17.93532 -16.77372 -5.134 -7.2465 -5.454 -7.073501 -8.2095 -10.3675 -15.6702 -12.2024 -17.5456 
-12.3422 -11.7921 -10.64 -9.56 -7.8455 -18.5997 -19.5222 -28.5408 -29.9073 -30.6178 -28.7468 -34.0955 -24.4279 -20.3862 -19.5712 -13.9725 -19.74382 -19.74382 -19.90612 -20.78332 -17.30372 -7.2465 -7.255 -7.288001 -8.242001 -10.396 -17.2611 -16.1257 -19.555 
-1.934 -4.5255 -3.158 -3.5195 -2.855 -8.3745 -7.015501 -6.1565 -8.903001 -3.074 -12.16972 -1.934 -4.2215 -8.066501 -2.8705 -6.6065 -3.284 -3.833 -3.486 -4.052 -1.4985 -5.154 0 
-5.7045 -7.7275 -6.867001 -5.4615 -11.8457 -15.8384 -14.2322 -15.8557 -12.3506 -16.24412 -14.10372 -7.42 -13.4132 -11.714 -11.266 -10.3855 -7.354501 -8.5795 -9.046 -4.752 -5.884001 -5.154 
-9.867001 -12.4077 -8.820001 -15.5494 -19.3096 -23.0551 -23.9314 -19.3033 -25.52072 -18.17812 -19.58972 -16.9207 -17.0607 -20.4101 -15.8466 -16.0444 -12.4888 -14.6729 -9.7945 -10.1319 -5.884001 
-14.5472 -14.3607 -19.3273 -23.0133 -26.5263 -32.7543 -27.379 -32.47342 -27.45472 -23.66412 -29.09042 -20.5682 -25.7568 -24.6901 -20.6655 -21.1787 -18.5822 -15.4214 -15.373 -10.1319 
-16.5002 -24.868 -26.7912 -30.23 -36.2255 -36.2019 -40.54912 -34.40742 -32.94072 -33.16482 -32.73792 -29.2643 -30.0368 -29.509 -25.7998 -27.2721 -19.3307 -20.9999 -15.373 
-2.264 -3.5195 -8.226 -7.211 0 -10.526 0 -2.7415 -4.2215 -1.7695 -8.3745 -6.1285 -1.756 -6.1565 -7.923 -2.9805 -4.517 -3.091 -5.2595 -1.934 -5.029 -10.2055 -3.4765 -3.5455 -3.284 -3.4795 
-4.863 -10.5255 -15.7488 -7.211 -10.526 -10.526 -2.7415 -4.7885 -5.594 -11.1262 -14.9514 -7.821001 -7.9315 -9.423 -10.3415 -6.484 -6.2355 -6.6335 -6.602 -7.937 -16.0675 -13.7286 -6.145 -6.408501 -6.124001 
-10.3645 -17.4498 -15.9218 -18.3186 -10.526 -13.4095 -4.7885 -6.463 -15.7997 -17.7031 -16.6439 -14.3917 -11.501 -12.0213 -13.845 -7.120501 -10.688 -7.881001 -13.1618 -19.1949 -19.5906 -16.3971 -9.061001 -8.3535 
-18.2944 -17.5994 -27.0294 -18.3186 -13.4095 -15.4565 -6.463 -16.7635 -22.3766 -19.3956 -23.2146 -17.9612 -14.0993 -15.5248 -14.4815 -11.5784 -11.9355 -14.5752 -24.4197 -22.718 -22.2591 -19.3131 -10.513 
-18.3836 -28.707 -27.0294 -21.2021 -15.4565 -17.131 -16.7635 -23.3404 -24.0691 -25.9663 -26.7841 -20.5595 -17.6028 -16.1613 -18.9394 -12.8259 -18.6297 -25.8331 -27.9428 -25.3865 -25.1751 -20.7651 
