-4.759 
n/a 
n/a 
n/a 
n/a 
-4.759 
n/a 
n/a 
n/a 
n/a 
-4.759 
n/a 
n/a 
n/a 
n/a 
-4.759 
n/a 
n/a 
n/a 
n/a 
-3.1495 -2.4945 -3.7555 -4.0775 -3.3255 -3.135 -3.326 -1.756 -3.135 -4.5735 -3.7825 -3.277 -3.436 -4.673 0 
-4.459 -7.723001 -8.0885 -7.588 -5.8075 -5.9565 -4.4115 -4.5755 -7.018001 -9.928 -6.323 -5.4395 -9.3195 -4.673 
-9.836 -12.3504 -12.0234 -9.8585 -8.837001 -6.8015 -7.7255 -8.628 -12.5921 -12.6345 -7.935501 -10.674 -9.3195 
-14.7314 -16.2853 -14.2939 -12.8316 -9.7775 -8.948 -11.9806 -14.2619 -15.2986 -14.247 -13.5436 -10.674 
-18.6663 -18.5558 -17.267 -13.7721 -11.9904 -13.2417 -17.6145 -16.9684 -16.9111 -19.8551 -13.5436 
-1.934 -4.0775 -5.9155 -3.1495 -4.088 -5.3075 -4.5735 -5.1845 -4.1395 -2.4945 -3.6215 -2.356 -5.804 -3.7825 -1.7565 -3.158 0 
-6.7195 -9.467501 -8.958 -6.193 -10.3415 -9.702001 -8.3575 -9.258501 -5.9615 -6.150001 -5.448 -7.177001 -7.8875 -6.338 -5.26 -3.158 
-12.6763 -12.7922 -12.0685 -12.9067 -14.736 -13.721 -12.8403 -10.4515 -9.967001 -9.165001 -10.9225 -11.9025 -12.2925 -10.76 -5.26 
-16.001 -15.9027 -18.7822 -17.3012 -18.755 -18.2038 -14.0333 -14.457 -13.2538 -15.0089 -15.651 -15.9011 -16.9895 -10.76 
-19.1115 -22.6164 -23.1767 -21.3202 -23.2378 -19.3968 -18.0388 -17.7438 -19.0977 -19.422 -19.645 -20.3231 -16.9895 
-5.1845 -4.1395 -5.12 -3.3255 -1.4985 -5.063 -3.43 -1.934 -3.1495 -4.088 -3.88 -2.4945 -2.5045 -1.4985 -3.76 -2.5195 -3.7825 -5.804 0 
-9.258501 -9.686001 -7.122001 -3.8945 -6.714001 -7.9945 -4.639 -4.5395 -6.193 -8.316501 -6.229 -4.891 -3.1915 -5.0205 -6.501 -6.3755 -7.9855 -4.165 
-14.8888 -11.9596 -7.746 -9.06 -9.331 -9.4095 -7.209001 -7.086501 -9.9945 -10.5535 -8.620001 -5.5745 -6.4235 -7.873 -10.9676 -9.4525 -7.4405 
-17.1624 -12.5836 -13.2441 -11.9684 -10.6745 -12.1351 -10.0925 -10.9446 -12.4547 -12.9445 -9.4235 -8.488501 -9.279 -12.2286 -13.4326 -8.8405 
-17.7864 -18.0817 -16.1525 -13.3119 -13.4001 -15.0186 -13.9506 -13.4048 -14.8457 -13.748 -12.3817 -11.4406 -13.6026 -14.6936 -13.4326 
-1.4985 -4.5865 -1.756 -4.321 -2.264 -3.1495 -3.8975 -3.7555 -3.5455 -1.4985 -3.326 -5.267 -2.3335 -2.925 -5.0075 -1.7695 -5.804 -3.7825 
-6.505 -5.7455 -6.0725 -6.219 -4.869 -5.701 -8.7515 -7.7945 -3.91 -4.841001 -7.2205 -5.9845 -4.0295 -8.821501 -5.113 -6.7235 -7.8875 
-7.456 -8.866 -8.0035 -9.073 -7.731 -10.6735 -12.9701 -8.1375 -7.1255 -8.451 -7.534 -7.886 -10.2185 -8.994 -9.5625 -11.4625 
-11.1243 -11.4208 -10.646 -12.084 -12.8015 -14.8921 -13.3131 -11.4582 -11.4723 -8.712001 -9.953501 -14.4362 -10.3305 -14.1342 -14.5947 
-13.6791 -14.0633 -13.657 -17.1545 -17.0201 -15.2351 -16.6338 -15.805 -11.7333 -11.4031 -16.4589 -14.5482 -15.5275 -18.6029 
