-4.759 
n/a 
n/a 
n/a 
n/a 
-4.759 
n/a 
n/a 
n/a 
n/a 
-4.759 
n/a 
n/a 
n/a 
n/a 
-4.759 
n/a 
n/a 
n/a 
n/a 
-3.548 0 -3.473 -3.602 
-3.548 -3.473 -6.7115 
-7.2015 -6.7115 
-10.7025 
n/a 
-3.999 0 -3.0835 -2.9775 -3.602 
-3.999 -3.0835 -5.4115 -6.671 
-7.1735 -5.4115 -10.019 
-10.757 -10.019 
-15.3645 
-4.4675 0 -1.4985 -3.0835 -2.9775 -4.928 
-4.4675 -1.4985 -3.535 -5.4115 -7.925501 
-6.5155 -3.535 -5.815001 -11.3127 
-8.1215 -5.815001 -12.0632 
-11.0413 -12.0632 
-3.2795 0 -3.0835 -2.9775 -4.928 
-3.2795 -3.0835 -5.4115 -7.925501 
-6.7305 -5.4115 -11.3127 
-9.287001 -11.3127 
-15.9036 
