-4.759 
n/a 
n/a 
n/a 
n/a 
-4.759 
n/a 
n/a 
n/a 
n/a 
-4.759 
n/a 
n/a 
n/a 
n/a 
-4.759 
n/a 
n/a 
n/a 
n/a 
0 -3.098 -1.934 -3.6085 -3.845 0 
-3.098 -4.746 -4.739 -6.5015 -3.845 
-4.746 -7.1705 -8.493501 -6.5015 
-7.1705 -10.0605 -8.493501 
-10.0605 -10.0605 
-3.6085 -3.8085 -4.763 -3.098 0 
-8.302 -10.6605 -8.0765 -3.098 
-15.7536 -13.974 -8.0765 
-19.0671 -13.974 
-19.0671 
0 -2.5045 -1.4985 -4.126 -1.7565 -3.6085 -4.5465 -3.098 0 
-2.5045 -3.1915 -5.0885 -5.221001 -5.2885 -8.9975 -7.823 -3.098 
-3.1915 -6.712 -6.211 -9.014001 -9.767 -12.4342 -7.823 
-6.712 -7.1055 -10.092 -13.9879 -13.4065 -12.4342 
-7.1055 -11.0525 -14.9859 -17.6274 -13.4065 
0 -3.6085 -3.518 -3.845 -3.098 0 
-3.6085 -7.0905 -8.415001 -6.741 -3.098 
-7.0905 -12.8047 -11.8074 -6.741 
-12.8047 -16.1971 -11.8074 
-16.1971 -16.1971 
