-4.759 
n/a 
n/a 
n/a 
n/a 
-4.759 
n/a 
n/a 
n/a 
n/a 
-4.759 
n/a 
n/a 
n/a 
n/a 
-4.759 
n/a 
n/a 
n/a 
n/a 
-3.59 -3.5085 -4.02 -3.106 0 -3.1495 0 -4.628 -4.743 -8.863001 0 -3.571 -4.1865 -8.863001 -3.2495 -3.319 -1.7565 -4.957 0 
-7.149 -5.651 -7.023 -3.106 -3.1495 -3.1495 -4.628 -4.7515 -14.8488 -8.863001 -3.571 -7.507 -14.3811 -12.6965 -7.117 -4.165 -6.8025 -4.957 
-8.976501 -8.152 -7.023 -7.0165 -3.1495 -8.9235 -4.7515 -14.9521 -14.8488 -13.018 -7.507 -18.0794 -18.2146 -16.564 -7.6575 -9.844501 -6.8025 
-11.6859 -8.152 -10.172 -7.0165 -8.9235 -9.547 -14.9521 -14.9521 -19.0038 -16.954 -18.0794 -21.9129 -22.0821 -17.1045 -13.504 -9.844501 
-11.6859 -11.1792 -10.172 -13.0003 -9.547 -20.0366 -14.9521 -19.1071 -22.9398 -27.5264 -21.9129 -25.7804 -22.6226 -22.951 -13.504 
-2.925 -2.4945 -3.6215 -3.106 0 -1.7565 -1.4985 -3.5085 -4.02 0 -1.934 -2.3335 -3.0365 -2.4945 -3.2495 -3.9755 -5.939 -5.1845 -1.756 -4.1865 -8.27 
-3.7675 -6.150001 -6.7995 -3.106 -1.7565 -2.4195 -4.4755 -5.651 -4.02 -1.934 -4.359 -4.2925 -3.688 -4.891 -5.5315 -10.9639 -7.814 -7.2435 -5.8775 -11.117 
-7.388 -8.739 -6.7995 -5.563 -2.4195 -5.126 -6.240001 -5.651 -5.502 -4.359 -6.676001 -4.9395 -5.0435 -6.181 -13.4099 -12.8389 -9.6335 -9.7515 -13.3022 
-9.819501 -8.739 -8.4125 -6.1885 -5.126 -6.5205 -6.240001 -7.0255 -7.6945 -6.676001 -7.328501 -6.372 -6.192 -14.6422 -15.2849 -14.6584 -12.2119 -17.2876 
-9.819501 -10.703 -8.886001 -7.8365 -6.5205 -6.5205 -7.304 -8.7025 -10.146 -7.328501 -8.726001 -7.607 -14.6688 -16.5172 -17.1044 -17.2368 -19.748 
-2.925 -3.7875 -4.39 -8.830001 -3.106 0 0 -2.925 -2.4945 -8.468 -3.2495 -6.1285 -2.4945 -4.628 -5.939 -12.16972 -1.756 -4.1865 -8.27 
-7.416501 -9.642501 -14.4294 -12.2224 -3.106 0 -2.925 -3.7675 -9.559501 -12.5733 -8.598001 -8.366001 -8.336 -5.9615 -19.25332 -13.92572 -5.8775 -11.117 
-13.4281 -19.7583 -17.8218 -12.2224 -3.106 -2.925 -3.7675 -11.0579 -14.0778 -17.9218 -10.0745 -14.4003 -9.022 -19.33682 -21.00932 -18.04722 -13.3022 
-23.5439 -23.1507 -17.8218 -12.2224 -7.009 -3.7675 -11.0579 -15.5762 -19.4263 -19.3983 -16.7752 -15.0863 -22.58632 -21.09282 -25.13082 -25.47192 
-26.9363 -23.1507 -17.8218 -16.1254 -7.875 -11.0579 -15.5762 -20.9247 -20.9028 -26.099 -17.4612 -28.65062 -24.34232 -25.21432 -32.55552 
-8.845 -2.7455 -3.106 0 -1.7565 -6.6585 -2.229 -4.02 
-12.2153 -6.086 -3.106 -1.7565 -8.343 -9.037001 -5.6085 
-15.5558 -6.086 -5.563 -8.343 -10.2755 -12.6579 
-15.5558 -7.627 -12.9627 -10.2755 -13.8964 
-17.0968 -15.5107 -14.8952 -13.8964 
