-4.759 
n/a 
n/a 
n/a 
n/a 
-4.759 
n/a 
n/a 
n/a 
n/a 
-4.759 
n/a 
n/a 
n/a 
n/a 
-4.759 
n/a 
n/a 
n/a 
n/a 
-2.264 -1.4985 -3.3755 0 -8.0345 -4.335 -3.5455 -1.4985 -6.813 -4.319 -4.9345 -3.2495 -4.7095 -4.4605 0 
-2.9195 -4.057 -3.3755 -8.0345 -12.7471 -7.444 -3.91 -8.976001 -11.7626 -9.933001 -7.567 -7.2345 -8.299001 -4.4605 
-5.120501 -4.057 -12.4468 -12.7471 -15.8561 -7.822001 -12.3081 -14.1078 -17.3766 -12.6015 -11.958 -9.846001 -8.299001 
-5.120501 -13.4855 -17.1594 -15.8561 -16.2341 -16.4645 -17.4399 -19.7218 -20.0451 -16.9925 -14.5695 -9.846001 
-14.8804 -18.1981 -20.2684 -16.2341 -24.8766 -21.5963 -23.0539 -22.3903 -24.4361 -19.604 -14.5695 
-2.264 -1.4985 -3.3755 -4.686 -1.4985 -7.572001 -4.335 -4.795 0 -1.4985 -4.176 -4.335 -9.210501 -3.43 -5.047 -3.2495 -4.4605 -1.934 -8.388 -3.8275 
-2.9195 -4.057 -8.592001 -5.415 -9.255501 -10.9315 -9.312 -4.795 -1.4985 -5.1055 -7.893001 -14.5147 -12.8337 -9.548 -8.14 -6.951 -5.1425 -11.3284 -12.8227 
-5.120501 -9.506001 -9.081 -13.861 -12.7084 -15.9085 -9.312 -6.5655 -5.1055 -8.492001 -18.3403 -18.1379 -18.9517 -12.6574 -10.0065 -8.1475 -16.2737 -15.7631 
-10.45 -9.8935 -17.7278 -17.3139 -17.6854 -15.9085 -11.3723 -9.3205 -8.492001 -19.0395 -21.9635 -24.2559 -22.0611 -14.5239 -11.427 -19.7645 -20.7084 
-10.8375 -18.6981 -21.1807 -22.2909 -17.6854 -17.9688 -14.1273 -12.7618 -19.0395 -22.6627 -28.0815 -27.3653 -23.9276 -15.9444 -23.044 -24.1992 
-2.264 -1.4985 -3.3755 -1.4985 -4.1115 -3.9665 -1.7565 -6.7605 -2.7415 -4.878 -2.3345 -1.4985 -4.335 -9.1975 -1.756 -2.8965 -4.176 -4.4605 -2.9705 -5.7745 -3.2495 -2.8965 -7.4195 -4.4605 -1.934 -1.4985 -4.5165 -1.7565 -6.813 0 
-2.9195 -4.057 -4.9275 -4.843 -7.663501 -5.4115 -7.9925 -9.06 -6.735001 -5.715 -3.233 -5.249001 -14.5017 -10.862 -3.751 -7.118001 -7.951 -7.061 -8.370001 -8.513 -5.452 -11.4612 -12.3618 -5.1425 -2.6125 -6.118 -6.3 -8.552501 -6.813 
-5.120501 -5.3005 -8.7685 -9.328501 -9.911001 -12.3733 -10.0575 -13.1189 -8.2325 -6.416 -7.305501 -15.9881 -16.1662 -12.857 -7.896501 -9.822001 -9.786 -12.9075 -11.4239 -10.4185 -14.2665 -16.4035 -13.0438 -6.677001 -7.2095 -6.8715 -14.1398 -8.552501 
-6.7685 -9.107 -13.369 -10.6885 -16.9154 -14.4383 -14.2022 -14.6164 -8.918501 -10.476 -18.3734 -17.6526 -18.1612 -17.0025 -10.586 -11.6828 -15.9833 -15.9614 -13.3294 -19.233 -19.2088 -17.0855 -14.5783 -12.0024 -7.743001 -15.1045 -14.1398 
-10.633 -13.7193 -14.729 -17.6929 -18.9804 -18.583 -15.6997 -15.3024 -13.0119 -21.5439 -20.0379 -19.6476 -22.3067 -19.692 -12.4468 -17.8801 -19.0372 -17.8669 -22.1439 -24.1753 -19.8908 -18.62 -19.9037 -12.5359 -16.0508 -15.1045 
-10.7895 -4.335 -1.7695 -2.489 -2.674 -1.4985 -4.319 
-15.1245 -5.5565 -3.1405 -6.713 -3.998 -5.231501 
-16.346 -7.479 -7.313 -7.915 -8.2885 
-18.2685 -12.1025 -8.627001 -12.4003 
-22.892 -13.4165 -13.1023 
