-4.759 
n/a 
n/a 
n/a 
n/a 
-4.759 
n/a 
n/a 
n/a 
n/a 
-4.759 
n/a 
n/a 
n/a 
n/a 
-4.759 
n/a 
n/a 
n/a 
n/a 
-2.882 -3.0605 0 -5.1845 -7.772501 -8.3915 -9.145 -3.8385 -12.16972 -12.16972 -2.186 -1.8085 -4.156 -4.328 0 
-5.193 -3.0605 -5.1845 -8.7635 -8.696501 -9.421 -13.5437 -16.95402 -24.33944 -14.35572 -3.164 -6.1235 -6.2095 -4.328 
-5.193 -8.229 -8.7635 -8.838 -9.4875 -14.1259 -26.65922 -29.12374 -26.52544 -15.33372 -7.545 -8.2655 -6.2095 
-11.4245 -12.6332 -8.838 -9.618501 -14.403 -27.24142 -38.82894 -31.30974 -27.50344 -19.71472 -9.995 -8.2655 
-15.8287 -12.7077 -9.618501 -14.6424 -27.51852 -39.41114 -41.01494 -32.28774 -31.88444 -22.16472 -9.995 
-2.882 -11.3305 -5.3745 -4.891 -3.8385 -12.16972 -4.3195 -1.4985 -4.156 -4.328 -1.7565 -1.4985 -3.75 -3.355 0 
-14.0116 -17.6804 -7.061501 -8.0975 -16.95402 -16.48922 -5.1515 -4.9965 -6.2095 -5.0935 -2.4195 -4.8715 -7.194 -3.355 
-20.8759 -19.3674 -11.6602 -21.96802 -21.27352 -17.32122 -7.491 -6.746 -7.0935 -6.1235 -5.7965 -7.7255 -7.194 
-22.5629 -23.9661 -25.53072 -26.28752 -22.10552 -19.66072 -8.889 -7.527 -7.835001 -9.583501 -8.650001 -7.7255 
-27.1616 -37.83662 -29.85022 -27.11952 -24.44502 -21.05872 -9.1895 -8.1625 -10.4335 -12.5174 -8.650001 
-2.882 -3.0605 0 -5.1845 -3.1385 -4.6805 -4.891 -4.2245 -12.16972 -12.16972 0 -9.751 0 -5.671 -2.5045 -1.8085 -4.156 -4.328 -1.7565 -3.75 -3.892 
-5.193 -3.0605 -5.1845 -7.4095 -8.3225 -10.784 -9.046501 -17.25002 -24.33944 -12.16972 -9.751 -9.751 -5.671 -7.295501 -3.3625 -6.1235 -6.2095 -5.0935 -5.55 -6.331 
-5.193 -8.229 -7.4095 -12.9699 -14.7982 -14.9395 -22.27442 -29.41974 -24.33944 -21.92072 -9.751 -15.5004 -7.295501 -8.838 -7.1755 -8.2655 -7.0935 -8.8025 -9.321501 
-11.4245 -11.2792 -12.9699 -19.4456 -18.9537 -28.16742 -34.44414 -29.41974 -34.09044 -21.92072 -15.5004 -17.1249 -8.838 -12.8686 -9.412001 -9.358001 -9.688001 -13.3962 
-14.4747 -16.8396 -19.4456 -23.6011 -32.18162 -40.33714 -34.44414 -39.17074 -34.09044 -27.67012 -17.1249 -18.6674 -12.8686 -15.1051 -10.1235 -12.1581 -14.5791 
-2.882 -3.0605 0 -5.1845 -6.144 -4.2245 -9.0165 -10.429 0 -10.7545 0 -2.7415 -3.429 -4.1495 -2.5045 -11.0905 -1.7565 -3.75 -4.3755 
-5.193 -3.0605 -5.1845 -9.1085 -8.016 -10.195 -10.5755 -10.429 -10.7545 -10.7545 -2.7415 -7.1625 -5.9855 -6.295501 -14.5124 -12.847 -5.55 -7.9995 
-5.193 -8.229 -9.1085 -10.6605 -14.3749 -12.4282 -10.5755 -21.1835 -10.7545 -14.2366 -7.1625 -9.943001 -8.283001 -19.0162 -16.2689 -16.6405 -10.2535 
-11.4245 -12.9782 -10.6605 -17.0194 -16.6081 -12.4282 -21.33 -21.1835 -14.2366 -18.6576 -9.943001 -12.0367 -21.3479 -20.7727 -20.0624 -21.344 
-16.1737 -14.5302 -17.0194 -19.2526 -16.6081 -23.1827 -21.33 -24.6656 -18.6576 -21.4381 -12.0367 -25.1016 -23.1044 -24.5662 -24.7659 
