-4.759 
n/a 
n/a 
n/a 
n/a 
-4.759 
n/a 
n/a 
n/a 
n/a 
-4.759 
n/a 
n/a 
n/a 
n/a 
-4.759 
n/a 
n/a 
n/a 
n/a 
-5.1845 -5.943 0 -4.732 -3.288 -4.79 -4.7015 -3.158 0 
-9.7995 -5.943 -4.732 -7.206501 -6.1325 -10.228 -8.911001 -3.158 
-9.7995 -10.513 -7.206501 -9.812501 -12.3965 -14.4375 -8.911001 
-14.5075 -12.9875 -9.812501 -16.1939 -16.606 -14.4375 
-16.982 -15.5935 -16.1939 -20.4034 -16.606 
-5.1845 -3.7615 0 -5.7865 -3.288 -3.062 -8.3395 -3.158 
-8.6765 -3.7615 -5.7865 -8.956 -5.1365 -11.8375 -10.3285 
-8.6765 -9.706 -8.956 -11.0357 -15.0706 -13.8265 
-14.933 -13.4991 -11.0357 -20.9698 -17.0596 
-18.7261 -15.5788 -20.9698 -22.9588 
-5.1845 -3.7615 0 -8.3395 -3.158 -3.498 -2.356 -3.288 -3.062 0 
-8.6765 -3.7615 -8.3395 -10.3285 -5.3855 -5.672 -6.992001 -5.1365 -3.062 
-8.6765 -13.4974 -10.3285 -12.556 -7.919001 -10.181 -9.154 -5.1365 
-18.7244 -15.4864 -12.556 -15.0895 -12.635 -12.343 -9.154 
-20.7134 -17.7139 -15.0895 -19.8055 -14.797 -12.343 
-1.934 -5.1845 -5.943 -4.732 -3.288 -3.062 0 -2.4265 -2.186 -8.3395 -3.158 0 
-6.564 -9.7995 -10.513 -7.206501 -5.1365 -3.062 -2.4265 -3.292 -11.7359 -10.3285 -3.158 
-10.66 -14.5075 -12.9875 -9.380001 -5.1365 -6.3225 -3.292 -13.3139 -13.7249 -10.3285 
-15.368 -16.982 -15.161 -9.380001 -8.613001 -6.9065 -13.3139 -15.3029 -13.7249 
-17.8425 -19.1555 -15.161 -12.7681 -9.524 -17.339 -15.3029 -15.3029 
