-4.759 
n/a 
n/a 
n/a 
n/a 
-4.759 
n/a 
n/a 
n/a 
n/a 
-4.759 
n/a 
n/a 
n/a 
n/a 
-4.759 
n/a 
n/a 
n/a 
n/a 
-3.4765 -3.929 -3.034 -5.082 -4.226 -2.5195 -4.6985 -2.4265 -2.7765 -4.2745 -3.818 -4.802 -4.277 -3.277 
-4.589 -6.419 -8.045501 -8.761001 -4.796 -7.942 -6.759 -4.346 -8.5695 -7.479001 -8.068001 -6.555 -6.336 
-7.7285 -11.7187 -12.3091 -9.441501 -9.948001 -10.304 -8.4835 -10.2085 -12.076 -12.0035 -11.3365 -8.846001 
-13.2754 -15.9823 -12.9896 -14.8177 -12.3992 -12.0285 -14.483 -13.7844 -16.6005 -13.36 -11.889 
-17.539 -16.6628 -18.3658 -17.2689 -14.1237 -18.028 -18.0589 -18.3089 -17.957 -15.7604 
-4.398 0 -1.4985 -5.082 -6.39 -4.238 -3.7345 -2.186 -4.226 -2.4265 -2.7765 -2.489 -4.2745 -1.7695 -3.571 -4.802 -4.277 -3.277 
-4.398 -1.4985 -6.407001 -10.9315 -9.1885 -8.6155 -5.357 -5.554 -6.330501 -4.346 -3.495 -5.5385 -5.430501 -4.6785 -7.476501 -6.555 -6.336 
-4.911 -6.407001 -12.7573 -13.73 -14.1332 -10.5535 -8.457001 -7.4905 -8.118501 -4.728 -6.173501 -5.9575 -8.486 -8.81 -10.6425 -8.846001 
-10.575 -12.7573 -15.5558 -18.6747 -16.0712 -13.6535 -10.1765 -8.844001 -8.51 -7.474 -6.545001 -8.931001 -13.3407 -10.9675 -11.43 
-16.9253 -15.5558 -20.5005 -20.6127 -19.1712 -15.373 -11.7262 -9.094001 -11.503 -7.8005 -9.524501 -13.8087 -14.9486 -12.2109 
-6.8035 -1.934 -4.392 -1.4985 -5.082 -2.742 -2.489 -4.9345 -2.9705 -2.742 -2.489 -3.5725 -4.802 -4.277 -3.277 0 
-9.234501 -6.862 -6.1895 -6.407001 -7.888 -3.301 -5.9115 -7.925 -4.601501 -3.301 -6.191 -8.214001 -6.555 -6.336 -3.277 
-14.3385 -8.784 -11.529 -8.867001 -8.3985 -6.622 -8.651501 -9.485001 -5.1675 -7.3225 -10.586 -11.6405 -8.846001 -6.336 
-16.2605 -14.5451 -13.989 -9.1665 -11.9857 -9.574 -9.874001 -10.444 -9.4385 -12.2297 -12.7331 -12.7 -8.877501 
-22.0216 -17.0051 -14.2885 -12.9987 -14.9377 -10.478 -10.8614 -14.715 -14.4449 -14.0932 -15.2913 -12.9692 
-3.4765 -3.321 0 -2.7835 -1.4985 -5.082 -1.934 -1.4985 -4.6985 -2.186 -1.7695 -2.489 -4.2745 -2.4265 -2.7765 -3.5725 -2.489 -4.2745 -4.6945 -4.802 -4.277 -3.277 0 
-5.827001 -3.321 -2.7835 -3.7575 -6.407001 -6.622 -2.6125 -5.1995 -6.187 -3.8745 -3.1405 -5.5385 -7.022501 -4.346 -5.146 -5.0105 -5.5385 -8.057 -7.844501 -6.555 -6.336 -3.277 
-5.827001 -5.6185 -3.7575 -8.7045 -7.883 -7.086 -5.99 -6.395 -8.4835 -4.7485 -6.469501 -8.138 -9.098501 -6.702001 -5.883501 -8.998501 -7.658 -10.789 -10.246 -8.846001 -6.336 
-7.726501 -6.634 -8.7045 -10.223 -8.1645 -8.664001 -7.4085 -8.8155 -9.209001 -7.7365 -8.771501 -9.882501 -10.6745 -6.997 -9.311001 -11.1125 -11.281 -12.4425 -11.0725 -8.877501 
-8.569 -11.8298 -10.223 -10.3305 -9.5745 -9.719501 -9.387 -9.698501 -12.3606 -9.797001 -10.3675 -11.6383 -10.9695 -10.467 -11.497 -14.21 -12.2195 -14.2325 -11.105 
