-4.759 
n/a 
n/a 
n/a 
n/a 
-4.759 
n/a 
n/a 
n/a 
n/a 
-4.759 
n/a 
n/a 
n/a 
n/a 
-4.759 
n/a 
n/a 
n/a 
n/a 
-4.8965 0 -4.1385 -4.3355 -4.1115 -4.675 -4.0935 -4.065 -4.1985 -4.255 -4.2485 -1.756 -5.2815 -3.873 -3.074 0 
-4.8965 -4.1385 -5.686 -7.106 -6.957001 -9.4905 -9.293 -4.864 -7.139 -8.532001 -5.4505 -6.755 -8.8855 -7.349 -3.074 
-9.855 -5.686 -8.347 -9.828001 -12.1809 -14.6288 -10.534 -9.665 -13.523 -10.2805 -7.593 -10.733 -12.7509 -7.349 
-11.8629 -8.347 -11.7858 -15.2011 -17.3192 -15.8698 -15.335 -16.2628 -15.2715 -12.423 -11.9242 -14.5984 -12.7509 
-14.5239 -11.7858 -17.1589 -20.3394 -18.5602 -20.6708 -21.9328 -18.0113 -17.414 -16.7542 -15.7896 -14.5984 
-2.5045 -2.664 -5.0305 0 -9.033 -4.1985 -2.9705 -2.8645 -1.4985 -4.1385 -4.3355 -4.1115 -4.675 -2.8645 -4.113 -2.356 -4.7125 -4.2485 -1.756 -4.4545 -4.357 -3.873 0 
-4.074 -5.9355 -5.0305 -9.033 -10.1725 -7.4115 -4.6335 -4.3545 -5.0575 -5.686 -7.106 -6.957001 -7.535501 -8.291 -6.820001 -6.276 -7.6695 -5.4505 -6.084 -9.928 -8.559 -3.873 
-7.752501 -5.9355 -15.4073 -10.1725 -13.3855 -8.580501 -5.946001 -9.26 -6.073501 -8.347 -9.828001 -9.745001 -13.1528 -11.4416 -9.1455 -9.337 -8.591001 -8.375001 -11.9881 -14.2028 -8.559 
-7.752501 -17.2337 -16.5468 -13.3855 -14.5545 -9.7255 -10.513 -9.717001 -9.190001 -11.7858 -12.7652 -15.4781 -16.3034 -13.7671 -10.2545 -9.9705 -11.7167 -14.9445 -16.2629 -14.2028 
-19.2941 -18.3732 -19.7598 -14.5545 -15.6995 -14.5629 -10.6135 -13.2519 -12.8014 -14.723 -18.4983 -18.6287 -18.6289 -14.8761 -11.0582 -13.2146 -18.2862 -19.2193 -16.2629 
-4.1485 -2.3615 0 -4.1385 -4.3355 -2.8645 -12.16972 -4.1985 -5.805501 0 -5.805501 0 -3.852 0 -1.756 -4.4995 -1.7695 -2.489 -2.664 -4.4545 -5.6865 -3.852 0 
-6.68 -2.3615 -4.1385 -5.686 -7.2825 -16.63722 -16.36822 -10.1425 -5.805501 -5.805501 -5.805501 -3.852 -3.852 -1.756 -7.2125 -5.291 -3.1405 -4.563 -8.995501 -8.1125 -9.711 -3.852 
-6.68 -7.835 -5.686 -8.316 -21.37182 -20.83572 -22.31222 -10.1425 -8.6075 -5.805501 -8.984001 -3.852 -5.3415 -7.2125 -7.5945 -5.79 -5.011 -11.3977 -12.7375 -12.862 -9.711 
-12.5311 -9.450001 -8.316 -22.57552 -25.57032 -26.77972 -22.31222 -13.4491 -8.6075 -8.984001 -8.984001 -5.3415 -10.688 -7.5945 -7.8825 -7.3095 -11.9831 -15.1397 -17.487 -12.862 
-14.1461 -12.2178 -22.57552 -26.77402 -31.51432 -26.77972 -25.61882 -13.4491 -12.2536 -8.984001 -11.0721 -10.688 -11.07 -7.8825 -9.543 -14.5432 -15.7251 -19.8892 -17.487 
-4.1985 -2.8645 -3.17 -1.7565 -3.873 0 
-7.06 -6.4795 -4.179 -5.002 -3.873 
-10.9178 -7.039001 -9.0745 -5.002 
-11.4773 -12.3309 -9.0745 
-16.7692 -12.3309 
