-4.759 
n/a 
n/a 
n/a 
n/a 
-4.759 
n/a 
n/a 
n/a 
n/a 
-4.759 
n/a 
n/a 
n/a 
n/a 
-4.759 
n/a 
n/a 
n/a 
n/a 
-2.3615 -2.186 -4.683 -4.6345 
-3.5005 -5.6855 -7.896 
-6.8555 -8.706 
-9.7495 
n/a 
-2.3615 -2.186 -4.683 -4.6345 -3.7075 0 
-3.5005 -5.6855 -7.896 -8.306 -3.7075 
-6.8555 -8.706 -11.9007 -8.306 
-9.7495 -13.0703 -11.9007 
-14.131 -13.0703 
-2.4265 -2.186 -3.074 -1.8085 -4.6345 
-3.292 -4.156 -4.639 -5.6165 
-4.91 -4.962 -8.202001 
-5.9025 -8.453501 
-8.929501 
-2.3615 -2.186 -4.683 -4.6345 0 
-3.5005 -5.6855 -7.896 -4.6345 
-6.8555 -8.706 -7.896 
-9.7495 -8.706 
-9.7495 
