-4.759 
n/a 
n/a 
n/a 
n/a 
-4.759 
n/a 
n/a 
n/a 
n/a 
-4.759 
n/a 
n/a 
n/a 
n/a 
-4.759 
n/a 
n/a 
n/a 
n/a 
0 -3.8735 -3.1475 -3.6505 0 -1.4985 -3.8195 -1.7565 -3.3195 -3.819 -2.0935 -2.3615 -4.8085 -3.8195 0 
-3.8735 -7.375 -4.59 -3.6505 -1.4985 -4.771 -5.8865 -4.8675 -6.1505 -5.4395 -3.854 -6.448 -6.085001 -3.8195 
-7.375 -9.224 -4.59 -5.584 -4.771 -6.9685 -10.051 -7.823 -7.55 -7.860001 -8.255501 -8.021 -6.085001 
-9.224 -9.224 -6.5195 -8.6325 -6.9685 -11.497 -13.0065 -9.5115 -9.4975 -12.6327 -9.959001 -8.021 
-9.224 -11.5311 -9.964001 -11.0654 -11.497 -14.4525 -14.695 -11.6466 -14.4908 -14.3362 -9.959001 
-2.9805 -4.96 -3.6675 -3.251 -3.3195 -1.7695 0 -3.8735 -3.1475 -3.6505 0 -1.8085 -4.8085 -3.8195 -2.9705 -4.7595 -3.948 -4.578 -1.7565 -4.1865 -3.9675 0 
-6.9405 -9.7505 -6.282001 -7.285501 -5.492001 -1.7695 -3.8735 -7.375 -4.59 -3.6505 -1.8085 -5.871 -6.085001 -6.3255 -6.3065 -7.8875 -7.123 -5.4795 -5.463 -6.6535 -3.9675 
-11.7174 -12.4082 -8.304001 -9.328501 -5.492001 -5.578001 -7.375 -9.224 -4.59 -5.1935 -5.871 -6.8655 -8.402 -9.4005 -9.645 -11.5727 -7.427001 -9.356501 -7.504001 -6.6535 
-14.3751 -14.4302 -10.9516 -9.328501 -9.972501 -9.345 -9.224 -9.224 -5.449 -10.322 -6.8655 -8.824 -11.7014 -12.7768 -13.364 -11.8767 -11.5058 -10.4775 -7.504001 
-16.3971 -17.0778 -10.9516 -14.038 -13.8721 -10.703 -9.224 -10.2435 -11.5293 -11.3165 -8.824 -12.2294 -15.0777 -16.4958 -13.668 -15.9555 -12.6268 -10.4775 
-2.9805 -4.96 -3.3195 -1.7695 0 -3.8735 -3.1475 -3.6505 0 -1.8085 -4.8085 -3.8195 -2.9705 -3.6065 -4.4445 -1.7565 -4.1865 -3.9675 0 
-6.9405 -7.348 -5.492001 -1.7695 -3.8735 -7.375 -4.59 -3.6505 -1.8085 -5.871 -6.085001 -6.3255 -6.7845 -6.0675 -4.5845 -5.463 -6.6535 -3.9675 
-8.514501 -8.8875 -5.492001 -5.578001 -7.375 -9.224 -4.59 -5.1935 -5.871 -6.8655 -8.402 -10.7047 -8.9475 -6.147501 -8.128501 -7.504001 -6.6535 
-9.908001 -8.8875 -9.972501 -9.345 -9.224 -9.224 -5.449 -10.322 -6.8655 -8.824 -13.0056 -12.8677 -9.002001 -9.4905 -8.8325 -7.504001 
-9.908001 -13.5378 -13.8721 -10.703 -9.224 -10.2435 -11.5293 -11.3165 -8.824 -13.5336 -15.1686 -12.9222 -12.4074 -9.995501 -8.8325 
-2.9805 -4.96 -3.6675 -3.251 -3.3195 -1.7695 -1.8085 -4.8085 -3.8195 0 -3.8735 -3.1475 -3.6505 0 -2.9705 -4.7595 -4.1865 -3.9675 -1.756 -5.0575 -4.441 0 
-6.9405 -9.7505 -6.282001 -7.285501 -5.492001 -3.41 -5.871 -6.085001 -3.8195 -3.8735 -7.375 -4.59 -3.6505 -2.9705 -6.3065 -9.363001 -6.6535 -4.9775 -5.988 -8.581501 -4.441 
-11.7174 -12.4082 -8.304001 -9.328501 -6.830501 -7.956 -6.8655 -6.085001 -7.858001 -7.375 -9.224 -4.59 -6.632 -6.3065 -11.5544 -12.2064 -7.273 -9.660501 -8.758501 -8.581501 
-14.3751 -14.4302 -10.9516 -10.896 -10.5975 -8.8875 -6.8655 -10.513 -12.1025 -9.224 -9.224 -7.7745 -9.8785 -11.5544 -14.3978 -12.8259 -12.5746 -12.431 -8.758501 
-16.3971 -17.0778 -12.5191 -14.663 -11.529 -8.8875 -11.8549 -14.7575 -13.9515 -9.224 -12.7861 -11.1758 -15.2562 -14.3978 -15.0173 -18.1275 -15.3451 -12.431 
