-4.759 
n/a 
n/a 
n/a 
n/a 
-4.759 
n/a 
n/a 
n/a 
n/a 
-4.759 
n/a 
n/a 
n/a 
n/a 
-4.759 
n/a 
n/a 
n/a 
n/a 
-2.9805 -3.074 -4.0555 -1.7695 -3.3785 -1.7565 -8.2985 -5.009 -3.3155 -5.939 -6.4735 -3.152 -4.493 -6.641 -2.3345 -6.5175 -6.3045 
-4.8805 -6.377 -4.7475 -4.1685 -5.2255 -8.225 -11.793 -7.104 -10.5135 -7.7975 -8.1625 -5.593 -9.137501 -8.163 -8.736 -13.8072 
-7.7465 -7.111001 -6.7225 -6.686501 -13.4995 -12.5985 -12.6935 -14.4026 -12.7716 -9.5865 -9.110001 -9.765001 -9.9115 -14.9459 -16.2011 
-8.359 -8.6715 -7.9985 -15.1447 -17.5023 -14.8553 -19.9921 -16.6607 -14.5606 -10.751 -13.4118 -10.5665 -16.6636 -22.411 
-9.589001 -10.2985 -16.7583 -19.1475 -19.6423 -22.1539 -22.2502 -18.4497 -15.7251 -15.0528 -14.2133 -17.3186 -24.1287 
-2.9805 -7.163 -3.0415 -3.3715 -5.009 -2.7455 -1.4985 -5.1845 -3.1385 -4.493 -2.3345 -6.9645 -5.0525 0 
-9.2015 -9.4005 -4.5985 -7.334001 -8.3405 -3.637 -6.5205 -7.4095 -6.5305 -5.523 -10.1945 -11.1415 -5.0525 
-11.4774 -10.014 -8.5435 -10.3285 -9.111501 -8.941001 -7.6315 -10.533 -7.528 -14.3172 -14.5101 -11.1415 
-12.0909 -14.2306 -11.6954 -11.0995 -14.6609 -10.0315 -10.9142 -11.5305 -16.6548 -18.6328 -14.5101 
-16.3075 -17.3825 -12.4664 -16.6489 -15.7514 -13.3142 -11.9117 -20.6573 -20.9704 -18.6328 
-2.9805 -4.215 -5.009 -1.4985 -8.5635 -4.77 -8.27 
-5.943 -9.978001 -6.744 -9.505 -13.7541 -14.1194 
-11.9752 -11.9076 -15.0551 -14.74 -23.1035 
-13.9048 -20.2187 -20.2901 -24.0894 
-22.2159 -25.4537 -29.6395 
-6.2045 -2.3345 -2.9325 -2.9805 -4.24 -2.5045 -4.5905 -3.7015 -5.1845 -3.1385 -2.3345 -5.4245 -4.628 -5.939 -4.6555 0 -2.9805 -3.918 -1.4985 -3.693 -3.2795 -4.3745 -3.5455 -1.4985 -5.552 -5.1415 
-6.7855 -5.5225 -4.7735 -5.486 -6.484 -7.4175 -5.421 -8.2135 -7.4095 -5.644 -6.91 -9.144001 -5.9615 -8.738 -4.6555 -2.9805 -5.773 -5.135 -4.639 -6.324 -8.1975 -8.011001 -3.91 -6.511001 -10.2285 
-8.3625 -6.7885 -6.6575 -7.139501 -10.044 -8.402 -10.243 -9.273001 -9.3435 -9.992001 -9.896 -9.173 -8.740001 -8.738 -7.583001 -5.773 -6.0725 -8.5155 -7.457 -10.76 -12.339 -8.4735 -8.735001 -12.1227 
-9.059 -7.676001 -7.3485 -10.674 -10.2805 -12.9796 -11.3025 -11.7476 -13.7993 -13.0362 -9.921 -9.227501 -8.740001 -11.7933 -10.4505 -6.0725 -9.555501 -10.467 -12.1046 -14.9015 -12.8015 -13.4255 -14.9719 
-9.844501 -8.366 -10.6875 -10.9105 -14.8581 -14.0391 -13.7771 -16.2034 -16.8435 -13.0612 -9.974 -9.227501 -11.7961 -14.6608 -10.716 -9.555501 -11.5422 -15.1146 -16.2461 -15.364 -17.7535 -19.6624 
