-4.759 
n/a 
n/a 
n/a 
n/a 
-4.759 
n/a 
n/a 
n/a 
n/a 
-4.759 
n/a 
n/a 
n/a 
n/a 
-4.759 
n/a 
n/a 
n/a 
n/a 
-1.4985 -3.5125 -3.644 -2.3335 -1.4985 -5.228 -4.0835 -1.4985 -3.729 -2.264 -3.332 -3.941 -2.356 -5.2475 -5.8565 0 
-4.7015 -7.1905 -4.989501 -3.3515 -5.679501 -8.9975 -5.761001 -4.763 -5.4805 -4.837 -6.6735 -6.343 -6.6 -7.171501 -5.8565 
-8.8985 -8.132501 -5.794001 -7.23 -9.490001 -9.5535 -8.239501 -6.842501 -8.2165 -8.625501 -8.627501 -11.1642 -9.363501 -7.171501 
-9.561501 -8.9325 -9.3085 -10.5975 -10.097 -12.3072 -10.1345 -9.7285 -12.301 -10.2485 -13.7549 -13.9277 -9.363501 
-10.2945 -12.5202 -12.6272 -11.2045 -12.9933 -14.2022 -12.9553 -14.052 -13.924 -15.6793 -16.5184 -13.9277 
-1.4985 -3.5125 -2.186 -4.7135 -2.9805 -3.9535 -1.7695 -3.859 -2.3615 -3.729 -2.5045 -3.941 -1.7565 -3.091 -4.284 0 
-4.7015 -5.685 -6.069 -7.875 -5.607 -5.098001 -4.462 -6.284 -6.068501 -6.242 -6.7275 -5.2205 -4.0655 -4.863 -4.284 
-7.1915 -9.1555 -8.913 -10.7025 -6.528501 -7.232 -6.608 -8.955501 -8.032001 -10.9584 -8.8405 -6.863501 -6.2565 -4.863 
-10.543 -12.2287 -11.8445 -11.624 -8.760501 -9.106501 -9.1405 -10.634 -12.9802 -13.0714 -10.7165 -7.8725 -6.2565 
-13.6162 -15.1602 -12.766 -13.856 -10.5535 -11.7426 -10.8304 -15.5822 -15.0932 -14.9474 -11.7255 -7.8725 
-3.091 -3.5125 -3.644 0 -1.4985 -5.228 -4.3195 -3.383 -4.7355 0 -1.934 -3.332 -5.589 -3.098 -1.4985 -5.7105 -5.9185 -4.0835 
-6.5265 -7.1905 -3.644 -1.4985 -5.679501 -8.611 -6.281 -6.0115 -4.7355 -1.934 -4.6475 -8.571001 -9.3485 -4.514 -6.535001 -6.078 -8.602 
-9.3315 -7.1905 -4.97 -5.679501 -8.848001 -10.254 -8.695 -6.0115 -7.068001 -4.6475 -9.259001 -12.5217 -10.704 -9.951 -6.7405 -8.7255 
-9.3315 -8.416 -8.941001 -8.848001 -10.389 -12.668 -8.695 -8.3335 -9.217001 -9.259001 -13.2189 -13.8772 -16.141 -10.3265 -9.124001 
-10.7345 -12.5156 -12.2173 -10.389 -12.803 -12.668 -10.7575 -10.3675 -13.9143 -13.2189 -14.5744 -19.3142 -16.5165 -12.71 
-3.5125 -3.644 -3.851 -1.7695 -1.4985 -4.2285 -4.217 -2.0935 -3.332 -4.807 0 -2.9805 -3.859 -1.4985 -3.9195 -2.0935 -1.4985 -3.941 -1.7565 -3.332 0 
-7.1905 -7.955501 -4.0015 -2.7955 -5.319 -7.666 -6.318 -4.7045 -7.0845 -4.807 -2.9805 -7.8605 -5.14 -4.9505 -6.1045 -2.9725 -5.133 -5.2205 -4.4865 -3.332 
-11.661 -8.0345 -4.5775 -6.764 -8.506001 -9.432501 -8.6055 -8.3745 -7.0845 -7.56 -7.8605 -8.8975 -9.167001 -7.7075 -6.9285 -6.8475 -5.817501 -6.9635 -4.4865 
-11.74 -8.5155 -8.259001 -9.854 -10.7343 -11.8422 -12.4403 -8.3745 -9.162001 -12.5876 -8.8975 -13.0363 -10.75 -8.085 -11.1017 -7.744 -7.581 -6.9635 
-12.221 -12.3036 -10.553 -12.2063 -13.144 -15.677 -12.4403 -10.3165 -14.2876 -13.6246 -13.0363 -14.6193 -11.1275 -12.5262 -11.9982 -9.4355 -7.581 
