-4.759 
n/a 
n/a 
n/a 
n/a 
-4.759 
n/a 
n/a 
n/a 
n/a 
-4.759 
n/a 
n/a 
n/a 
n/a 
-4.759 
n/a 
n/a 
n/a 
n/a 
-2.3615 -3.7075 -4.9345 -7.4175 -4.6485 
-5.029 -9.956 -11.981 -11.8 
-11.9843 -17.6331 -16.8804 
-19.6614 -22.0351 
-24.0634 
-2.3615 -4.5175 -7.4965 -4.692 -3.824 
-6.8545 -14.7 -13.2115 -9.0175 
-18.1753 -18.9408 -18.1186 
-21.8715 -23.8479 
-26.7786 
-2.3615 -4.0515 -4.9345 -7.7835 -4.6485 
-5.799 -9.830501 -12.506 -12.6325 
-12.2828 -18.1348 -19.4655 
-20.5871 -24.5969 
-27.0492 

n/a 
n/a 
n/a 
n/a 
-4.759 
n/a 
n/a 
n/a 
n/a 
