-4.759 
n/a 
n/a 
n/a 
n/a 
-4.759 
n/a 
n/a 
n/a 
n/a 
-4.759 
n/a 
n/a 
n/a 
n/a 
-4.759 
n/a 
n/a 
n/a 
n/a 
-3.3715 -6.4405 -1.7565 -3.1385 -5.037 -1.934 -3.091 -4.784 -4.8015 -2.9705 -4.6405 -1.7695 -2.489 -3.9595 -3.5015 -1.934 -1.4985 -3.8135 -1.7565 -5.578 
-9.549001 -7.587501 -4.388 -7.04 -5.1315 -4.2105 -6.693501 -7.532001 -6.976 -6.29 -5.3515 -3.1405 -4.74 -5.6235 -4.704 -2.6125 -4.828 -4.991 -6.9525 
-9.805 -8.5035 -8.3345 -7.1845 -7.9305 -8.458501 -9.369 -9.720001 -10.5035 -6.9525 -5.651 -5.327 -8.444 -6.3005 -5.1615 -6.0495 -6.0765 -10.688 
-10.7075 -12.6024 -8.491501 -10.304 -9.9775 -10.316 -11.785 -13.2531 -11.166 -7.3085 -8.870501 -9.035001 -9.028001 -6.695 -8.111501 -7.143001 -12.1795 
-14.8064 -12.7594 -11.6274 -10.7675 -11.835 -12.945 -15.3181 -13.9156 -11.522 -9.9755 -12.6973 -9.744 -9.779501 -10.034 -9.6625 -13.5954 
-3.091 -4.784 -5.4145 -9.461 -4.773 -1.756 -3.557 -1.8085 -3.5015 -1.934 -1.4985 -5.578 -3.452 -1.7565 -3.188 -3.886 
-6.693501 -10.3045 -15.9635 -14.3514 -5.986 -5.094 -4.975 -4.642 -4.704 -2.6125 -6.439 -6.756 -4.8515 -5.13 -5.9795 
-12.6402 -21.0601 -20.8539 -15.5644 -9.874001 -6.232 -6.868001 -5.8375 -5.1615 -7.185501 -6.919001 -6.815 -6.89 -6.899 
-23.3958 -25.9505 -22.0669 -19.4524 -11.2844 -8.0905 -7.585001 -6.171 -8.342001 -7.408 -6.951 -7.0155 -6.9405 
-28.2862 -27.1635 -25.9549 -20.8628 -13.1429 -9.0175 -7.962501 -8.4505 -8.465501 -7.442501 -7.147501 -7.038 
-3.091 -4.784 -3.251 -1.4985 -4.1925 -3.264 -1.7565 -5.1345 -3.834 -3.321 0 -2.5045 -3.8085 -2.356 -1.4985 -5.578 -3.452 -1.7565 -3.886 
-6.693501 -8.330501 -4.5775 -4.4615 -6.2345 -3.6125 -6.4375 -8.8905 -5.6925 -3.321 -2.5045 -6.7665 -5.423 -3.1615 -6.439 -6.756 -4.8515 -5.461 
-9.438001 -9.899 -6.3385 -6.3385 -6.31 -6.959001 -10.316 -10.9344 -5.6925 -5.7095 -6.7665 -7.7955 -5.8035 -8.3605 -6.919001 -6.815 -7.0545 
-10.719 -11.66 -7.5845 -6.416 -9.3145 -10.757 -12.3599 -10.9344 -8.1755 -10.647 -7.7955 -8.069 -10.1895 -9.047501 -6.951 -7.3055 
-12.48 -12.906 -7.6085 -9.385 -13.3705 -12.8009 -12.3599 -13.4174 -13.3092 -11.676 -8.069 -12.8606 -10.3295 -9.145 -7.4405 
-2.5045 -2.4265 -2.742 -2.489 -7.6845 -1.934 -6.665 0 -4.3125 -6.2755 -7.6395 -1.934 -3.091 -3.826 
-4.228 -4.095 -3.301 -9.2805 -8.849501 -8.718 -6.665 -4.3125 -11.6448 -14.6116 -8.061 -4.2105 -5.9665 
-5.915 -4.601 -9.7775 -10.229 -15.7673 -8.718 -11.7547 -11.6448 -19.9809 -15.0331 -10.634 -6.639 
-6.616 -11.3317 -10.7525 -17.2392 -15.7673 -14.1239 -19.087 -19.9809 -20.4024 -17.6061 -13.0625 
-13.5551 -12.3067 -17.7627 -17.2392 -21.1732 -21.4562 -27.4231 -20.4024 -22.9754 -20.0346 
