-4.759 
n/a 
n/a 
n/a 
n/a 
-4.759 
n/a 
n/a 
n/a 
n/a 
-4.759 
n/a 
n/a 
n/a 
n/a 
-4.759 
n/a 
n/a 
n/a 
n/a 
-2.3615 -2.915 -4.993 -1.4985 -3.4425 -1.7565 -3.948 -3.959 -3.5445 -2.461 -3.8315 -1.7565 -1.4985 -3.584 -1.7565 -7.775001 
-4.5725 -7.793 -5.7885 -4.548 -4.3385 -5.05 -6.288 -6.834001 -5.601 -5.571 -5.035 -2.4195 -4.755 -4.8765 -9.587001 
-9.003 -8.236501 -9.1615 -4.8815 -9.5185 -7.341001 -8.925501 -9.673 -7.4635 -7.026501 -5.68 -6.331 -5.043 -13.7226 
-9.3785 -11.9379 -9.479 -10.6335 -11.9585 -10.1385 -12.0075 -11.8915 -8.159 -7.758501 -8.301001 -6.739501 -14.2197 
-13.0587 -12.2554 -15.4354 -13.0735 -14.756 -13.0669 -14.226 -12.587 -8.9425 -9.777 -8.461 -16.0896 
-2.3615 -3.367 -2.742 -2.489 -4.024 -1.7695 -1.4985 -4.3725 -3.6065 -3.959 -4.302 -3.2615 -2.461 -3.8315 -1.7565 -5.3085 0 
-4.1885 -5.763 -3.301 -4.7505 -4.5525 -2.7955 -5.937 -8.952001 -5.801001 -8.432 -5.379 -5.8465 -5.571 -5.035 -6.896501 -5.3085 
-6.677 -6.106 -5.156 -4.9975 -5.08 -7.147501 -11.5237 -11.3457 -10.6735 -9.24 -9.0605 -7.726 -7.026501 -10.451 -6.896501 
-7.0995 -6.681 -5.38 -5.4775 -8.934 -12.9604 -13.9174 -16.2182 -11.4815 -13.0993 -10.9348 -8.481501 -12.6227 -10.451 
-7.5695 -6.86 -5.8415 -9.498 -15.1657 -15.3541 -18.7899 -17.0262 -15.3408 -14.9736 -11.6903 -14.2987 -12.6227 
-2.3615 -4.462 -1.7565 -5.3085 -2.742 -4.2615 -3.2295 -1.4985 -4.3725 -1.7565 -2.5685 -1.4985 -3.959 -3.5445 -1.4985 -4.299 -1.7565 -5.3085 -3.5445 -2.461 -3.8315 0 
-6.7045 -5.1505 -6.896501 -7.868501 -5.956 -6.306001 -3.844 -5.937 -5.456501 -3.938 -3.7015 -5.5 -6.834001 -4.002 -5.463 -5.794001 -6.896501 -9.125501 -5.601 -5.571 -3.8315 
-7.515501 -9.4975 -10.064 -10.0745 -7.892 -7.9335 -8.8525 -6.134501 -7.1695 -4.8455 -6.597 -8.1155 -7.0425 -9.2655 -6.818501 -10.6215 -10.6215 -11.2688 -7.4635 -5.571 
-11.8967 -13.08 -12.658 -12.1445 -9.6805 -13.065 -9.139501 -8.460001 -8.822001 -7.4115 -9.2755 -8.385501 -13.1038 -10.701 -11.6582 -14.3465 -12.7648 -13.1313 -7.4635 
-15.4792 -15.674 -14.728 -13.933 -15.0288 -13.352 -11.4718 -9.046 -10.7335 -10.078 -9.5105 -14.6086 -14.5393 -15.5407 -15.3832 -16.4898 -14.6273 -13.1313 
-2.3615 -2.915 -4.9295 -2.461 -3.8315 -1.934 -5.3085 -4.4465 -3.959 
-4.5725 -8.6545 -7.845 -5.571 -5.7185 -7.2625 -7.181 -6.845 
-9.959001 -11.7918 -11.6312 -7.3765 -11.762 -7.834001 -8.055 
-13.2851 -15.578 -13.4367 -13.7574 -12.3335 -8.573501 
-17.0713 -17.3835 -19.8176 -14.3289 -13.073 
