-4.759 
n/a 
n/a 
n/a 
n/a 
-4.759 
n/a 
n/a 
n/a 
n/a 
-4.759 
n/a 
n/a 
n/a 
n/a 
-4.759 
n/a 
n/a 
n/a 
n/a 
-4.628 -4.743 -4.698 -3.4185 -5.7055 -5.6305 -2.7415 -5.452 -1.934 -3.539 -2.6615 0 
-4.7515 -8.477 -7.448001 -9.253501 -8.6495 -8.1875 -6.344501 -6.384 -5.011 -5.439 -2.6615 
-8.484 -11.6078 -13.697 -12.3015 -11.4981 -11.9281 -7.051001 -9.095 -7.784 -5.439 
-11.6236 -17.8568 -16.745 -15.1501 -15.2387 -12.6346 -9.375501 -12.0562 -7.784 
-17.8726 -20.9048 -19.5936 -18.8907 -15.9452 -14.9591 -12.3687 -12.0562 
-3.539 -9.5605 -7.2955 -3.4185 -7.944 -5.452 
-12.8775 -18.4059 -9.8325 -12.2943 -13.9058 
-22.5214 -21.0927 -18.8163 -18.2561 
-25.0584 -30.0765 -24.7781 
-34.0422 -36.0383 
-3.539 -2.6615 0 -4.675 -1.7565 -6.899 -5.133 -3.4185 -7.944 0 
-5.439 -2.6615 -4.675 -5.6675 -8.5275 -13.0424 -8.7925 -12.2943 -7.944 
-5.439 -8.005501 -5.6675 -13.3559 -14.8605 -16.7019 -17.8737 -12.2943 
-11.9712 -9.370001 -13.3559 -19.6889 -18.52 -25.7831 -17.8737 
-13.3357 -17.2342 -19.6889 -23.3484 -27.6012 -25.7831 
-10.6255 -4.698 -3.4185 -5.7055 -5.6305 -4.675 -3.539 -2.6615 
-15.3235 -7.448001 -9.253501 -8.6495 -10.784 -8.4645 -5.439 
-18.0735 -13.697 -12.3015 -14.0946 -14.5735 -10.4505 
-24.3225 -16.745 -17.7466 -17.8841 -16.5595 
-27.3705 -22.1901 -21.5361 -19.8701 
