-4.759 
n/a 
n/a 
n/a 
n/a 
-4.759 
n/a 
n/a 
n/a 
n/a 
-4.759 
n/a 
n/a 
n/a 
n/a 
-4.759 
n/a 
n/a 
n/a 
n/a 
-5.717 -4.1865 -4.319 -2.5045 -3.5315 -4.677 -2.3615 -4.889 -4.9635 -3.651 -3.1385 -4.424 
-9.502501 -8.3905 -6.544001 -6.109 -8.07 -6.8605 -7.651 -7.245001 -9.311501 -7.059 -6.278501 
-13.9649 -10.051 -10.5847 -10.2275 -9.565001 -12.5435 -10.1385 -12.0532 -12.9117 -8.8815 
-15.6254 -14.0661 -16.2766 -14.2119 -16.7048 -15.6876 -15.1863 -15.6534 -14.7342 
-19.6405 -19.758 -18.6876 -20.4742 -19.3411 -20.7354 -18.7865 -17.4759 
-10.9825 0 -4.1865 -5.069 -1.934 -5.717 -2.7415 -5.198 0 -2.5045 -3.76 -3.651 -3.1385 -3.152 -4.493 -1.934 -1.4985 -5.175 -3.9515 -1.7565 -7.4715 -1.934 -1.8085 -4.889 -4.8115 -4.0435 -1.4985 -4.1865 -5.069 0 
-9.028001 -4.1865 -7.3155 -5.824 -6.2485 -7.9905 -6.292 -5.198 -2.5045 -3.8195 -7.637 -7.059 -5.219 -5.593 -5.1865 -2.6125 -5.860001 -7.4845 -5.368 -9.1805 -9.264001 -3.2685 -5.919001 -6.759501 -8.0225 -4.6045 -5.177 -7.3155 -5.069 
-13.5465 -7.3155 -7.6885 -7.653 -8.371 -9.797501 -6.292 -7.1 -3.8195 -7.642 -8.414001 -8.453501 -6.315001 -6.176001 -6.0855 -7.120501 -7.607501 -8.59 -13.6094 -10.3355 -10.9897 -7.381001 -7.55 -8.462501 -8.4805 -8.221001 -7.6355 -7.3155 
-16.0195 -7.6885 -8.177501 -9.3175 -9.887001 -9.797501 -8.0585 -8.4855 -7.642 -8.413501 -8.936501 -8.580001 -6.896501 -6.751 -9.320001 -7.956501 -8.6085 -18.4332 -14.7644 -12.2446 -15.1022 -8.0705 -9.245501 -8.737 -9.888 -8.681001 -7.6355 
-16.696 -8.177501 -9.653501 -10.1005 -9.887001 -11.565 -9.767501 -12.6656 -8.413501 -8.936001 -9.004001 -9.732 -7.467 -10.126 -10.3295 -8.884501 -18.7039 -19.5882 -16.6735 -16.3571 -15.7917 -9.820001 -9.629001 -10.228 -9.901 -8.681001 
-3.5315 -2.743 -2.8845 -5.717 -4.299 -2.264 -4.1865 -5.069 0 -1.934 -6.634 -3.9515 -5.717 -4.0435 -4.1865 -5.069 -1.8085 -3.6135 -4.889 -4.8115 -5.943501 -3.651 -3.1385 -3.557 -4.19 0 
-5.5575 -5.035 -8.550501 -8.3155 -5.322001 -6.267 -7.3155 -5.069 -1.934 -7.3355 -11.08 -7.610001 -9.781501 -8.548 -7.3155 -7.776501 -4.4545 -7.908 -6.759501 -11.0145 -9.027 -7.059 -5.0085 -5.81 -4.19 
-6.4915 -10.513 -11.5488 -10.013 -8.279501 -8.977501 -7.3155 -5.824 -7.3355 -12.0735 -14.7385 -12.0891 -14.6622 -9.473501 -9.573 -10.688 -8.4245 -9.665001 -13.7169 -14.098 -9.0465 -7.5255 -8.5 -5.81 
-12.2459 -13.5113 -13.2463 -13.1691 -9.237 -8.977501 -7.6885 -12.7251 -12.0735 -15.732 -19.2176 -16.9698 -15.5877 -12.1144 -12.7969 -14.658 -10.4105 -16.8956 -16.8004 -14.1175 -11.6778 -12.5426 -8.5 
-15.2442 -15.2088 -16.4024 -14.1266 -9.237 -9.291 -15.2306 -17.4631 -15.732 -20.2111 -24.0983 -17.8953 -18.2286 -15.3383 -16.7669 -16.644 -17.6411 -19.9791 -16.8199 -16.7488 -16.6949 -12.5426 
-12.2845 -5.5005 -5.2725 -1.934 -5.717 0 -1.934 -4.5235 -2.229 -3.9515 -5.717 0 -2.5045 -1.4985 -4.889 -4.8115 -4.0435 -1.4985 -3.5015 -1.7565 -1.4985 -4.1865 -5.5005 0 -4.3435 -3.651 -3.1385 -3.152 -4.19 0 
-17.2045 -11.136 -6.51 -6.2485 -5.717 -1.934 -5.196 -6.2475 -5.671 -7.610001 -5.717 -2.5045 -3.583 -5.8525 -6.759501 -8.0225 -4.6045 -4.737 -4.783 -2.4195 -5.177 -8.4975 -5.5005 -4.3435 -7.929501 -7.059 -5.219 -6.435 -4.19 
-23.6526 -12.3735 -10.6335 -6.2485 -7.363 -5.196 -7.202 -8.262501 -8.8625 -7.610001 -7.9665 -3.583 -8.071501 -7.963 -8.462501 -8.4805 -8.154501 -5.5595 -5.715 -5.9285 -10.0375 -8.4975 -10.459 -7.929501 -12.2471 -8.453501 -7.9975 -6.435 
-24.8901 -16.497 -10.6335 -7.7275 -8.762501 -7.202 -8.706 -8.976001 -8.8625 -9.587501 -8.922501 -8.071501 -10.4595 -10 -8.737 -12.6403 -8.679501 -6.3005 -9.2995 -10.998 -10.0375 -14.2686 -14.045 -12.2471 -13.6416 -11.9858 -7.9975 
-29.0136 -16.497 -12.1125 -9.522 -10.443 -8.706 -9.409 -8.976001 -10.419 -10.452 -13.6072 -10.4595 -12.4965 -10.1385 -13.3058 -13.1653 -10.2435 -9.7235 -14.6846 -10.998 -15.8086 -17.8546 -18.3626 -13.6416 -17.1739 -11.9858 
