-4.759 
n/a 
n/a 
n/a 
n/a 
-4.759 
n/a 
n/a 
n/a 
n/a 
-4.759 
n/a 
n/a 
n/a 
n/a 
-4.759 
n/a 
n/a 
n/a 
n/a 

n/a 
n/a 
n/a 
n/a 
-1.4985 -6.4185 -6.9985 -2.229 -3.8195 -2.9705 -3.7965 -1.4985 -3.8825 -5.1845 -5.74 0 -4.7925 -3.222 -3.6065 -3.59 
-6.940001 -14.2936 -9.880501 -6.8355 -6.081 -5.034 -4.8165 -4.569 -9.504001 -5.7465 -5.74 -4.7925 -5.2095 -6.141 -6.693501 
-15.7585 -17.1756 -14.487 -9.533501 -8.321 -5.840001 -8.458501 -9.887001 -9.802501 -5.7465 -11.4751 -5.2095 -7.3055 -10.01 
-18.6405 -21.7821 -17.185 -11.9173 -9.1735 -9.173 -13.8799 -10.1145 -9.802501 -11.5234 -11.8921 -7.3055 -11.5919 
-23.247 -24.4801 -19.5688 -12.7698 -12.5729 -14.6536 -14.1074 -10.1145 -15.6386 -11.9404 -13.9881 -11.5919 
-1.934 -3.5905 -6.557 -3.1715 -1.7565 -1.4985 -3.594 -5.254 -1.4985 -10.7895 -3.59 -4.4755 -3.222 -3.3715 -3.959 0 
-5.709 -10.9327 -8.42 -4.207 -2.4195 -4.568 -9.427 -5.9295 -13.3818 -14.3795 -8.3955 -6.851501 -6.256001 -5.699 -3.959 
-13.7108 -12.7957 -9.855 -4.719501 -4.9975 -10.233 -9.96 -18.1996 -16.9718 -19.185 -10.9767 -8.814 -8.6745 -5.699 
-15.5738 -14.2307 -11.1703 -5.052001 -10.5605 -10.8316 -22.2977 -21.7896 -21.7773 -21.7662 -12.9392 -10.335 -8.6745 
-17.0088 -15.546 -11.5028 -10.708 -11.1591 -23.1693 -25.8877 -26.5951 -24.3585 -23.7287 -14.4602 -10.335 

n/a 
n/a 
n/a 
n/a 
