-4.759 
n/a 
n/a 
n/a 
n/a 
-4.759 
n/a 
n/a 
n/a 
n/a 
-4.759 
n/a 
n/a 
n/a 
n/a 
-4.759 
n/a 
n/a 
n/a 
n/a 
-2.925 -3.152 -2.6165 -4.7295 -1.7695 -2.674 -3.462 0 
-4.203 -4.6295 -6.0925 -4.798 -3.8225 -6.423 -3.462 
-5.583 -7.462 -6.1 -6.1445 -7.566 -6.423 
-8.130501 -7.467 -7.483 -10.103 -7.566 
-8.1335 -8.7025 -11.7069 -10.103 
-2.925 -3.2645 -2.6165 -3.859 -3.462 0 
-4.8195 -4.457 -6.461 -7.4715 -3.462 
-5.991 -8.156 -9.650001 -7.4715 
-9.426001 -11.5976 -9.650001 
-12.9842 -11.5976 
-2.925 -3.2645 -2.6165 -4.0835 -2.356 -3.462 0 
-4.8195 -4.457 -6.356501 -5.6715 -5.315001 -3.462 
-5.991 -9.972 -7.837501 -8.814001 -5.315001 
-11.742 -11.63 -11.3518 -8.814001 
-13.4 -15.1443 -11.3518 
-3.2645 -2.6165 -3.859 -2.356 -3.462 
-4.457 -6.461 -6.293 -5.315001 
-8.156 -8.0505 -9.6295 
-10.7595 -11.8128 
-14.5218 
