-4.759 
n/a 
n/a 
n/a 
n/a 
-4.759 
n/a 
n/a 
n/a 
n/a 
-4.759 
n/a 
n/a 
n/a 
n/a 
-4.759 
n/a 
n/a 
n/a 
n/a 
-5.015 -4.157 -1.7695 -4.2485 -1.7695 -3.307 -1.7565 -3.616 -1.756 -3.704 -3.4865 -5.0595 -5.6525 -6.831501 -3.8755 0 
-9.779501 -5.6485 -6.549 -6.2815 -5.771501 -4.8035 -5.297 -4.8665 -5.402 -7.5655 -9.229501 -11.8356 -7.517 -11.3138 -3.8755 
-11.4 -11.4254 -8.9445 -11.0363 -7.1555 -8.4725 -6.4015 -6.6575 -9.706 -13.8665 -16.1868 -13.7001 -12.4247 -11.3138 
-17.1769 -13.8209 -13.7153 -12.4203 -10.5125 -10.0102 -8.0795 -10.368 -15.8942 -20.8238 -18.0513 -18.6078 -12.4247 
-19.5724 -18.5917 -15.0993 -15.7773 -12.0502 -11.6882 -12.0322 -16.7166 -22.8515 -22.6883 -22.959 -18.6078 
-1.4985 -4.237 -4.3905 -3.4425 -2.186 -4.3215 -2.3345 -3.704 -4.0375 0 -2.4265 -3.644 -5.6525 -6.831501 
-5.154 -8.6815 -8.139 -5.194 -5.745501 -5.1005 -5.9865 -6.671 -4.0375 -2.4265 -5.2615 -8.981501 -7.517 
-9.540001 -12.7198 -10.1505 -8.09 -6.357501 -8.729 -9.940001 -6.671 -6.599501 -5.2615 -10.869 -11.2178 
-13.5109 -14.7313 -13.0465 -8.9315 -9.797501 -13.0043 -9.940001 -9.844501 -9.7095 -10.869 -13.1053 
-15.5224 -17.6273 -13.888 -12.3737 -14.2924 -13.0043 -13.3507 -13.0425 -15.3302 -13.1053 
-21.0135 -4.6955 -5.3875 -4.033 -3.6065 -4.4605 -1.7565 -5.015 -3.335 -1.4985 -4.2485 -3.922 0 -1.4985 -3.616 -3.42 -3.837 -4.212 -5.0425 0 -1.4985 -3.704 -1.756 -3.845 -3.6185 -3.335 -3.768 -4.3125 0 -2.5195 -5.6525 -6.831501 -4.3845 0 
-23.9464 -8.817 -8.382501 -7.9735 -6.6645 -5.3105 -6.291 -8.272501 -4.7575 -5.307 -6.854501 -3.922 -1.4985 -4.8055 -6.553 -6.7665 -7.665 -8.98 -5.0425 -1.4985 -4.735001 -5.364 -5.366 -6.9925 -6.8865 -7.469501 -7.9085 -4.3125 -2.5195 -7.816501 -7.517 -10.821 -4.3845 
-22.2906 -9.9755 -12.5004 -10.7495 -7.03 -9.6085 -10.233 -9.107 -8.264001 -7.685501 -6.854501 -4.7665 -4.8055 -7.3475 -8.326 -10.7575 -12.8204 -8.98 -6.683 -4.735001 -6.326 -6.338 -7.8545 -8.6955 -9.93 -11.8998 -7.9085 -6.3845 -7.816501 -8.5515 -11.9319 -10.821 
-23.8127 -14.2394 -15.2764 -11.115 -11.4912 -13.7961 -11.0675 -12.7289 -10.597 -7.685501 -8.384501 -9.009001 -7.3475 -8.604 -12.4838 -15.9129 -12.8204 -10.9259 -10.2695 -6.326 -7.184 -8.281501 -9.534 -11.8588 -14.3603 -11.8998 -10.1995 -11.9359 -8.5515 -13.7022 -11.9319 
-28.0766 -17.0154 -15.6419 -15.5762 -15.6788 -14.6306 -14.6894 -15.0619 -10.597 -9.26 -12.7134 -11.7362 -8.604 -12.8452 -17.6392 -15.9129 -14.7663 -14.5124 -11.8605 -7.184 -8.646501 -9.8465 -12.6747 -16.2891 -14.3603 -14.1908 -15.7829 -12.6709 -13.7022 -13.7022 
-5.174 -4.8155 -1.7695 -2.9645 -2.0935 -4.2485 
-8.890501 -6.7015 -3.812 -4.7965 -6.533 
-11.0109 -9.011001 -5.6325 -9.460001 
-13.3204 -9.9835 -9.969001 
-14.2929 -14.4284 
