-4.759 
n/a 
n/a 
n/a 
n/a 
-4.759 
n/a 
n/a 
n/a 
n/a 
-4.759 
n/a 
n/a 
n/a 
n/a 
-4.759 
n/a 
n/a 
n/a 
n/a 
-4.4675 -6.4925 -2.857 -5.2865 0 -5.1845 0 
-11.1415 -10.1385 -6.4985 -5.2865 -5.1845 -5.1845 
-14.7875 -10.6535 -6.4985 -9.918501 -5.1845 
-15.3025 -10.6535 -11.6567 -9.918501 
-15.3025 -15.8117 -11.6567 
-4.4675 0 -4.5645 -2.857 -5.2865 0 -5.1845 0 
-4.4675 -4.5645 -8.028001 -6.4985 -5.2865 -5.1845 -5.1845 
-9.019501 -8.028001 -10.155 -6.4985 -9.918501 -5.1845 
-12.5142 -10.155 -10.155 -11.6567 -9.918501 
-14.6412 -10.155 -15.5232 -11.6567 
-4.4675 0 -9.976501 -2.857 -5.2865 0 -5.1845 0 
-4.4675 -9.976501 -13.0239 -6.4985 -5.2865 -5.1845 -5.1845 
-14.8764 -13.0239 -16.6654 -6.4985 -9.918501 -5.1845 
-17.9238 -16.6654 -16.6654 -11.6567 -9.918501 
-21.5653 -16.6654 -21.8236 -11.6567 
-4.4675 0 -4.5645 -2.857 -5.2865 0 -5.1845 0 
-4.4675 -4.5645 -8.028001 -6.4985 -5.2865 -5.1845 -5.1845 
-9.019501 -8.028001 -10.155 -6.4985 -9.918501 -5.1845 
-12.5142 -10.155 -10.155 -11.6567 -9.918501 
-14.6412 -10.155 -15.5232 -11.6567 
