-4.759 
n/a 
n/a 
n/a 
n/a 
-4.759 
n/a 
n/a 
n/a 
n/a 
-4.759 
n/a 
n/a 
n/a 
n/a 
-4.759 
n/a 
n/a 
n/a 
n/a 
-4.142 -3.355 -1.7565 -4.743 -2.186 -4.4905 -1.7695 -6.864 -4.0965 0 
-6.3015 -3.725 -7.773001 -7.074 -5.5835 -4.895 -9.3815 -8.968 -4.0965 
-6.351 -10.001 -9.687501 -10.8501 -5.87 -13.245 -11.5325 -8.968 
-13.0096 -12.2173 -13.5758 -11.1366 -14.709 -15.396 -11.5325 
-15.2259 -16.1056 -13.8623 -19.9756 -16.86 -15.396 
-3.5455 -3.7575 -1.7565 -6.899 -3.8375 -2.8645 -5.018 -2.356 -7.4885 -4.6825 
-5.799001 -4.4575 -8.5275 -11.117 -6.482 -7.1875 -5.953 -10.035 -12.7982 
-6.1545 -11.9819 -12.9351 -13.7615 -11.175 -7.413001 -13.9632 -15.3447 
-13.8677 -16.3895 -15.5796 -18.4545 -11.4005 -15.5638 -19.2729 
-18.2753 -19.034 -20.2726 -18.68 -19.5513 -20.8735 
-1.4985 -5.933 -1.7565 -6.6585 -2.186 -4.4905 -1.7695 -8.5035 -2.229 -3.59 0 
-7.0655 -7.748 -8.343 -8.780001 -5.5835 -4.895 -11.1165 -10.5435 -5.868 -3.59 
-7.966001 -14.8429 -9.8465 -12.4857 -5.87 -14.98 -13.1565 -14.1825 -5.868 
-15.1805 -16.3464 -13.8012 -12.7722 -16.444 -17.02 -16.7955 -14.1825 
-16.684 -20.3011 -14.0877 -23.3462 -18.484 -20.659 -16.7955 
-6.899 -3.8745 -4.142 -3.355 -2.7415 -3.918 -1.7695 -6.864 -3.59 0 
-11.7839 -6.4055 -6.3015 -6.144501 -6.377501 -6.328 -9.3815 -9.337 -3.59 
-14.3149 -9.646501 -8.89 -10.142 -7.916 -14.5946 -11.9015 -9.337 
-17.5559 -11.5112 -12.9843 -10.2705 -16.3872 -17.1146 -11.9015 
-19.4206 -15.6055 -13.1128 -18.8611 -18.9072 -17.1146 
