-4.759 
n/a 
n/a 
n/a 
n/a 
-4.759 
n/a 
n/a 
n/a 
n/a 
-4.759 
n/a 
n/a 
n/a 
n/a 
-4.759 
n/a 
n/a 
n/a 
n/a 
-3.1015 -4.795 -4.2915 -3.8085 -1.934 -4.278 0 
-8.445 -9.984 -9.1105 -5.1105 -6.2645 -4.278 
-13.9044 -14.803 -10.435 -10.7366 -6.2645 
-18.7234 -16.1275 -16.0611 -10.7366 
-20.0479 -21.7536 -16.0611 
-2.5045 -3.8825 -4.278 -4.0935 -4.795 -3.6885 -7.762001 
-5.282001 -9.214001 -8.5905 -9.196001 -8.9345 -12.6529 
-10.4185 -13.6619 -14.0496 -13.6543 -18.3327 
-14.8664 -19.121 -18.5079 -23.0525 
-20.3255 -23.5793 -27.9061 
-2.5045 -3.8825 -3.0365 -2.4945 -4.795 -3.6885 -4.7505 -1.7565 -4.278 0 
-5.282001 -6.326 -3.688 -8.435 -8.9345 -6.312 -5.763 -6.515 -4.278 
-6.5295 -6.755 -8.629001 -12.9085 -10.0615 -8.1855 -8.92 -6.515 
-6.8355 -12.0114 -13.2627 -14.0355 -10.0845 -8.985001 -8.92 
-12.2107 -16.6451 -14.3897 -14.0585 -10.0905 -8.985001 
-1.934 -4.278 -4.795 -3.6885 -3.0365 
-6.2645 -10.688 -8.9345 -6.793 
-13.4127 -14.8275 -12.4728 
-17.5522 -18.3658 
-21.0905 
