-4.759 
n/a 
n/a 
n/a 
n/a 
-4.759 
n/a 
n/a 
n/a 
n/a 
-4.759 
n/a 
n/a 
n/a 
n/a 
-4.759 
n/a 
n/a 
n/a 
n/a 
-3.429 -2.3335 -5.1575 -3.8015 -1.934 -8.175 
-5.533 -7.7665 -7.2825 -5.8085 -8.765 
-11.4224 -9.959001 -8.5745 -13.2727 
-13.6149 -11.3974 -16.5463 
-15.0533 -19.3692 
-2.3585 -4.0135 -1.4985 -5.1575 -4.4525 -1.934 -3.9175 
-6.106 -4.874 -6.443501 -8.689 -6.329 -4.681 
-6.557 -7.9805 -9.482 -9.93 -8.139501 
-9.412001 -11.8074 -10.8116 -11.6441 
-13.3357 -13.137 -12.5257 
-4.224 -3.975 
-8.359501 
n/a 
n/a 
n/a 
-2.5045 -3.115 -2.3615 -3.5795 -4.116 -4.2945 -1.934 -3.9175 0 
-6.717501 -4.312 -6.612 -8.467501 -8.4875 -5.962501 -4.681 -3.9175 
-8.6055 -7.914001 -11.7702 -13.0654 -9.7005 -9.193501 -4.681 
-12.3883 -13.3556 -16.3681 -14.2784 -13.1949 -9.193501 
-17.8299 -17.9535 -17.5811 -17.7728 -13.1949 
