-4.759 
n/a 
n/a 
n/a 
n/a 
-4.759 
n/a 
n/a 
n/a 
n/a 
-4.759 
n/a 
n/a 
n/a 
n/a 
-4.759 
n/a 
n/a 
n/a 
n/a 
-4.5255 0 -8.589001 -8.064 0 -10.6015 0 
-4.5255 -8.589001 -16.8676 -8.064 -10.6015 -10.6015 
-13.5023 -16.8676 -16.8676 -19.2435 -10.6015 
-21.7809 -16.8676 -28.0471 -19.2435 
-21.7809 -28.0471 -28.0471 
-4.5255 0 -6.371 -8.064 0 -4.936 0 
-4.5255 -6.371 -10.543 -8.064 -4.936 -4.936 
-10.127 -10.543 -10.543 -13.578 -4.936 
-14.724 -10.543 -16.057 -13.578 
-14.724 -16.057 -16.057 
-4.5255 -6.371 -8.064 0 -4.094 0 
-10.127 -10.543 -8.064 -4.094 -4.094 
-14.724 -10.543 -12.736 -4.094 
-14.724 -15.215 -12.736 
-19.396 -15.215 
-4.5255 0 -6.371 -6.081 0 -3.783 0 
-4.5255 -6.371 -10.4855 -6.081 -3.783 -3.783 
-10.127 -10.4855 -10.4855 -11.1404 -3.783 
-14.6665 -10.4855 -15.5449 -11.1404 
-14.6665 -15.5449 -15.5449 
