-4.759 
n/a 
n/a 
n/a 
n/a 
-4.759 
n/a 
n/a 
n/a 
n/a 
-4.759 
n/a 
n/a 
n/a 
n/a 
-4.759 
n/a 
n/a 
n/a 
n/a 
-1.934 -6.557 -8.191501 -1.756 -7.0445 -3.8145 -2.4945 -3.1495 -4.4595 -6.278 -8.385 -3.849 -2.5045 -6.341 -12.16972 -4.06 -5.305 -2.264 -1.4985 -6.2605 -1.7565 -9.287001 -3.9075 0 
-7.536 -11.046 -9.883 -8.8095 -8.8395 -6.5495 -5.377501 -6.965 -9.883 -15.2844 -12.5558 -6.305 -8.708501 -19.15372 -16.22972 -9.384501 -8.111 -2.9195 -7.224 -8.382 -10.634 -9.796 -3.9075 
-12.2728 -12.7375 -17.0453 -10.6885 -11.6993 -9.4855 -9.427 -12.6023 -19.0638 -19.4552 -15.0118 -12.6126 -21.72622 -23.21372 -21.55422 -10.5875 -8.489 -8.280001 -8.6925 -17.6147 -11.143 -9.796 
-13.9643 -19.8998 -18.9243 -13.5483 -14.6353 -13.9774 -15.1151 -21.7831 -23.2346 -21.9112 -21.3194 -25.63032 -25.78622 -28.53822 -22.75722 -10.694 -14.0267 -9.6645 -18.0162 -18.1237 -11.143 
-21.1266 -21.7788 -21.7841 -16.4843 -19.1272 -19.6655 -24.2959 -25.9539 -25.6906 -28.2188 -34.33712 -29.69032 -31.11072 -29.74122 -22.86372 -16.2317 -15.4112 -19.039 -18.5252 -18.1237 
-1.934 -6.557 -8.191501 -3.8145 0 -7.0445 -4.7315 -9.628 -5.2415 -2.3615 -2.789 -5.923 -5.585 -3.333 
-7.536 -11.046 -9.551001 -3.8145 -7.0445 -9.861 -15.4287 -15.1323 -7.796 -6.418 -9.0895 -8.4785 -9.092501 
-12.2728 -12.4055 -9.551001 -9.981 -9.861 -20.606 -20.933 -17.6868 -12.1639 -13.0517 -11.7902 -12.2136 
-13.6323 -12.4055 -15.7451 -12.7975 -20.606 -26.1103 -23.4875 -22.0547 -18.7976 -15.7524 -15.5253 
-13.6323 -18.5996 -18.5616 -23.5425 -26.1103 -28.6648 -27.8554 -28.6884 -21.4983 -19.4875 
-2.925 -3.152 -4.99 -1.934 -1.4985 -4.3215 -1.7565 -3.9075 -9.8815 -1.934 -12.16972 -8.191501 -4.7315 -1.7565 -5.1845 -5.74 
-4.203 -7.246 -5.477 -2.6125 -5.394 -5.7605 -6.106 -11.1165 -11.9589 -15.11012 -20.36122 -10.575 -6.11 -6.580501 -5.7465 
-8.302501 -7.7925 -5.791 -7.2015 -5.962501 -7.937 -13.9834 -13.1939 -25.13502 -23.30162 -22.74472 -11.9535 -8.523001 -6.961501 
-8.939 -8.252501 -9.935 -8.223001 -8.029501 -16.2172 -16.0608 -26.37002 -33.32652 -25.68512 -24.12322 -14.3665 -8.5255 
-9.345 -12.3173 -9.962501 -9.844001 -16.3999 -18.2946 -29.23692 -34.56152 -35.71002 -27.06362 -26.53622 -14.369 
-3.1495 -4.4595 -5.585 -1.7565 -4.3055 -5.923 -2.4945 -4.06 -1.934 -5.1845 -5.74 -1.934 -7.166501 -3.8145 -7.0445 -3.8145 -1.756 -2.264 -1.4985 -8.095 -1.7565 -9.259501 
-6.965 -9.112 -6.531 -6.1225 -7.0665 -8.634001 -5.1305 -4.483 -6.564 -5.7465 -7.7355 -8.295501 -8.318001 -9.981 -8.8395 -5.497 -4.4925 -2.9195 -7.9535 -8.757501 -10.419 
-11.8313 -10.355 -9.1445 -7.6175 -9.504 -11.4306 -5.5445 -9.241501 -6.819 -7.743001 -14.5878 -8.795501 -14.7299 -11.776 -10.575 -8.078501 -5.0455 -8.3435 -8.9715 -18.0121 
-13.0743 -12.9685 -9.624001 -9.7825 -12.3794 -11.8446 -10.0815 -9.258 -8.3725 -14.6035 -15.0878 -15.3278 -16.5249 -13.5115 -13.1565 -8.4455 -10.729 -9.9685 -18.7211 
-15.6878 -13.448 -11.8694 -12.6817 -12.7934 -16.3816 -10.098 -10.751 -15.3186 -15.1035 -21.6201 -17.1228 -18.2604 -16.093 -13.5235 -14.2969 -12.3095 -19.9004 
