-4.759 
n/a 
n/a 
n/a 
n/a 
-4.759 
n/a 
n/a 
n/a 
n/a 
-4.759 
n/a 
n/a 
n/a 
n/a 
-4.759 
n/a 
n/a 
n/a 
n/a 
-7.641 -2.7415 -4.0835 -2.264 -1.4985 -3.873 -1.7565 -3.5455 -5.9215 -3.2875 
-10.3545 -5.341001 -5.269501 -2.9195 -4.7405 -5.197001 -4.8635 -9.521501 -8.370001 
-12.954 -6.453001 -5.868001 -6.0785 -5.489 -8.55 -11.8769 -12.4366 
-14.066 -6.890501 -8.192 -7.313001 -8.9425 -15.8238 -14.792 
-14.5035 -9.081501 -9.144001 -10.7595 -16.7359 -18.7389 
-10.5165 0 -2.186 -1.934 -3.502 
-10.5165 -2.186 -4.0835 -4.8155 
-12.7025 -4.0835 -7.238501 
-14.6 -7.238501 
-17.755 
-1.934 -1.8085 -3.873 -3.9615 -1.4985 -3.502 -1.7565 -5.9215 -5.7105 -5.9185 -2.7415 -4.0835 0 
-3.2685 -5.6705 -6.866 -4.716 -4.5955 -5.0575 -7.501 -7.9175 -6.078 -8.193001 -5.341001 -4.0835 
-6.6305 -9.561001 -7.378 -7.2455 -5.911 -9.804501 -9.468 -7.992 -8.3735 -8.781 -5.341001 
-10.403 -10.083 -9.6475 -9.092 -11.2074 -11.7913 -9.495001 -10.8489 -8.87 -8.781 
-10.925 -12.3525 -11.5866 -14.6838 -13.1942 -11.8183 -12.5977 -11.3454 -8.87 
-5.9215 -3.6515 -4.809 -10.8685 -8.1315 
-9.570001 -7.441501 -16.6103 -19 
-13.6826 -19.5152 -24.7418 
-25.7563 -27.6467 
-33.8878 
