-4.759 
n/a 
n/a 
n/a 
n/a 
-4.759 
n/a 
n/a 
n/a 
n/a 
-4.759 
n/a 
n/a 
n/a 
n/a 
-4.759 
n/a 
n/a 
n/a 
n/a 
-12.16972 0 -8.787001 -7.5625 0 -2.802 
-12.16972 -8.787001 -16.9637 -7.5625 -2.802 
-20.95672 -16.9637 -16.9637 -10.533 
-29.13342 -16.9637 -19.9342 
-29.13342 -19.9342 
-12.16972 0 -12.16972 -5.154 0 -2.802 0 
-12.16972 -12.16972 -17.32372 -5.154 -2.802 -2.802 
-24.33944 -17.32372 -17.32372 -8.331501 -2.802 
-29.49344 -17.32372 -20.50122 -8.331501 
-29.49344 -20.50122 -20.50122 
-15.15472 0 -8.787001 -8.882501 
-15.29992 -8.787001 -9.312 
-24.08692 -9.312 
-24.61192 
n/a 
-11.092 -6.1285 0 -8.787001 -14.97172 
-12.3562 -6.1285 -8.787001 -24.37292 
-12.3562 -15.8069 -24.37292 
-22.0848 -31.39282 
-37.67072 
