-4.759 
n/a 
n/a 
n/a 
n/a 
-4.759 
n/a 
n/a 
n/a 
n/a 
-4.759 
n/a 
n/a 
n/a 
n/a 
-4.759 
n/a 
n/a 
n/a 
n/a 
-5.5905 -7.738 -1.756 -3.321 -2.186 -3.2955 -2.3345 -1.4985 -3.7075 -7.626 
-8.2145 -8.657001 -4.0055 -5.774 -4.348001 -4.534 -3.233 -4.6235 -12.5887 
-9.123501 -11.6661 -6.847 -8.0565 -5.5695 -5.117 -6.444 -13.9623 
-12.7266 -14.5076 -8.8415 -9.424 -6.103 -8.485001 -16.1164 
-15.5681 -16.5021 -10.025 -9.754001 -9.014001 -18.7816 
-5.5905 -9.4575 -3.9175 -1.7565 -3.992 -1.7565 -1.7695 -3.7075 -1.7565 -3.772 -1.7695 -4.202 -1.7565 -3.737 -1.934 -3.602 -1.7565 -4.4305 -1.7695 -3.935 0 
-10.8025 -13.8114 -4.64 -5.7685 -5.2285 -5.7455 -6.146501 -6.572001 -5.3335 -5.435 -6.864501 -5.3045 -5.1295 -5.859 -5.8275 -4.5195 -7.046 -7.2805 -4.6555 -3.935 
-15.1564 -14.5339 -10.4505 -7.659 -9.5435 -10.2865 -8.877001 -10.8576 -6.676001 -10.2135 -8.803 -7.8795 -8.389001 -10.7025 -6.63 -10.7175 -9.033001 -10.598 -4.6555 
-15.8789 -20.3444 -12.341 -12.196 -14.2185 -13.017 -13.8076 -12.2001 -11.8481 -12.4358 -11.4482 -11.281 -13.3957 -11.505 -13.3866 -12.7045 -12.4009 -10.598 
-21.6894 -22.2349 -16.878 -16.871 -16.949 -17.9476 -15.1501 -17.3722 -14.0704 -15.081 -14.8497 -16.2877 -14.1982 -18.2616 -15.3736 -16.0724 -12.4009 
-2.5045 -3.543 -1.4985 -5.5905 -7.738 0 -3.7075 -5.27 -2.742 -4.0135 -4.6985 -4.983 0 
-5.323 -5.62 -8.478001 -8.2145 -7.738 -3.7075 -9.928 -7.876 -5.84 -10.1075 -10.1855 -4.983 
-5.8685 -13.1077 -11.3196 -8.2145 -12.2233 -9.928 -12.732 -10.733 -12.805 -15.5945 -10.1855 
-13.569 -15.9493 -11.3196 -13.012 -18.4438 -12.732 -15.589 -17.698 -18.292 -15.5945 
-16.4106 -15.9493 -16.1171 -19.2325 -21.2478 -15.589 -22.554 -23.185 -18.292 
-3.9345 -1.7695 -1.4985 -3.8125 -1.7565 -5.5905 -7.738 -3.7075 -2.229 -4.692 -3.6505 -3.2345 -1.4985 -4.983 -5.8655 -4.685 0 -2.3615 -4.8675 -1.4985 -4.969 -2.9705 -4.4275 -2.5045 -1.4985 -4.129 -2.0935 -3.9545 -4.654 0 
-3.94 -2.7955 -5.272 -5.167 -7.7535 -8.2145 -12.2233 -5.5255 -6.6025 -8.5275 -6.943 -4.328 -6.109 -11.117 -10.718 -4.685 -2.3615 -6.4895 -5.4845 -6.111 -6.861001 -6.444 -5.386 -3.583 -5.424 -7.021501 -5.946 -7.9535 -4.654 
-4.4455 -6.8465 -5.801001 -9.245001 -9.9665 -13.012 -14.0413 -7.7335 -11.2138 -12.144 -8.311501 -9.0795 -12.958 -15.9695 -10.718 -7.035001 -6.4895 -7.028501 -9.918 -8.0675 -10.204 -6.6685 -6.351 -6.6425 -9.466001 -11.3998 -9.925501 -7.9535 
-8.880501 -7.1375 -9.628 -12.4318 -14.8282 -14.83 -16.2493 -13.223 -14.8303 -13.5125 -13.3574 -16.1721 -17.8105 -15.9695 -13.9126 -11.4096 -7.028501 -11.5386 -11.9659 -11.4721 -10.6175 -7.509001 -9.252001 -10.5535 -13.8547 -15.3793 -9.925501 
-9.119 -11.1169 -12.9284 -17.2935 -16.6462 -17.038 -21.7388 -16.8395 -16.1988 -18.5584 -20.45 -21.0246 -17.8105 -19.1641 -18.2872 -11.9486 -11.5386 -13.5865 -15.3705 -11.8856 -11.458 -10.328 -13.56 -14.9422 -17.8342 -15.3793 
