-4.759 
n/a 
n/a 
n/a 
n/a 
-4.759 
n/a 
n/a 
n/a 
n/a 
-4.759 
n/a 
n/a 
n/a 
n/a 
-4.759 
n/a 
n/a 
n/a 
n/a 
-2.3345 -2.3615 -4.299 -1.4985 -5.3745 -4.891 -4.3195 -1.4985 -3.9175 -5.182 -1.7565 -1.4985 -6.844 -4.676 0 
-4.499 -6.3375 -5.682 -6.2355 -7.061501 -8.842501 -5.1515 -4.6635 -6.739 -7.1795 -2.4195 -8.304001 -12.4586 -4.676 
-8.219 -7.7325 -10.2035 -7.2945 -12.4052 -9.25 -8.5305 -7.257501 -8.611 -7.838 -8.842501 -14.6846 -12.4586 
-9.370001 -12.571 -10.617 -13.1714 -12.8127 -13.0476 -10.186 -8.786501 -8.941501 -14.6784 -15.4753 -14.6846 
-14.2709 -12.9845 -16.2923 -13.5789 -16.6103 -14.7031 -11.8446 -9.080501 -15.8903 -21.3112 -15.4753 
-2.3345 -2.3615 -4.849 -1.4985 -4.891 -4.3195 -1.4985 -5.1845 -6.844 -2.186 -1.4985 -3.0835 -4.5675 0 
-4.499 -7.471001 -6.568001 -5.891001 -8.842501 -5.1515 -6.5205 -6.9655 -8.728001 -3.339 -3.535 -7.9715 -4.5675 
-9.304001 -8.9235 -11.4123 -9.114501 -9.25 -10.3545 -8.643001 -8.945001 -9.432 -4.8925 -8.0345 -7.9715 
-10.5335 -13.8422 -14.6358 -9.480501 -14.8716 -12.6836 -10.7007 -9.7215 -11.5235 -8.8245 -8.0345 
-15.4522 -17.0657 -15.0018 -15.3407 -17.2007 -14.7413 -11.4772 -12.0596 -15.4555 -8.8245 
-2.356 -2.3615 -4.299 -4.891 -4.3195 -1.4985 -3.896 -4.2995 -1.934 -6.5035 
-4.2185 -6.3375 -9.404 -8.842501 -5.1515 -5.6155 -9.8675 -5.569 -8.524 
-8.22 -12.1513 -13.4369 -9.25 -10.1225 -11.988 -11.137 -12.7908 
-14.124 -16.1842 -13.8444 -14.6396 -16.7968 -13.2575 -18.3588 
-18.1569 -16.5917 -19.234 -21.3139 -18.0663 -20.4793 
-3.851 -1.7695 -3.1495 -4.5115 -6.144 -4.3195 -1.4985 -5.4535 -1.7565 -5.9125 -3.711 
-4.0015 -4.7475 -6.429 -9.68 -9.6385 -5.1515 -6.1595 -7.2425 -7.500501 -8.9245 
-6.657 -7.829501 -12.1459 -13.3175 -10.153 -8.4335 -7.6095 -13.8103 -10.322 
-9.504001 -13.6972 -15.7834 -13.832 -13.435 -10.199 -14.3959 -16.6318 
-15.3995 -17.3347 -16.2979 -17.114 -15.2005 -17.0758 -17.2174 
