-4.759 
n/a 
n/a 
n/a 
n/a 
-4.759 
n/a 
n/a 
n/a 
n/a 
-4.759 
n/a 
n/a 
n/a 
n/a 
-4.759 
n/a 
n/a 
n/a 
n/a 
-3.1495 -4.2285 -4.237 -4.7995 -2.674 -1.4985 -4.194 -1.7695 -3.5185 -4.237 -4.7925 -1.756 -3.8845 -4.644 
-7.330501 -7.5445 -9.887501 -7.297501 -3.998 -5.2405 -5.2285 -4.134 -7.8985 -9.004 -5.9165 -5.738 -9.147 
-10.9769 -13.8108 -12.6535 -9.1155 -6.261 -5.775 -7.4065 -8.2415 -13.1583 -10.323 -10.2985 -10.597 
-17.2432 -16.5768 -14.4715 -10.6605 -6.3435 -7.859 -11.5746 -13.6225 -14.4773 -14.705 -15.1575 
-20.0092 -18.3948 -16.0165 -10.756 -8.488501 -12.0391 -16.9556 -14.9415 -18.8593 -19.564 
-2.3615 -4.2485 -1.7565 -5.637 -6.0175 -4.6205 -3.535 -4.2485 -1.756 -5.6695 -4.6625 -1.934 -4.2485 -1.7565 -4.7715 0 
-6.834001 -5.5065 -7.241001 -7.78 -10.7665 -9.242001 -8.652 -5.4505 -6.9245 -9.6315 -6.292 -6.183 -5.5065 -6.244 -4.7715 
-9.1225 -9.799001 -8.56 -12.5986 -15.388 -14.6994 -10.375 -10.199 -11.2611 -11.261 -11.2366 -7.6465 -9.834001 -6.244 
-13.559 -10.236 -13.5848 -17.2201 -20.8454 -16.4224 -15.1235 -14.5356 -12.8906 -16.2056 -12.7001 -12.3974 -9.834001 
-13.996 -15.7772 -18.2063 -22.6775 -22.5684 -21.1709 -19.4601 -16.1651 -17.8352 -17.6691 -17.451 -12.3974 
-4.3055 -5.744 -4.3215 -2.3335 -2.6165 -2.645 -3.1575 -3.454 -3.748 -3.277 -3.423 -2.674 -4.349 -3.5065 -1.4985 -3.995 -6.3955 0 
-7.287 -10.674 -5.1075 -5.2615 -5.3005 -3.72 -5.563001 -5.8255 -5.8405 -6.877501 -4.6435 -5.693 -6.3225 -4.358 -4.712 -9.978001 -6.3955 
-12.8736 -11.46 -8.702001 -7.31 -5.4465 -5.6775 -6.960001 -7.871 -8.795 -8.068001 -7.6305 -6.608 -6.708 -7.734 -10.1225 -9.978001 
-13.6596 -15.0545 -11.4085 -7.371 -7.6915 -6.981501 -9.057501 -11.0075 -9.568501 -9.852 -9.9425 -6.9675 -9.519 -13.8667 -10.1225 
-17.2541 -17.761 -11.4695 -9.685 -9.1885 -9.1315 -12.3834 -11.781 -11.4441 -10.5565 -10.5075 -9.578 -16.1423 -13.8667 
-3.1495 -5.637 -6.0175 -2.7765 -2.489 -4.3245 -4.237 -3.7685 -4.7925 -1.756 -3.7685 -3.8845 -5.4175 0 
-9.3255 -7.78 -8.4245 -3.495 -8.2005 -7.309 -7.074 -5.784 -5.9165 -5.515 -7.1875 -10.004 -5.4175 
-10.7185 -10.058 -8.8295 -8.941 -11.417 -9.824 -10.1945 -7.032 -8.9045 -8.949 -13.784 -10.004 
-12.9965 -10.766 -14.4647 -12.3061 -13.932 -13.8099 -11.4425 -9.0485 -12.9437 -15.6629 -13.784 
-13.7045 -16.4012 -17.8298 -14.8211 -17.9179 -15.0579 -13.459 -13.3787 -19.6576 -15.6629 
