-4.759 
n/a 
n/a 
n/a 
n/a 
-4.759 
n/a 
n/a 
n/a 
n/a 
-4.759 
n/a 
n/a 
n/a 
n/a 
-4.759 
n/a 
n/a 
n/a 
n/a 
-1.4985 -3.6885 -1.934 -4.1885 -5.473 -4.0435 -2.7415 -3.1435 -6.6995 -2.356 -1.4985 -4.244 -4.2605 -1.934 -3.0105 -2.5045 -3.543 -1.4985 -3.74 -3.43 -2.3345 -3.732 -6.864501 -1.756 -3.091 -3.515 0 -2.925 -4.2815 -3.143 -4.0885 -4.113 -4.418 -2.356 -1.4985 -3.399 -4.113 -4.033 0 -1.756 -3.557 -2.9905 -2.3335 -3.1495 -4.418 -3.152 -2.6165 -5.075 -4.554 -1.4985 -3.6615 -4.4825 -1.934 -1.4985 -3.7685 -3.793 -4.1095 -2.872 -4.936 -4.443 -3.1495 -3.4515 -3.152 -1.934 -5.703 -2.356 -1.4985 -3.634 -3.74 -3.277 -3.43 -1.934 -1.4985 -3.486 -3.518 -1.934 -2.8845 0 -4.637 -5.7045 -3.4075 -3.326 -3.307 -2.229 -4.3575 -7.1165 -1.756 -3.091 -3.515 -1.7565 -3.1205 -3.499 -3.43 -1.8085 -3.326 -2.264 -10.22 -4.708 -1.756 -3.557 -2.9905 -2.3335 -3.0365 -2.4945 -3.845 -1.7565 -4.841 -1.756 -4.9985 -4.258 -3.557 -1.934 -2.3335 -4.7475 -2.925 -4.1585 -3.0365 -2.186 -2.6165 -3.6135 -4.4765 -4.1755 -3.458 -1.4985 -4.113 -4.418 -1.756 -1.4985 -3.399 -2.871 0 
-4.307 -5.1845 -5.488 -10.204 -10.9315 -6.1085 -6.257 -9.1855 -8.5885 -3.1615 -4.685 -7.0395 -5.3385 -4.827 -5.8785 -5.323 -5.62 -5.0815 -7.5015 -4.5865 -4.9005 -11.5603 -9.182001 -4.2995 -5.487 -3.515 -2.925 -7.1515 -9.081001 -8.115 -7.4535 -10.27 -6.375 -3.1615 -4.428 -6.924 -9.403501 -4.033 -1.756 -5.094 -5.269 -4.803 -4.8015 -6.517 -5.704 -4.6295 -6.563001 -7.912001 -6.142 -4.9455 -7.941 -5.5625 -2.6125 -5.225 -7.7275 -8.528501 -6.771501 -8.025001 -9.095001 -7.56 -5.2445 -5.4585 -4.9115 -6.8345 -7.037 -3.1615 -4.943501 -6.9265 -6.301001 -6.8415 -4.639 -2.6125 -3.5655 -5.721 -5.322001 -4.7805 -2.8845 -4.637 -6.5015 -6.5775 -5.684501 -5.021501 -5.34 -6.5625 -8.267 -8.568501 -4.2995 -5.487 -4.979 -5.386 -7.009501 -6.9385 -4.6595 -5.233 -5.025001 -13.516 -14.9832 -6.1615 -5.094 -5.269 -4.803 -4.2925 -3.688 -7.126501 -4.13 -5.9015 -6.2015 -6.883 -9.3855 -7.078001 -4.4175 -4.359 -7.5725 -6.6055 -5.872 -6.674 -3.66 -3.5105 -6.434 -9.1075 -7.19 -4.717 -4.063 -5.425 -10.27 -5.7805 -3.0405 -4.428 -6.378 -2.871 
-6.0415 -8.176001 -11.8967 -15.6625 -12.9965 -10.6215 -12.7324 -9.981501 -9.398 -6.296 -7.178 -7.944001 -8.493001 -6.6945 -8.252001 -5.8685 -9.224001 -8.189501 -8.1025 -7.7 -13.4282 -13.8778 -11.7817 -5.976 -5.487 -6.249001 -7.1515 -11.364 -14.1544 -11.7632 -14.6919 -12.227 -7.393001 -6.249001 -8.236501 -12.9755 -9.403501 -5.2755 -5.094 -6.485 -5.8175 -6.987 -8.148001 -7.3305 -7.614 -8.389001 -9.606501 -8.956 -9.2925 -8.895 -8.588 -6.0375 -6.218 -8.836 -12.8106 -11.4221 -12.0423 -12.7668 -12.5186 -9.998001 -6.7475 -7.534 -8.9305 -7.337 -7.399 -6.232 -8.374001 -10.031 -10.3345 -8.012501 -5.242 -4.5805 -5.7495 -7.452 -7.0335 -4.7805 -7.4265 -6.5015 -6.586 -10.4425 -7.000501 -6.8915 -10.3545 -10.7025 -9.794001 -9.734 -5.976 -6.7665 -8.3925 -8.035001 -10.3545 -8.154 -8.4185 -7.397 -16.7402 -18.2792 -16.4367 -8.697001 -6.485 -5.8175 -6.3025 -4.9395 -7.196001 -7.285501 -8.605 -7.1465 -12.8761 -11.6772 -12.3223 -7.612 -7.1495 -9.951001 -9.1005 -10.4945 -9.522 -7.3685 -5.4545 -7.204 -12.6476 -10.3825 -7.676 -5.304501 -8.1835 -12.0876 -11.6325 -7.0515 -6.105 -6.783 -6.378 
-9.488 -14.7295 -17.3552 -17.7275 -17.5095 -17.0969 -13.5284 -10.38 -12.5325 -8.425001 -7.998 -11.3257 -10.4505 -9.474501 -8.643001 -9.463501 -12.3618 -8.660001 -11.4586 -16.4481 -15.7457 -16.4775 -13.4582 -5.976 -8.115 -10.9519 -11.364 -16.4374 -17.8026 -19.0016 -16.6489 -13.245 -10.6875 -10.0605 -14.781 -12.9755 -10.7416 -8.6435 -6.485 -6.855 -8.196501 -10.717 -8.952001 -8.912001 -11.8137 -10.5855 -10.4445 -12.1695 -13.7092 -9.5865 -8.975 -10.092 -9.292001 -14.0561 -15.7042 -16.6929 -16.7841 -16.1904 -14.9566 -10.639 -8.5825 -12.0294 -9.35 -7.6415 -10.304 -9.601501 -11.7141 -14.1813 -11.5055 -9.391001 -7.159 -7.6875 -7.4735 -9.650001 -7.0335 -9.550501 -9.120501 -6.586 -10.476 -12.5093 -9.436001 -12.6372 -14.4945 -12.2295 -10.9595 -11.8031 -6.890501 -9.972 -10.281 -11.946 -12.0772 -12.1554 -8.954 -19.3862 -21.5034 -19.7327 -18.9722 -9.658 -6.855 -7.254 -6.877501 -8.5045 -7.3075 -12.0069 -10.086 -14.2259 -17.6703 -14.614 -12.8563 -10.2865 -12.9091 -11.519 -13.1743 -14.1445 -10.369 -8.9045 -9.407001 -13.9368 -13.9226 -10.9915 -7.993 -9.4855 -15.2287 -13.4501 -12.9035 -10.054 -8.384 -6.783 
-16.1547 -20.188 -19.4202 -22.2405 -23.9849 -17.8929 -13.9269 -13.5145 -14.6615 -9.276001 -11.4171 -13.2832 -13.2305 -9.815001 -12.4824 -12.6321 -12.8323 -12.0417 -20.2067 -18.7656 -18.3454 -18.154 -13.4582 -8.474501 -12.8695 -15.1644 -16.4374 -20.0856 -25.041 -20.9586 -17.6669 -16.5395 -14.499 -16.605 -14.781 -14.3136 -14.1096 -10.4945 -6.855 -9.3015 -12.0441 -11.521 -9.986 -13.0841 -14.0102 -11.4235 -13.658 -16.5862 -14.4007 -9.8625 -13.0007 -13.2726 -14.5183 -16.9497 -20.975 -21.4347 -20.2077 -18.6284 -15.5976 -12.474 -13.4819 -12.4489 -9.6145 -10.426 -13.6735 -12.9844 -15.8644 -15.3523 -12.884 -11.3656 -10.7416 -9.0755 -9.669001 -9.650001 -12.8691 -11.3695 -9.157001 -10.476 -12.5098 -14.9448 -15.4489 -16.7772 -16.0215 -13.395 -13.0286 -12.7176 -10.071 -12.1561 -14.192 -13.6687 -16.0786 -12.6909 -21.4232 -24.1494 -22.9569 -22.2682 -19.9332 -9.7605 -8.2215 -7.9715 -10.6465 -8.583 -12.0431 -13.4879 -17.2914 -19.0201 -20.6071 -15.148 -15.5308 -16.0461 -14.4771 -15.5928 -16.8243 -14.9915 -11.905 -13.0708 -16.006 -15.2118 -14.5316 -11.3085 -12.3996 -16.5857 -16.5912 -14.7211 -15.906 -12.656 -8.384 
-3.115 -1.934 -4.113 -3.618 0 -1.8085 -4.3105 -3.6885 -1.934 -5.6645 -2.186 -1.4985 -8.0845 -4.744 -3.458 -3.399 -4.663 -1.756 -4.554 -4.3125 -1.8085 -3.326 -4.4655 -2.3345 -3.732 -4.5375 -1.756 -3.091 -3.6455 -1.934 -3.0105 -3.557 -2.9905 -2.3335 -3.034 -1.4985 -3.4515 -1.7565 -3.143 -4.0885 -4.113 -4.008 -3.152 -4.2815 -2.356 -2.3335 -1.7565 -3.8235 -3.4515 0 -1.4985 -3.6615 -2.3335 -3.152 -4.744 -1.934 -1.4985 -3.682 -3.9755 -3.152 -2.6165 -4.3625 -4.554 -3.6705 0 -3.0365 -2.4945 -4.1765 -2.3335 -3.634 -3.833 -4.721 -4.895 -1.934 -3.992 -2.356 -1.4985 -4.253 -2.871 -1.8085 -3.326 -4.4655 -1.934 -2.8845 -2.3345 -1.8085 -6.539001 -3.515 0 -4.172 -2.3345 -4.3575 -7.1165 0 -2.8645 -4.7205 -1.934 -1.8085 -3.778 -2.3335 -1.4985 -4.5375 0 -3.326 -2.7415 -3.3365 -1.7565 -4.889 -4.258 -1.4985 -4.1755 -1.934 -4.889 -3.458 -1.4985 -3.682 -4.3125 -1.756 -1.4985 -3.8235 -2.7415 -2.6165 -3.4915 0 -2.4265 -3.264 0 
-5.330501 -6.106 -6.875 -3.618 -1.8085 -5.23 -6.8935 -5.1845 -7.9755 -7.811501 -3.339 -9.047501 -13.3887 -8.003 -6.4685 -7.235001 -5.8095 -6.4735 -8.581501 -6.5195 -5.233 -6.1885 -5.1125 -4.9005 -7.1925 -6.4545 -4.2995 -5.588 -5.5255 -4.827 -7.094001 -5.269 -4.803 -4.8415 -3.947 -4.432 -4.611 -5.505 -8.115 -7.4535 -6.521001 -6.139501 -6.056 -4.868001 -4.7045 -4.618 -5.509 -7.4535 -3.4515 -1.4985 -4.9455 -5.446 -4.664001 -7.382501 -6.355 -2.6125 -4.8095 -7.333 -6.7625 -4.6295 -5.5625 -8.552 -8.076 -3.6705 -3.0365 -3.688 -7.3005 -5.3765 -6.5255 -5.9805 -9.083 -9.145 -5.847001 -6.418 -6.413 -3.1615 -5.429501 -6.963 -5.5065 -5.233 -6.1885 -5.350501 -4.7805 -4.996 -3.8605 -9.5485 -10.548 -3.515 -4.172 -5.0445 -5.652 -8.267 -7.1165 -2.8645 -6.325 -5.5445 -3.2685 -4.952 -5.4685 -3.3515 -6.543 -4.5375 -3.326 -5.9165 -5.9775 -4.7425 -6.534501 -7.690001 -6.127 -4.6635 -5.016 -6.7915 -8.253 -4.063 -4.8095 -8.838 -5.763 -3.0405 -4.2775 -6.8245 -4.266 -5.27 -3.4915 -2.4265 -5.531 -3.264 
-10.138 -8.583001 -6.875 -5.842501 -5.23 -7.190001 -8.144 -11.6298 -10.316 -8.915 -11.4034 -14.8373 -16.6477 -11.2251 -10.543 -8.197001 -11.3828 -9.969501 -10.3415 -10.254 -8.327001 -6.6215 -7.837 -8.605 -8.851501 -7.7805 -6.225 -7.023 -8.955501 -8.125 -9.444501 -5.8175 -7.0435 -5.7365 -6.9505 -4.8535 -8.713 -9.208501 -11.7632 -9.4615 -8.848001 -8.265501 -6.575 -6.599 -5.866 -8.4445 -9.194 -7.4535 -5.354 -4.9455 -6.199 -6.9255 -8.934501 -8.1575 -6.786001 -5.837 -8.754001 -9.568001 -8.2075 -7.5005 -9.683001 -12.1168 -8.076 -5.2105 -3.688 -7.753 -7.8885 -8.977 -8.1675 -12.2375 -13.8344 -10.2284 -8.1975 -8.413 -7.304 -6.877501 -7.492001 -9.2535 -9.316501 -8.327001 -7.033501 -7.779001 -6.777 -7.285 -10.1785 -10.262 -9.2325 -6.502 -5.0445 -8.356501 -9.816 -8.267 -9.354501 -6.325 -8.106501 -7.468 -5.601501 -5.9095 -6.1155 -8.611501 -6.543 -8.661001 -5.9165 -10.2085 -6.1515 -10.5435 -9.128 -9.163 -8.752001 -5.595 -9.269501 -10.3815 -8.830501 -7.278 -9.67 -10.0285 -6.855 -6.1695 -6.912 -8.5 -6.711 -5.27 -5.713 -5.531 -5.531 
-12.615 -8.583001 -8.973001 -9.726501 -7.190001 -8.357 -14.8381 -13.9703 -11.5901 -17.0512 -17.1932 -18.0963 -19.8698 -15.2996 -10.6035 -13.9557 -14.8788 -11.8057 -14.076 -13.348 -8.590501 -9.473001 -11.8851 -10.0405 -10.7495 -9.212001 -7.7225 -10.634 -12.3455 -10.7335 -10.076 -7.953001 -7.901 -8.796 -7.4125 -9.0445 -12.6013 -12.9579 -13.7712 -11.8579 -11.1836 -8.915501 -8.5725 -6.8405 -9.870001 -12.3413 -9.194 -9.137 -8.846001 -6.199 -7.446501 -10.5635 -9.714001 -8.545501 -10.647 -10.259 -11.1562 -11.0368 -11.3369 -10.609 -13.7752 -12.1168 -9.669001 -5.679 -7.753 -8.087 -11.5526 -10.329 -14.7417 -16.9889 -14.9178 -12.5789 -9.443501 -9.116501 -11.5474 -8.912001 -9.4595 -13.1781 -12.4305 -9.1195 -9.313001 -8.863001 -8.132501 -12.52 -10.275 -9.536 -10.61 -6.5445 -8.356501 -10.7595 -9.816 -10.6215 -12.8476 -8.106501 -8.948 -8.8795 -6.750501 -6.357 -11.8351 -8.611501 -10.199 -11.7979 -10.2085 -10.2775 -12.1541 -13.137 -10.31 -11.8112 -9.764001 -9.869501 -13.1281 -10.959 -12.1437 -12.6647 -10.8605 -11.1205 -9.869 -8.7585 -8.646501 -10.4505 -6.711 -7.8465 -9.3365 -5.531 
-12.615 -10.865 -12.9722 -11.6865 -8.357 -15.1435 -17.1786 -15.2444 -19.7263 -22.841 -20.4522 -21.3184 -23.9443 -15.3601 -16.3622 -17.4517 -16.715 -15.5402 -17.17 -13.6115 -11.4818 -13.5211 -13.3206 -12.0635 -12.181 -11.3237 -11.4741 -14.024 -14.954 -11.365 -12.2115 -9.0415 -11.0355 -9.2425 -11.7919 -13.0128 -16.3507 -14.9659 -16.1676 -14.1935 -11.8336 -11.0092 -8.7145 -10.586 -13.7668 -12.3413 -11.1617 -12.6714 -10.2185 -7.446501 -11.5445 -11.343 -10.1025 -12.4489 -15.069 -12.6612 -12.625 -14.1662 -14.4454 -14.7012 -13.7752 -13.7098 -10.0565 -9.579 -8.087 -11.8023 -12.9046 -17.1666 -19.4931 -18.0723 -17.2683 -13.8249 -10.369 -13.4671 -13.5819 -10.9877 -13.4723 -16.2921 -13.223 -11.4392 -9.987 -10.3045 -13.7057 -14.3285 -10.634 -11.0505 -10.63 -9.781 -10.7595 -10.7595 -12.4115 -14.1146 -14.6291 -8.948 -10.228 -9.3485 -7.324501 -12.4668 -11.8351 -12.4725 -13.5513 -16.0899 -10.2775 -16.5055 -14.7476 -14.319 -12.9582 -12.8232 -14.1825 -13.7455 -13.7056 -14.2722 -17.5304 -13.8552 -11.9525 -14.1345 -12.6146 -10.1805 -10.4585 -10.4505 -9.532001 -11.9988 -9.3365 
-4.2485 -2.186 -3.737 -1.7565 -1.8085 -3.535 -3.6885 -1.7695 -2.9325 -1.4985 -3.818 -4.2605 -1.7565 -4.418 -1.7695 -4.85 -1.7565 -3.335 -1.4985 -4.0745 -1.7565 -4.267 -4.0175 -8.183001 -1.7565 -4.0775 -1.7695 -4.2 -1.7565 -4.3575 -7.1165 -1.7565 -3.1205 -3.4185 -1.7695 -2.8845 -1.7695 -4.5235 -1.7695 -3.098 -1.7565 -3.6135 -5.1375 -1.7695 -3.326 0 
-5.843 -5.3315 -5.3145 -3.2595 -4.294 -6.674 -5.699 -4.755 -4.365 -5 -7.646 -5.676001 -5.8755 -6.12 -5.204 -8.392501 -5.921 -4.7575 -5.629001 -7.7665 -5.8735 -7.268001 -13.4809 -10.404 -6.456 -6.359 -6.107501 -5.8215 -6.2765 -8.267 -9.198 -5.386 -7.057 -5.495 -5.851 -5.3535 -6.2995 -6.015 -5.3385 -5.7095 -5.479 -9.5315 -6.752501 -5.3825 -3.326 
-10.1765 -8.382 -6.096 -5.693 -6.948 -8.678 -8.448 -5.928 -7.363 -7.7325 -8.6625 -10.564 -7.3105 -8.9665 -8.986501 -12.6914 -7.8855 -9.203501 -9.7735 -12.3323 -8.6685 -17.2812 -15.7019 -15.1035 -9.959001 -11.0808 -7.672 -11.3457 -10.1425 -9.669001 -13.3889 -8.823501 -10.3475 -10.5179 -8.1335 -10.4505 -8.138 -10.122 -9.462501 -9.6475 -11.8544 -11.2299 -10.9173 -5.3825 
-13.227 -9.625501 -9.554501 -9.076 -8.885 -11.6668 -10.2925 -8.895 -9.357 -8.689501 -13.7853 -12.708 -9.8525 -12.776 -13.476 -14.6559 -12.5155 -13.4752 -14.3077 -15.1273 -19.3345 -19.5022 -20.4014 -18.6065 -14.6808 -12.6453 -13.323 -15.2117 -11.6751 -14.4131 -16.8264 -12.703 -15.3704 -12.8004 -13.4325 -12.289 -12.4884 -14.246 -13.3933 -16.0495 -13.5528 -15.3947 -10.9173 
-14.4705 -13.3918 -12.9375 -11.1188 -12.0128 -13.5113 -13.2595 -10.6875 -11.1244 -13.8401 -15.9293 -15.25 -13.552 -17.2655 -15.4405 -19.2859 -16.7872 -18.0094 -17.1027 -25.7933 -21.5555 -24.2017 -23.9044 -23.3283 -16.2453 -18.2963 -17.189 -16.7443 -16.4192 -17.8506 -20.7059 -17.7259 -17.6529 -18.0994 -15.271 -16.6394 -16.6124 -18.1768 -19.7953 -17.7479 -17.7176 -15.3947 
-2.925 -5.144 -2.925 -7.0395 -4.554 -1.4985 -4.244 -4.2485 -1.934 -3.999 -5.014 -4.418 -1.756 -2.5195 -2.985 -3.326 -2.925 -3.335 -1.4985 -4.7705 -3.458 -5.545 -4.2485 -3.942 -1.756 -2.8965 -5.9155 -4.4655 -3.436 -4.637 -3.511 -2.645 -3.4075 -5.0025 -4.3575 -7.1165 -4.877 -1.8085 -3.1205 -3.499 -3.515 -1.934 -2.8845 -2.5195 -2.985 -3.326 -4.5445 -4.841 -4.258 -2.186 -4.5375 -3.326 -4.1375 -4.958 -1.756 -5.144 -3.0365 -2.186 -2.847 -5.142 -1.934 -3.682 -1.756 -3.326 -2.5045 -3.543 -3.091 -3.326 
-6.8535 -7.7425 -5.973001 -9.644501 -6.142 -4.685 -7.317501 -5.861001 -5.7535 -8.0725 -8.6675 -5.694 -4.774 -4.751 -5.829 -6.607 -5.9065 -4.7575 -5.884501 -6.695 -8.911501 -10.6189 -7.408 -5.202 -3.751 -8.2055 -8.386001 -6.986501 -8.696 -7.757 -6.304501 -6.1545 -8.6635 -8.6825 -8.267 -12.6927 -7.048 -5.612 -7.009501 -7.1065 -5.256 -4.7805 -5.6775 -4.751 -5.829 -6.8735 -9.933001 -7.9475 -6.699 -7.7685 -8.661001 -9.009001 -7.62 -5.9805 -6.5475 -7.512 -3.66 -4.1045 -7.5165 -6.768 -6.244 -5.248 -4.7815 -6.0345 -5.323 -7.375 -5.8195 
-9.206501 -10.5245 -10.0065 -9.7705 -8.741001 -7.567 -8.8085 -9.48 -9.68 -10.0995 -10.058 -8.2585 -6.861 -7.649 -7.8545 -9.460001 -6.923501 -8.178 -7.4965 -12.5541 -14.4106 -13.7784 -8.749001 -7.48 -9.064 -10.688 -11.2548 -12.6367 -12.026 -11.6885 -10.634 -12.0483 -12.6599 -12.99 -14.3104 -14.8637 -11.3167 -10.204 -10.038 -10.078 -7.592 -7.085001 -8.7805 -7.649 -8.4145 -12.6624 -13.2509 -10.3965 -12.7367 -12.1566 -14.8904 -12.7019 -8.804001 -10.0155 -8.983 -7.8065 -4.256001 -8.523001 -8.6675 -10.281 -7.947501 -8.6125 -7.2325 -9.1125 -7.6995 -10.5035 
-12.0891 -14.7485 -10.4605 -11.9049 -11.7202 -8.936001 -12.7225 -13.6285 -11.7576 -11.6132 -12.6225 -10.5261 -10.0035 -9.238501 -10.7495 -10.514 -10.4265 -9.875501 -13.4624 -18.0532 -17.5701 -15.1194 -11.1424 -13.3452 -11.6263 -13.5568 -16.905 -15.9667 -15.9575 -16.018 -16.5278 -16.0447 -16.9674 -19.0334 -16.4814 -19.1324 -15.9087 -13.2325 -13.0879 -12.4096 -9.975 -9.6 -11.8435 -10.7595 -14.3836 -15.9803 -15.6999 -16.4342 -17.1248 -18.386 -18.5833 -13.8859 -12.9382 -12.9254 -9.2655 -8.2795 -8.539001 -9.299001 -12.4357 -11.9845 -11.748 -11.4553 -10.304 -10.5645 -10.9374 
-16.2981 -15.4165 -13.5425 -14.9537 -13.0892 -12.9886 -16.871 -15.7061 -13.2713 -14.1777 -14.8901 -13.6686 -11.593 -12.2443 -11.8035 -14.017 -12.0996 -15.8652 -18.9615 -21.2127 -18.9111 -17.5128 -17.0076 -15.9075 -14.4951 -19.207 -20.235 -19.8982 -20.287 -21.9118 -20.5242 -20.3522 -23.0108 -21.2044 -20.7501 -23.7244 -18.9372 -16.2824 -15.4195 -14.7926 -12.6174 -12.8294 -14.954 -16.7286 -17.7015 -18.4293 -21.7376 -20.8223 -23.3542 -22.0789 -19.7673 -18.0201 -15.8481 -13.2079 -9.616 -12.8291 -9.303 -13.3518 -14.1392 -15.785 -14.5908 -14.5268 -11.847 -14.2282 
