-4.759 
n/a 
n/a 
n/a 
n/a 
-4.759 
n/a 
n/a 
n/a 
n/a 
-4.759 
n/a 
n/a 
n/a 
n/a 
-4.759 
n/a 
n/a 
n/a 
n/a 
-14.633 -5.2545 -1.934 -10.638 -4.225 0 
-19.1263 -7.0515 -13.5784 -14.863 -4.225 
-19.8955 -19.3499 -17.8034 -14.863 
-32.1939 -23.5749 -17.8034 
-36.4189 -23.5749 
-5.2545 -1.934 -1.4985 -11.0555 -4.0415 -4.9075 0 
-7.0515 -2.6125 -13.6478 -15.097 -8.604 -4.9075 
-7.745501 -15.156 -17.6893 -19.6595 -8.604 
-20.7318 -19.1975 -22.2518 -19.6595 
-24.7733 -23.76 -22.2518 
-5.2545 -1.934 -6.061 -4.0415 
-7.0515 -8.143001 -9.420501 
-13.9145 -11.8019 
-17.5734 
n/a 
-5.2545 -1.934 -6.061 -4.0415 -4.947 
-7.0515 -8.143001 -9.420501 -6.9275 
-13.9145 -11.8019 -12.5637 
-17.5734 -14.9451 
-20.7166 
