-4.759 
n/a 
n/a 
n/a 
n/a 
-4.759 
n/a 
n/a 
n/a 
n/a 
-4.759 
n/a 
n/a 
n/a 
n/a 
-4.759 
n/a 
n/a 
n/a 
n/a 
-3.4155 -4.1115 -4.5605 -1.7565 -4.559 0 
-7.0235 -7.758 -7.1775 -5.683 -4.559 
-11.3184 -10.341 -9.894501 -5.683 
-13.9014 -13.3258 -9.894501 
-16.8862 -13.3258 
-9.335501 -3.6135 -4.283 
-13.323 -8.287001 
-17.9965 
n/a 
n/a 
-4.98 0 -6.471 0 -3.401 0 -10.7895 -4.693 -3.9665 
-4.98 -6.471 -6.471 -3.401 -3.401 -10.7895 -15.4825 -8.809501 
-9.225 -6.471 -9.474501 -3.401 -15.2891 -15.4825 -19.599 
-9.225 -9.474501 -9.474501 -15.2891 -19.9821 -19.599 
-9.819 -9.474501 -21.4208 -19.9821 -24.0986 
-18.917 -4.845 -4.9785 -3.9665 
-23.535 -9.440001 -7.232501 
-26.2413 -11.823 
-28.6243 
n/a 
