-4.759 
n/a 
n/a 
n/a 
n/a 
-4.759 
n/a 
n/a 
n/a 
n/a 
-4.759 
n/a 
n/a 
n/a 
n/a 
-4.759 
n/a 
n/a 
n/a 
n/a 
-4.0375 -4.747 -4.732 -4.4205 -6.933001 -3.9205 -2.5045 -6.933001 -3.4635 -3.8405 0 
-8.98 -9.470501 -9.321501 -12.237 -9.922001 -4.449 -9.643001 -10.7495 -8.526001 -3.8405 
-13.0155 -14.319 -16.1519 -13.781 -10.6825 -9.9255 -13.5351 -15.812 -8.526001 
-18.1808 -20.5731 -17.5884 -13.11 -15.1255 -13.8536 -18.5976 -15.812 
-24.3367 -22.6841 -18.3619 -18.6311 -19.5607 -18.9161 -18.5976 
-2.5195 -4.4175 -4.0375 -1.7695 -4.4175 -4.4205 -3.849 -2.5045 -11.0555 -2.95 
-7.040501 -8.299 -5.8325 -6.751 -8.436001 -9.811001 -6.305 -14.4774 -14.0055 
-11.4104 -10.4088 -11.7296 -11.2601 -14.4043 -12.3162 -18.3815 -17.4274 
-13.5202 -16.3059 -16.2387 -17.2284 -16.9095 -24.3927 -21.3315 
-19.4173 -20.815 -22.207 -19.7336 -28.986 -27.3427 
-5.1845 -4.245 -4.188 -3.8405 -2.5045 -6.142 -4.0375 -1.7695 -6.28 -4.4205 
-7.991 -9.174001 -8.8465 -6.1265 -8.4235 -9.4505 -5.8325 -8.095 -9.877501 
-13.2394 -13.9415 -11.4759 -12.8971 -12.859 -11.7715 -12.645 -13.2385 
-18.0069 -16.5709 -18.2465 -17.3356 -15.3465 -18.7674 -17.7354 
-20.6363 -23.3415 -22.685 -19.6571 -22.3424 -23.8578 
-6.28 -4.0375 -1.7695 -6.28 -4.4205 -5.1845 -4.245 -3.319 -2.186 -3.5395 -2.3335 -7.044 -10.215 -2.95 0 
-9.247 -5.8325 -8.095 -9.877501 -10.151 -7.991 -7.98 -5.404 -6.745 -5.908 -10.016 -17.7868 -13.24 -2.95 
-12.735 -12.645 -13.2385 -16.284 -12.9575 -12.0454 -10.688 -9.561001 -9.2565 -13.8225 -20.7588 -20.8118 -13.24 
-19.7401 -17.7354 -19.4134 -19.0905 -17.0119 -14.7534 -14.845 -12.2735 -17.4618 -24.5653 -23.7838 -20.8118 
-24.8305 -23.7609 -22.2199 -23.1449 -19.7199 -18.9104 -17.5575 -20.4788 -28.2046 -27.5903 -23.7838 
