-4.759 
n/a 
n/a 
n/a 
n/a 
-4.759 
n/a 
n/a 
n/a 
n/a 
-4.759 
n/a 
n/a 
n/a 
n/a 
-4.759 
n/a 
n/a 
n/a 
n/a 
-3.0835 -4.359 -4.867 0 -8.38 -7.190001 
-6.1675 -11.046 -4.867 -8.38 -10.281 
-13.5013 -11.046 -14.2428 -10.281 
-13.5013 -20.4218 -16.1438 
-22.8771 -22.3228 
-4.359 -4.867 0 -12.16972 
-11.046 -4.867 -12.16972 
-11.046 -18.03252 
-24.21152 
n/a 
-3.0835 -3.522 0 -8.774 -7.190001 0 -4.179 0 
-6.3975 -3.522 -8.774 -9.5185 -7.190001 -4.179 -4.179 
-6.3975 -13.0594 -9.5185 -9.5185 -8.514001 -4.179 
-16.6307 -13.8039 -9.5185 -10.9463 -8.514001 
-17.3752 -13.8039 -10.9463 -10.9463 
-3.0835 -4.584 0 -8.38 -7.190001 
-7.693501 -4.584 -8.38 -10.281 
-7.693501 -13.9312 -10.281 
-17.4043 -15.8322 
-19.3053 
