-4.759 
n/a 
n/a 
n/a 
n/a 
-4.759 
n/a 
n/a 
n/a 
n/a 
-4.759 
n/a 
n/a 
n/a 
n/a 
-4.759 
n/a 
n/a 
n/a 
n/a 
-8.689501 -6.53 -2.229 -4.323 -6.716001 -4.153 -4.752 -1.7565 -5.3765 
-15.8013 -8.434 -7.326 -9.500501 -9.2425 -9.946001 -8.472501 -6.6945 
-17.7053 -14.0592 -13.276 -12.6715 -14.4003 -13.6933 -13.4719 
-23.3305 -20.0432 -15.9805 -19.1415 -18.3658 -18.6927 
-29.3145 -22.7137 -22.4505 -22.8888 -23.3652 
-3.436 -2.925 -2.4945 -1.934 -5.1875 -4.2655 -3.321 -2.925 -2.4945 -4.556 -1.7695 -10.069 0 
-5.0005 -3.7675 -4.2645 -7.1715 -7.408 -7.418 -5.154 -3.7675 -8.587501 -5.6545 -12.8207 -10.069 
-5.886 -5.429 -10.1035 -8.512501 -10.287 -8.9125 -6.267 -10.0675 -9.336 -17.4995 -12.8207 
-8.2705 -11.5678 -11.4445 -11.5939 -11.7815 -9.844 -12.8368 -10.9078 -21.4742 -17.4995 
-14.6507 -12.9088 -14.5259 -13.0884 -12.713 -16.4364 -13.6771 -23.046 -21.4742 
-3.929 -2.9805 -2.7415 -2.664 -5.1875 -3.9725 -3.882 -5.4685 -2.7415 -4.4895 -2.3345 -12.16972 -1.934 -1.4985 -3.9785 -1.7565 -4.3365 -4.153 -4.4175 
-5.378 -4.004 -4.6625 -8.949501 -8.4665 -8.208 -9.0965 -7.57 -5.4595 -5.5805 -14.83482 -14.10372 -2.6125 -4.496 -4.924 -6.358 -6.8555 -6.4735 
-6.299 -5.89 -10.634 -12.3775 -13.0546 -13.6521 -10.3355 -8.462 -6.502 -18.52482 -16.76882 -14.78222 -4.783 -4.959 -9.415501 -8.8325 -7.562 
-8.135 -12.5507 -14.062 -16.9656 -18.4987 -14.8911 -11.2275 -10.085 -19.57752 -20.45882 -17.44732 -16.95272 -5.0745 -9.750001 -10.751 -9.769 
-14.9721 -15.9787 -18.6501 -22.4097 -19.7377 -15.7831 -12.8505 -23.30212 -21.51152 -21.13732 -19.61782 -17.24422 -9.974501 -11.1221 -11.6875 
-3.0365 -2.186 -1.8085 -3.7545 -3.8015 -3.2295 -3.849 -6.854 -3.819 -3.9655 -1.756 -4.3705 -4.1335 -2.3335 -2.4945 -4.005 -2.5045 -6.845 -3.6815 0 -3.5005 -1.4985 -6.335001 -6.1425 -2.229 -7.3815 -4.787 0 
-3.66 -3.164 -4.5445 -5.988 -7.2995 -6.044 -8.808001 -9.562 -8.2985 -5.2915 -5.5605 -7.852 -5.7855 -3.947 -5.433001 -5.0615 -8.811501 -8.1085 -3.6815 -3.5005 -4.372 -7.503 -7.083001 -7.767 -10.419 -10.5865 -4.787 
-4.218 -5.995 -6.5375 -7.6245 -10.76 -9.6055 -10.5285 -14.1898 -9.742001 -6.7735 -8.4825 -9.820001 -6.531 -6.869 -6.434 -10.304 -9.0955 -8.1085 -6.996 -4.372 -10.1855 -7.659501 -8.354501 -16.2856 -13.624 -10.5865 
-6.7245 -7.81 -7.891 -11.2708 -14.071 -13.1768 -16.478 -15.9127 -11.5832 -9.7405 -10.304 -10.6385 -9.503 -8.111501 -11.9333 -10.7125 -9.0955 -11.9496 -7.676 -10.1855 -10.2405 -8.781501 -17.0947 -19.4906 -13.624 
-8.3195 -8.7255 -11.7367 -14.5818 -18.3612 -19.2049 -17.9215 -17.7539 -14.5502 -11.6022 -11.2239 -13.6105 -10.428 -13.8316 -12.3418 -10.7125 -13.0602 -12.6296 -13.7563 -10.2405 -11.3625 -17.5709 -20.2997 -19.4906 
