-4.759 
n/a 
n/a 
n/a 
n/a 
-4.759 
n/a 
n/a 
n/a 
n/a 
-4.759 
n/a 
n/a 
n/a 
n/a 
-4.759 
n/a 
n/a 
n/a 
n/a 
-1.934 -4.82 -2.4265 -4.024 -3.1435 -3.0835 -4.3645 -2.356 -3.711 
-6.055 -7.4575 -6.5235 -7.048 -5.1475 -7.1225 -7.275 -5.9515 
-7.7685 -12.2213 -8.570001 -8.184 -8.2115 -9.43 -11.2437 
-12.5973 -14.2678 -9.512 -9.8915 -10.459 -13.5113 
-14.6438 -15.2098 -11.3807 -13.172 -14.5403 
-4.948 -4.024 -1.8085 -3.7345 -4.335 -2.356 -1.8085 -3.6385 -5.5035 -1.934 -4.82 -3.757 -3.5445 -3.142 0 
-10.2285 -5.385 -5.249001 -6.686 -6.149 -3.4075 -4.581 -9.228001 -7.224 -6.055 -7.9495 -6.194 -5.436 -3.142 
-11.5895 -9.6675 -7.452001 -8.686501 -7.106 -6.3 -10.218 -11.0253 -11.6638 -8.4025 -8.411 -6.755 -5.436 
-15.872 -12.1467 -9.0165 -9.508 -9.9665 -12.4268 -12.0153 -15.4651 -14.0113 -8.724501 -8.4595 -6.755 
-18.3512 -13.7112 -9.738501 -12.4467 -16.3549 -14.2241 -16.4551 -17.8126 -14.3333 -8.753 -8.4595 
-1.934 -4.82 -3.158 -3.0835 -7.923 -3.563 -1.7695 -12.16972 0 -3.757 -1.7565 -3.5445 -3.142 0 
-6.055 -8.314501 -6.4475 -10.7175 -12.0058 -4.445 -14.92142 -12.16972 -3.757 -4.5665 -5.246 -5.436 -3.142 
-10.2925 -12.2864 -14.7903 -14.8003 -12.8878 -18.81752 -14.92142 -15.92672 -4.5665 -8.235001 -7.0445 -5.436 
-14.2644 -20.6292 -18.8731 -15.6823 -27.26032 -18.81752 -18.67842 -16.73622 -8.235001 -10.13 -7.0445 
-22.6072 -24.712 -19.7551 -30.05482 -27.26032 -22.57452 -19.48792 -20.40472 -10.13 -10.13 
-3.6835 -3.4625 -3.757 -3.5445 -3.142 
-5.5035 -7.025001 -6.194 -5.436 
-9.867001 -9.955501 -6.755 
-12.9089 -10.6873 
-13.6407 
