-4.759 
n/a 
n/a 
n/a 
n/a 
-4.759 
n/a 
n/a 
n/a 
n/a 
-4.759 
n/a 
n/a 
n/a 
n/a 
-4.759 
n/a 
n/a 
n/a 
n/a 
-2.3085 -4.7225 -3.539 -4.859 -3.5485 -2.3085 -3.251 -1.8085 -8.176001 
-5.955 -6.438001 -8.040501 -6.023 -4.858 -4.1915 -4.1695 -10.4829 
-7.4565 -11.6807 -8.9975 -6.5185 -6.835 -5.0435 -13.7775 
-13.0224 -12.6377 -9.4335 -8.557 -8.031 -14.8957 
-13.9794 -13.0737 -11.722 -10.0005 -17.9908 
-4.8935 -3.539 -2.5195 -1.4985 -4.43 -3.0415 -4.6105 
-7.465 -5.3585 -3.1695 -5.545 -7.158501 -8.967001 
-9.209001 -5.9325 -7.203 -7.962501 -13.5878 
-9.6145 -9.133 -9.7325 -14.6298 
-12.9974 -11.6887 -16.5192 
-3.8725 -3.251 -1.7695 -4.328 -3.2345 -8.661 -1.7565 -2.3615 -12.16972 
-5.8655 -3.664 -6.436 -8.150001 -12.845 -9.163501 -3.523 -15.81942 
-7.136001 -9.048 -10.8572 -18.4205 -13.5849 -10.2365 -17.42512 
-12.8798 -13.4618 -21.1277 -18.881 -15.0674 -24.33212 
-17.2936 -23.7323 -21.5882 -20.3635 -29.04452 
-2.3085 -3.0805 -4.017 -3.539 -1.934 -2.857 -4.43 -2.3335 -2.229 -4.031 -1.7565 -2.857 -5.39 -2.3085 -3.264 0 
-3.7245 -7.576 -6.202001 -5.0485 -4.104 -6.5015 -6.745 -3.8485 -6.7225 -5.571 -4.1315 -7.448501 -7.509001 -4.8535 -3.264 
-9.1615 -9.8605 -7.691 -6.952001 -7.3595 -8.752501 -7.8855 -7.799001 -9.1975 -7.6795 -8.682 -8.684 -10.168 -4.8535 
-12.0016 -11.8703 -9.722501 -8.615001 -9.557 -9.486501 -11.9348 -10.6735 -11.4516 -12.683 -9.710501 -11.4052 -10.168 
-14.0114 -13.9018 -11.4645 -10.9735 -10.14 -13.6366 -14.8093 -12.9276 -16.4551 -13.7115 -12.4891 -11.4052 
