-4.759 
n/a 
n/a 
n/a 
n/a 
-4.759 
n/a 
n/a 
n/a 
n/a 
-4.759 
n/a 
n/a 
n/a 
n/a 
-4.759 
n/a 
n/a 
n/a 
n/a 
-3.506 -2.7035 0 -3.1255 -3.1385 -3.152 -4.493 -1.756 -3.7405 -4.874 -1.934 -1.8085 -4.889 -4.9635 -3.9875 -1.8085 -4.297 -2.5045 -12.16972 -4.99 -2.264 -1.4985 -5.9245 -1.7565 -5.7465 
-5.5 -2.7035 -3.1255 -6.613501 -5.219 -5.593 -5.8585 -6.3675 -9.06 -5.694 -3.2685 -5.919001 -7.245001 -8.265 -5.392 -5.6255 -6.675501 -15.36922 -17.15972 -5.757 -2.9195 -6.068001 -6.059 -7.118001 
-5.5 -5.1915 -6.613501 -8.257 -6.315001 -6.381001 -9.18 -9.543 -9.580501 -6.6225 -7.381001 -7.916 -9.717001 -8.997 -8.588 -7.741 -19.89502 -20.35922 -17.92672 -6.042 -6.2075 -6.1105 -9.214001 
-8.881001 -8.965 -8.257 -8.5585 -6.867001 -9.435 -9.698501 -10.0455 -10.6524 -8.5695 -8.506001 -10.1505 -10.226 -10.6885 -10.223 -21.17372 -24.88502 -21.12622 -18.21172 -7.648 -6.2425 -9.2545 
-13.0357 -11.6409 -8.5585 -9.029 -9.764501 -9.984 -10.126 -11.2452 -12.5994 -9.196501 -10.5225 -10.501 -11.9175 -12.3235 -23.65572 -26.16372 -25.65202 -21.41122 -19.81772 -7.653 -9.404 
-3.506 -2.7035 0 -1.934 -1.8085 -4.889 -4.8115 -1.934 -4.297 -2.5045 -12.16972 -2.9705 -2.186 -1.934 -1.4985 -7.7695 -1.7565 -7.9405 0 -3.1255 -3.1385 -3.152 -4.493 -1.756 -3.7405 -3.1385 -3.152 -5.228 0 
-5.5 -2.7035 -1.934 -3.2685 -5.919001 -6.759501 -6.611 -6.725 -6.675501 -15.36922 -15.14022 -3.89 -4.0835 -2.6125 -8.193501 -8.071 -9.690001 -7.9405 -3.1255 -6.613501 -5.219 -5.593 -5.8585 -6.3675 -7.14 -5.219 -6.564 -5.228 
-5.5 -5.1845 -3.2685 -7.381001 -7.55 -7.510001 -10.259 -9.9665 -19.89502 -18.33972 -16.05972 -5.7145 -4.6915 -8.800501 -8.3155 -16.2325 -9.690001 -11.5404 -6.613501 -8.257 -6.315001 -6.381001 -9.18 -9.366 -8.713 -7.465 -6.564 
-7.857 -6.799 -7.381001 -8.0705 -8.086 -11.6394 -13.5005 -23.26122 -22.86552 -19.25922 -17.88422 -6.336 -10.7495 -8.903001 -16.5638 -16.2325 -13.3637 -15.0284 -8.257 -8.5585 -6.867001 -9.435 -10.689 -10.0515 -10.622 -7.465 
-9.428 -11.1961 -8.0705 -8.507 -12.4584 -14.8809 -26.79522 -26.23172 -23.78502 -21.08372 -18.50572 -12.6066 -10.852 -17.1157 -16.5638 -19.9062 -16.8517 -16.6719 -8.5585 -9.029 -9.764501 -11.0198 -11.3745 -12.1907 -10.622 
-3.506 -2.7035 0 -4.889 -4.9635 -1.934 -1.8085 -4.297 -1.934 -5.7465 -2.229 -5.104 -3.4425 -10.7715 -4.493 -3.1255 -1.756 -4.874 -3.7405 -4.269 0 
-5.5 -2.7035 -4.889 -7.245001 -6.2305 -3.2685 -5.6255 -6.330501 -6.777 -7.597501 -7.301 -7.119 -15.1438 -15.2645 -7.7655 -5.6045 -6.3325 -9.3155 -8.374001 -4.269 
-5.5 -8.4805 -7.245001 -7.934 -7.562 -7.023 -7.2465 -9.967001 -8.941501 -12.9989 -9.752001 -19.3557 -19.6368 -18.537 -9.359 -9.6565 -9.935 -14.0408 -8.374001 
-12.2828 -11.1393 -7.934 -9.069501 -9.9505 -8.717501 -10.586 -12.2121 -14.4515 -15.4499 -21.9887 -23.8487 -22.9093 -20.1305 -9.8025 -13.5308 -14.7719 -14.0408 
-14.9416 -11.8283 -9.069501 -10.4945 -10.6645 -12.1784 -12.8311 -17.7221 -16.9025 -27.6866 -26.4817 -27.1212 -24.5028 -20.574 -13.7508 -18.3677 -14.7719 
-3.506 -2.7035 0 -6.711 -4.7885 -3.2875 0 -4.297 -2.8645 -5.764 -3.1255 -4.493 -1.756 -3.7405 -4.874 -1.934 -4.6105 
-5.5 -2.7035 -6.711 -12.1463 -7.787001 -3.2875 -4.297 -7.119 -7.592 -9.8785 -8.088501 -5.8585 -6.3675 -9.06 -5.694 -6.641 
-5.5 -9.834001 -12.1463 -15.1448 -7.787001 -6.681 -7.119 -12.2081 -12.2037 -14.8415 -9.263 -9.18 -9.543 -9.580501 -7.667 
-13.6363 -15.3433 -15.1448 -15.1448 -10.5135 -9.524 -12.2081 -16.8198 -17.1667 -16.016 -12.9001 -9.698501 -10.0455 -11.6969 
-19.1456 -18.3418 -15.1448 -17.8713 -13.3565 -14.6225 -16.8198 -21.7828 -18.3412 -19.6531 -13.4186 -10.126 -12.2897 
