-4.759 
n/a 
n/a 
n/a 
n/a 
-4.759 
n/a 
n/a 
n/a 
n/a 
-4.759 
n/a 
n/a 
n/a 
n/a 
-4.759 
n/a 
n/a 
n/a 
n/a 
-1.934 -1.8085 -3.6645 -3.3715 -3.711 -3.0695 -5.7505 -7.925 -4.8765 -1.7695 -4.673 -2.985 -5.0295 -2.674 -4.517 -2.985 -5.955 
-3.2685 -4.9825 -7.232 -6.149 -5.3125 -6.613501 -14.8005 -13.3741 -6.441 -5.0455 -7.457001 -7.445 -8.469 -5.931 -6.3055 -7.436 
-6.0755 -9.330001 -10.1 -7.4005 -8.448 -15.8395 -20.2496 -14.9386 -10.4585 -7.693 -8.896501 -10.4675 -11.941 -6.9855 -8.33 
-10.2805 -12.3522 -11.3515 -10.9458 -17.9846 -21.2886 -21.8141 -18.9561 -13.535 -9.0085 -12.154 -13.9395 -12.9955 -9.098001 
-13.3027 -13.6037 -14.8968 -20.4824 -23.4337 -22.8531 -25.8316 -22.0326 -14.8505 -12.345 -15.626 -14.994 -15.108 
-2.871 -3.326 -3.264 -2.3335 -1.4985 -4.269 -3.2955 -5.3915 -1.756 -8.659 -3.991 -2.4945 -2.6165 -4.4715 -4.7785 0 
-7.0305 -6.941501 -4.533 -3.3515 -5.71 -8.179 -9.431001 -6.547 -10.2645 -13.1462 -5.612 -3.8065 -7.26 -7.883 -4.7785 
-11.3128 -8.031501 -5.32 -7.0655 -9.6975 -14.5595 -10.39 -15.8481 -14.7517 -14.7672 -6.897 -8.851501 -11.5167 -7.883 
-12.4028 -8.75 -9.585001 -11.3568 -16.2432 -15.5185 -19.6911 -20.3353 -16.3727 -16.0522 -12.5834 -13.2272 -11.5167 
-13.1213 -13.0884 -13.9511 -17.9025 -17.2022 -24.8196 -24.1783 -21.9563 -17.6577 -21.7386 -16.9591 -13.2272 
-3.5455 -1.4985 -4.0305 -1.7565 -4.3905 -1.4985 -3.4905 -1.7565 -1.4985 -7.2175 0 -3.17 -1.7565 -1.4985 -3.711 -3.152 -5.6445 -2.7455 -2.985 -5.955 -2.264 -8.8455 -3.8785 
-3.91 -5.056 -5.030001 -5.6825 -5.1855 -4.7085 -4.601 -2.4195 -8.944501 -7.2175 -3.17 -4.179 -2.4195 -5.0515 -5.7615 -7.568501 -8.425 -4.943 -7.436 -8.062 -12.1415 -13.0348 
-7.022 -6.4275 -9.659401 -6.4005 -6.9015 -4.841 -4.9845 -9.7185 -8.944501 -11.1503 -4.179 -4.497 -5.851501 -6.509 -9.775501 -10.361 -10.4595 -8.9575 -9.2065 -18.4429 -16.3308 
-8.498 -11.3747 -10.3774 -8.1805 -6.9605 -5.1115 -10.0885 -9.7185 -12.8295 -12.1593 -4.497 -7.233 -7.385 -10.564 -12.9676 -12.3857 -14.474 -10.8226 -19.6736 -22.6322 
-13.857 -12.0927 -12.1574 -8.245501 -7.1615 -10.103 -10.0885 -13.6035 -13.8385 -12.4773 -7.233 -8.264 -11.571 -14.2435 -14.9923 -16.4002 -16.3391 -21.2897 -23.8629 
-3.1385 -3.0695 -3.251 -5.705 -4.0715 -2.0935 -4.3905 -1.4985 -4.1455 -4.916 -4.517 -2.985 -5.955 -1.934 -1.8085 -3.6645 0 
-4.286 -4.7295 -6.675 -9.620001 -5.9175 -5.927 -5.1855 -5.503 -7.763 -9.233001 -6.3055 -7.436 -7.494 -3.2685 -4.9825 -3.6645 
-6.123 -7.277 -10.0855 -10.3565 -9.559501 -6.518 -9.601 -8.132001 -12.5748 -11.7177 -8.33 -9.0425 -8.8275 -6.0755 -4.9825 
-8.991 -10.389 -10.694 -13.9985 -9.818501 -11.1717 -12.3346 -13.2058 -15.0595 -13.7422 -9.9075 -9.951 -11.8155 -6.0755 
-12.189 -10.9975 -14.336 -14.2575 -14.5382 -13.9053 -17.4084 -15.6905 -17.084 -15.3197 -10.8016 -12.939 -11.8155 
