-4.759 
n/a 
n/a 
n/a 
n/a 
-4.759 
n/a 
n/a 
n/a 
n/a 
-4.759 
n/a 
n/a 
n/a 
n/a 
-4.759 
n/a 
n/a 
n/a 
n/a 
-2.5045 -3.543 -5.473 -4.982 -3.034 -1.4985 -4.1625 -4.2615 -2.742 -3.5185 -5.7095 -3.115 -4.1115 -5.7545 0 
-5.323 -9.832001 -10.459 -7.5955 -3.947 -6.3275 -8.4755 -7.357 -5.4405 -7.4465 -8.916 -7.395501 -9.179501 -5.7545 
-10.1225 -15.1256 -13.0725 -8.4575 -8.578501 -11.4347 -12.037 -9.7845 -8.7845 -10.4765 -13.4527 -13.0235 -9.179501 
-15.8019 -17.7391 -13.9345 -13.188 -13.9371 -14.9962 -14.4645 -13.2877 -12.0897 -15.0132 -19.0807 -13.0235 
-18.4154 -18.6011 -18.665 -18.5466 -17.4986 -17.4237 -17.9677 -16.5929 -16.6264 -20.6412 -19.0807 
-2.5045 -3.543 -1.4985 -2.95 -4.9985 0 -1.4985 -4.3125 -4.7195 -2.9705 -4.993 -3.995 -2.742 -4.0195 -4.308 -3.4515 -3.115 -3.931 -1.7565 -4.1115 -3.843 0 
-5.323 -5.62 -3.9285 -8.658501 -4.9985 -1.4985 -5.5105 -9.3465 -7.160501 -6.9645 -8.1315 -6.501 -5.431 -6.248 -7.8025 -6.759501 -7.872001 -4.616 -5.857501 -8.066501 -3.843 
-5.8685 -8.563001 -10.1635 -8.658501 -6.7205 -5.5105 -10.1465 -12.0205 -9.435 -9.8505 -11.1607 -9.1645 -7.7995 -10.0925 -10.3885 -10.674 -8.081501 -8.027 -10.3475 -8.066501 
-8.68 -15.2136 -10.1635 -10.1765 -11.0271 -10.1465 -12.9251 -14.295 -13.0104 -13.2117 -13.8242 -11.7376 -11.8336 -12.6785 -14.303 -10.726 -11.8355 -13.8252 -10.3475 
-15.499 -15.2136 -11.6815 -14.4831 -15.6631 -12.9251 -15.1996 -17.8704 -16.3716 -15.8752 -16.3973 -15.7717 -14.4196 -16.593 -14.355 -14.48 -17.6337 -13.8252 
-2.5045 -2.0935 -2.5045 -4.6985 -4.951 -3.7075 -2.229 -4.1625 -2.9705 -3.6955 -3.936 -3.147 -1.934 -3.995 -2.742 -4.081 -2.9905 -4.1115 -3.518 -3.539 -2.9705 -4.0195 -4.7905 0 
-4.778 -5.2565 -8.302501 -9.199501 -8.97 -5.5255 -6.678 -7.481501 -6.3585 -5.543 -7.7235 -4.778 -6.139 -6.501 -5.278 -5.8385 -8.0065 -5.3935 -7.035501 -6.566 -6.4195 -7.921 -4.7905 
-7.676001 -11.9415 -12.9073 -13.8553 -10.4595 -8.737 -10.1 -11.1605 -8.793001 -8.238501 -9.133 -8.877 -9.535001 -8.791 -7.0625 -11.5605 -9.7355 -9.289001 -9.4285 -10.3675 -10.2865 -7.921 
-14.1246 -16.5463 -17.5631 -15.3448 -14.3258 -10.564 -13.779 -13.595 -11.9197 -9.5495 -13.2938 -12.368 -12.0072 -11.0619 -13.0725 -13.2895 -13.836 -11.976 -13.489 -14.2345 -10.2865 
-18.7294 -21.2021 -19.0526 -19.2111 -16.1528 -14.243 -16.2135 -16.7217 -13.2307 -13.7051 -16.7848 -14.8402 -14.2781 -17.0719 -14.8015 -17.39 -16.523 -16.0365 -17.356 -14.2345 
-3.9345 -1.7695 -1.4985 -4.113 -4.889 0 -3.6885 -3.893 -1.7565 -4.983 -4.8525 -1.4985 -3.995 -2.742 -3.5185 -6.2225 -3.9515 -3.115 -3.931 -1.7565 -4.1115 0 
-3.94 -2.7955 -5.425 -9.543001 -4.889 -3.6885 -5.689 -4.1785 -7.086 -8.587 -5.628 -4.712 -6.501 -5.4405 -11.2496 -9.4455 -6.764501 -7.872001 -4.616 -5.857501 -4.1115 
-4.4455 -6.679501 -10.5325 -9.543001 -9.503 -5.689 -5.7245 -9.1585 -9.5415 -8.7805 -7.758501 -6.863 -9.816 -13.6392 -14.4726 -12.4205 -9.581 -8.081501 -8.027 -5.857501 
-8.0085 -12.1718 -10.5325 -14.4704 -11.5967 -5.7245 -10.213 -9.6265 -9.5885 -9.304001 -10.403 -10.361 -18.0429 -16.8622 -17.4476 -15.237 -9.594001 -11.8355 -8.027 
-14.1272 -12.1718 -15.4599 -16.5641 -11.6322 -10.213 -10.8282 -9.6285 -11.0414 -11.8977 -13.901 -18.5667 -21.2659 -19.8372 -20.2641 -15.25 -13.4842 -11.8355 
