-4.759 
n/a 
n/a 
n/a 
n/a 
-4.759 
n/a 
n/a 
n/a 
n/a 
-4.759 
n/a 
n/a 
n/a 
n/a 
-4.759 
n/a 
n/a 
n/a 
n/a 
-8.1605 -4.9225 -3.8245 -3.543 -4.197 -6.014 
-12.684 -7.585 -8.501 -5.757501 -7.061 
-16.7849 -13.3913 -9.752001 -7.475501 
-22.5912 -14.6423 -10.5775 
-23.8422 -15.4678 
-8.1605 -4.9225 -3.511 -1.934 -2.871 -3.4425 -6.116 -4.653 0 
-12.684 -8.092 -4.582 -4.2805 -5.902 -10.1725 -8.762 -4.653 
-17.2919 -8.541 -6.817 -6.528501 -13.5658 -12.8185 -8.762 
-17.7409 -10.749 -8.992001 -14.1853 -16.2118 -12.8185 
-19.9489 -12.924 -16.8844 -16.8313 -16.2118 
-2.0935 -2.871 -6.09 -8.1605 -3.1385 -3.152 -3.8245 
-4.604 -7.232 -14.0035 -11.095 -5.219 -6.242001 
-9.224501 -16.1995 -17.9083 -13.2346 -7.489 
-18.3158 -19.7701 -19.7813 -15.5046 
-21.8864 -21.6431 -22.0513 
-8.1605 -4.9225 -3.511 -1.934 -2.871 -3.4425 -6.116 -4.653 0 
-12.684 -8.092 -4.582 -4.2805 -5.902 -10.1725 -8.762 -4.653 
-17.2919 -8.541 -6.817 -6.528501 -13.5658 -12.8185 -8.762 
-17.7409 -10.749 -8.992001 -14.1853 -16.2118 -12.8185 
-19.9489 -12.924 -16.8844 -16.8313 -16.2118 
