-4.759 
n/a 
n/a 
n/a 
n/a 
-4.759 
n/a 
n/a 
n/a 
n/a 
-4.759 
n/a 
n/a 
n/a 
n/a 
-4.759 
n/a 
n/a 
n/a 
n/a 
-3.8445 -5.585 -1.7565 -6.028 -5.923 
-8.7575 -6.531 -8.3365 -12.2648 
-9.8875 -13.9452 -14.7723 
-17.4999 -20.381 
-23.9357 
-4.3055 -6.341 -2.229 -4.485 -4.088 -2.0935 -3.8445 -5.4085 
-7.64 -7.896 -6.4885 -6.8725 -5.8865 -5.45 -8.609 
-9.095 -10.4185 -8.587501 -8.742001 -9.592501 -10.9179 
-11.6951 -12.7723 -10.7708 -12.7544 -14.9352 
-14.0489 -14.9556 -14.7832 -18.0971 
-3.8445 -4.763 -1.7565 -6.648 -4.088 
-6.940001 -5.1985 -7.935 -11.5282 
-7.2175 -12.199 -13.4342 
-14.6212 -17.6982 
-20.1204 
-3.8445 -5.585 -1.7565 -4.3055 -6.341 
-8.7575 -6.531 -6.1225 -7.64 
-9.8875 -9.1445 -8.248 
-12.6992 -10.4515 
-14.0062 
