-4.759 
n/a 
n/a 
n/a 
n/a 
-4.759 
n/a 
n/a 
n/a 
n/a 
-4.759 
n/a 
n/a 
n/a 
n/a 
-4.759 
n/a 
n/a 
n/a 
n/a 
-1.4985 -3.8405 -2.9705 -2.186 -3.8755 -2.186 -2.6165 -4.4155 -1.934 -2.9995 -3.8405 -1.7565 -2.95 
-4.7545 -6.2305 -3.89 -5.2415 -6.635 -3.5105 -6.0315 -5.054 -4.2175 -6.128 -4.563 -4.3865 
-7.3215 -6.9825 -7.047501 -7.6755 -7.945 -6.719 -6.553 -7.392 -7.2295 -6.5 -5.099 
-8.2535 -10.5996 -9.187 -8.9025 -11.3847 -7.087501 -8.014501 -10.7504 -7.611001 -6.9745 
-12.0282 -12.7391 -10.427 -12.5764 -11.7532 -8.3585 -11.5335 -11.1319 -8.8605 
-3.0365 -2.186 -2.847 -1.8085 -4.116 -3.5125 -1.7565 -4.399 -2.7455 -2.3615 -4.732 -3.1015 0 
-3.66 -4.1045 -5.781 -5.002 -8.488501 -4.312 -5.3345 -8.1805 -4.1635 -7.443501 -6.285501 -3.1015 
-4.256001 -7.265501 -9.345501 -9.099 -9.094501 -8.789001 -8.998 -9.807 -8.7675 -8.559 -6.285501 
-7.41 -10.27 -13.6643 -9.7535 -13.9067 -12.8161 -10.7049 -14.7066 -9.561501 -8.559 
-10.4105 -14.5888 -14.3188 -14.6073 -17.9338 -14.523 -15.6045 -15.5006 -9.561501 
-1.934 -1.4985 -4.3845 -3.8405 -3.3785 -1.4985 -3.8405 -4.958 -2.847 0 
-2.6125 -4.936501 -8.6185 -8.7935 -4.6165 -4.7545 -8.988501 -7.908501 -2.847 
-5.923 -9.096001 -13.6151 -9.7475 -8.72 -10.459 -12.0616 -7.908501 
-10.264 -14.1788 -14.5691 -13.9092 -14.6439 -13.5321 -12.0616 
-15.3468 -15.1328 -18.7308 -19.8331 -17.717 -13.5321 
-1.4985 -3.8405 -1.7565 -2.3615 -10.5895 -2.186 -2.6165 -3.7925 -4.127 
-4.7545 -4.563 -3.523 -14.2392 -12.7755 -3.5105 -4.5805 -7.771 
-5.365 -7.0245 -15.8449 -16.4252 -14.1 -5.6445 -7.8465 
-7.286 -19.8762 -18.0309 -17.7497 -16.234 -8.807 
-20.3989 -22.0622 -19.3554 -19.8837 -19.3965 
