-4.759 
n/a 
n/a 
n/a 
n/a 
-4.759 
n/a 
n/a 
n/a 
n/a 
-4.759 
n/a 
n/a 
n/a 
n/a 
-4.759 
n/a 
n/a 
n/a 
n/a 
-1.934 -3.691 -2.4265 -2.7415 -4.8725 -1.934 -1.4985 -4.02 -6.318 -2.3335 0 -5.605 0 -1.7565 -3.1385 -2.4945 -3.557 -2.5045 -4.5845 -5.1685 -1.756 -5.004001 0 -2.4945 -4.432 -4.449 
-4.8225 -6.4005 -3.681 -6.1615 -5.752 -2.6125 -4.914001 -11.4824 -9.726001 -2.3335 -5.183 -5.183 -1.7565 -4.388 -4.588 -5.304 -6.1615 -7.0825 -7.0985 -6.207001 -5.8405 -3.5905 -2.4945 -6.8755 -9.911 
-6.876 -7.427001 -8.1945 -6.7945 -6.3585 -6.175 -12.8588 -14.8904 -9.726001 -8.881001 -5.183 -7.5415 -4.388 -5.892 -7.9995 -7.557501 -11.2139 -9.009001 -8.026501 -11.066 -6.447001 -7.263 -6.8755 -12.8585 
-7.935 -12.1801 -8.901501 -7.139 -10.5456 -14.2234 -16.2668 -14.8904 -16.4969 -8.881001 -7.5415 -10.3605 -5.892 -9.235001 -10.66 -12.7849 -13.1404 -10.1905 -12.6119 -11.1924 -8.503 -11.2557 -12.8585 
-12.7193 -12.8871 -9.2375 -11.7207 -18.594 -17.6314 -16.2668 -21.6613 -16.4969 -9.541 -10.3605 -11.9855 -9.235001 -12.0571 -15.8874 -14.7114 -14.3219 -14.7759 -12.6119 -13.2484 -12.5969 -17.4373 
-1.934 -3.691 0 -3.9345 -1.7695 -1.4985 -10.4975 -3.277 -5.605 0 -1.7565 -1.4985 -4.02 -2.4945 -4.5845 -5.1685 -1.756 -5.004001 0 -2.4945 -3.0835 -5.578 0 
-4.8225 -3.691 -3.9345 -3.94 -2.7955 -13.0898 -13.7745 -8.84 -5.183 -1.7565 -2.4195 -4.914001 -6.378 -6 -7.0985 -6.207001 -5.8405 -3.5905 -2.4945 -5.948501 -9.053 -5.578 
-4.8225 -7.497001 -3.94 -4.4455 -14.622 -16.3668 -19.379 -8.8815 -7.5415 -2.4195 -5.2775 -6.8865 -9.948 -8.782001 -8.026501 -11.066 -6.447001 -7.263 -5.948501 -12.6584 -9.053 
-7.901501 -7.500501 -4.4455 -16.791 -17.899 -21.9713 -19.379 -11.3284 -7.968 -5.2775 -6.966 -10.5035 -10.1 -9.7185 -12.6119 -11.1924 -8.503 -10.411 -12.6584 -12.6584 
-7.905001 -7.9645 -16.791 -20.068 -23.5035 -21.9713 -21.8259 -11.7549 -9.133 -6.966 -10.5635 -10.5795 -11.0365 -14.3039 -12.6119 -13.2484 -11.7522 -17.2559 -12.6584 
-1.934 -1.4985 -7.0205 0 -2.4265 -2.186 -4.4155 -2.5045 0 -5.605 0 -3.152 -4.3215 -2.5045 -4.5845 -5.1685 -1.756 -5.004001 0 -3.152 -4.056 -3.1385 -1.934 -3.691 0 
-2.6125 -8.116501 -7.0205 -2.4265 -3.292 -6.001 -6.2935 -2.5045 -5.183 -5.183 -3.152 -5.672 -5.2675 -7.0825 -7.0985 -6.207001 -5.8405 -3.5905 -3.152 -8.002501 -7.849 -4.522 -4.8225 -3.691 
-9.618501 -8.116501 -10.1595 -3.292 -6.997 -7.2335 -6.2935 -8.941501 -5.183 -8.8835 -5.672 -6.401501 -9.6365 -9.009001 -8.026501 -11.066 -6.447001 -7.957001 -8.002501 -12.0183 -9.506001 -7.262001 -4.8225 
-9.618501 -11.7321 -10.725 -6.997 -8.356 -7.2335 -13.2101 -8.941501 -8.8835 -11.2313 -6.401501 -10.8455 -9.982 -10.1905 -12.6119 -11.1924 -9.040001 -13.1493 -12.0183 -13.6753 -12.3456 -7.262001 
-13.4007 -12.2976 -14.43 -8.356 -8.356 -14.3537 -13.2101 -12.8448 -11.2313 -11.6383 -10.8455 -11.191 -11.2183 -14.7759 -12.6119 -13.7854 -14.3109 -17.1651 -13.6753 -16.5149 -12.3456 
-3.691 -2.229 -5.605 0 -4.4345 -1.7565 -4.9225 -4.2635 -1.7695 -4.5845 -5.1685 0 -5.004001 0 -4.4345 -1.7565 -4.9225 -3.0835 -4.969 -3.644 -2.0935 -3.1385 -4.0305 
-5.0855 -7.952001 -5.183 -4.4345 -4.719 -6.4125 -9.380501 -7.1385 -7.006501 -7.0985 -5.1685 -3.5905 -3.5905 -4.4345 -4.719 -6.4125 -7.792 -8.754001 -8.933001 -6.360001 -4.6835 -7.583001 
-10.717 -7.9685 -8.842 -4.719 -9.8105 -11.2901 -12.3599 -12.9363 -9.0305 -7.0985 -9.887501 -3.5905 -7.778 -4.719 -9.8105 -8.961 -14.0783 -13.138 -11.7602 -8.745501 -10.322 
-10.6215 -11.7725 -9.3015 -9.8105 -14.7505 -14.2695 -18.1577 -14.9603 -9.0305 -11.6631 -9.887501 -7.778 -8.467 -9.8105 -12.4214 -15.5835 -18.4623 -15.9652 -14.1457 -14.6322 
-15.3043 -12.232 -14.9772 -14.7505 -17.7299 -20.0673 -20.1817 -14.9603 -13.5835 -11.6631 -14.075 -8.467 -13.9411 -12.4214 -19.0439 -19.9675 -21.2895 -18.3507 -20.0324 
