-4.759 
n/a 
n/a 
n/a 
n/a 
-4.759 
n/a 
n/a 
n/a 
n/a 
-4.759 
n/a 
n/a 
n/a 
n/a 
-4.759 
n/a 
n/a 
n/a 
n/a 
-4.187 -1.7565 -4.9225 -3.8245 -1.934 -3.8735 0 -2.925 -5.0575 -2.3345 -4.3705 -1.756 -3.6885 0 -2.4265 -3.6675 -1.8085 -3.8175 -3.9825 -2.0935 -4.31 -1.8085 -6.293 -4.085 
-4.2795 -6.4125 -7.585 -4.7245 -4.885 -3.8735 -2.925 -7.725501 -6.561 -6.6075 -5.8165 -5.3225 -3.6885 -2.4265 -6.530001 -4.9975 -4.55 -5.9455 -5.5805 -6.4115 -5.456501 -8.067 -9.2545 
-8.612 -8.717501 -7.8545 -7.5845 -4.885 -7.045 -7.725501 -9.230501 -10.4585 -7.942 -8.7735 -5.3225 -6.1715 -6.530001 -7.986501 -6.4025 -6.002501 -7.529 -10.2165 -8.794001 -12.7608 -11.2673 
-10.287 -9.1195 -11.1381 -7.5845 -7.439001 -12.0119 -9.230501 -13.122 -11.793 -11.2316 -8.7735 -8.040001 -11.2798 -7.986501 -9.6035 -6.457 -7.6995 -12.3842 -12.599 -16.2129 -15.9611 
-11.1142 -12.4523 -11.1381 -9.945001 -12.4803 -13.5169 -13.122 -14.4565 -15.0826 -11.2316 -12.0488 -13.2983 -12.7363 -9.6035 -9.715 -8.4945 -12.5053 -14.7667 -20.0179 -19.4132 
-5.891 0 -4.2655 -1.756 -3.6885 -2.4945 -1.4985 -3.699 -4.246 -1.934 -4.656 -3.564 -1.756 -3.9655 -4.654 -1.934 -3.8735 -3.3155 -3.948 -3.319 -1.7565 -3.1385 -2.4945 -3.8245 
-5.891 -4.2655 -5.291 -5.3225 -6.529 -3.9315 -5.264 -6.0755 -5.4675 -5.302001 -8.322001 -4.925 -5.0755 -8.198 -5.914001 -4.885 -6.489 -7.0745 -7.325 -4.165 -4.388 -4.588 -5.751 
-8.09 -5.291 -7.9875 -7.658501 -7.981501 -7.0825 -7.297 -6.7845 -6.989 -8.764501 -9.494 -5.9495 -9.257001 -9.223001 -8.854501 -7.092 -10.316 -10.5745 -7.5515 -6.8725 -5.892 -6.897501 
-8.745501 -7.9875 -9.377501 -9.032001 -11.3707 -8.472501 -8.198501 -7.837501 -10.1425 -9.880501 -10.3905 -9.79 -10.3415 -12.2933 -11.2809 -10.8198 -13.816 -10.706 -10.3155 -8.3955 -8.245501 
-10.0815 -9.377501 -10.554 -12.559 -12.7607 -9.2075 -9.4515 -11.0282 -11.2585 -10.753 -14.231 -11.0709 -13.4448 -14.7197 -15.0087 -14.3198 -13.9475 -13.47 -11.8385 -10.322 
-3.3715 -3.319 -1.7565 -4.9225 -2.674 -1.934 -3.8735 -3.1435 -3.6845 -1.7695 -4.4525 -1.7565 -4.2655 0 -5.891 0 -1.756 -3.97 0 
-7.602501 -4.165 -6.4125 -6.985 -5.0615 -4.885 -7.356 -8.190001 -5.38 -7.673501 -4.6715 -5.3855 -4.2655 -5.891 -5.891 -1.756 -5.355 -3.97 
-7.992501 -9.579 -9.0255 -9.201 -8.583 -7.866001 -12.7817 -9.9615 -12.1448 -8.2335 -7.709001 -5.3855 -7.6895 -5.891 -7.0585 -5.355 -5.355 
-13.5861 -12.3354 -11.2339 -12.9275 -11.788 -13.4525 -14.5532 -17.2331 -12.7048 -10.7595 -7.709001 -8.610001 -7.6895 -7.0585 -9.579 -5.355 
-16.3425 -14.5438 -14.9604 -16.1325 -17.3745 -15.224 -21.8248 -17.7931 -15.2308 -10.7595 -11.4801 -8.610001 -8.821501 -9.579 -9.579 
-3.8735 -3.5795 -2.5685 -3.9755 -1.7565 -3.1385 -3.5005 -5.891 0 -4.2655 -1.756 -3.6885 -3.1495 -2.4945 -1.4985 -3.699 -4.293 -2.186 -5.8835 -3.564 -1.756 -4.8935 -3.9235 0 
-8.094501 -5.4375 -5.1585 -4.312 -4.388 -5.9425 -9.189501 -5.891 -4.2655 -5.291 -5.3225 -7.138 -4.459 -3.9315 -5.264 -5.8965 -5.7655 -9.108001 -9.1765 -4.925 -6.0975 -6.281 -3.9235 
-10.4265 -7.624001 -5.353 -6.4815 -6.849 -12.3085 -9.189501 -8.09 -5.291 -7.9875 -8.622001 -8.104 -5.194 -7.0825 -7.6645 -7.1535 -13.2131 -12.492 -10.75 -8.059501 -8.6175 -6.281 
-12.613 -7.659 -7.332 -8.4335 -13.3996 -12.3085 -11.6633 -8.745501 -7.9875 -10.4675 -9.611 -8.7495 -8.194 -9.5795 -8.257 -15.1531 -16.5971 -14.0655 -13.8845 -10.3675 -8.6175 
-12.648 -10.037 -8.530001 -15.5671 -13.3996 -14.7823 -12.3188 -10.0815 -10.4675 -11.4565 -10.3495 -11.8975 -10.9132 -10.218 -16.4674 -18.5371 -18.1706 -17.2 -16.1925 -10.3675 
