-4.759 
n/a 
n/a 
n/a 
n/a 
-4.759 
n/a 
n/a 
n/a 
n/a 
-4.759 
n/a 
n/a 
n/a 
n/a 
-4.759 
n/a 
n/a 
n/a 
n/a 
-12.16972 -1.7695 -7.3495 -4.033 -5.9185 -2.5045 -5.8235 
-13.93922 -8.2405 -12.1365 -10.6959 -8.123501 -8.465501 
-20.41022 -13.6147 -18.7994 -12.9009 -14.6513 
-25.78442 -20.2776 -21.0044 -19.4287 
-32.44732 -22.4826 -27.5322 
-1.934 -5.8235 -4.6795 -3.859 -1.4985 -4.1885 -4.033 -3.729 
-7.881001 -10.5035 -9.658001 -5.14 -5.922 -6.354001 -8.1645 
-12.9122 -15.482 -10.343 -10.155 -8.268001 -10.5535 
-17.8907 -16.167 -15.88 -12.501 -12.8503 
-18.5757 -21.704 -18.226 -17.0833 
-1.934 -3.158 -5.8235 -12.16972 -4.7445 -2.3615 -3.5015 -1.756 -9.668501 -4.1885 -4.033 -3.729 
-5.7375 -9.23 -18.56742 -16.91422 -6.9425 -5.2225 -5.087 -12.4331 -14.4296 -6.354001 -8.1645 
-12.8161 -22.11392 -23.31192 -19.11222 -9.842001 -6.6405 -16.5347 -17.1942 -16.5951 -10.5535 
-25.70002 -26.85842 -25.50992 -22.01172 -11.5612 -18.6074 -21.2958 -19.3597 -20.7946 
-30.44452 -29.05642 -28.40942 -23.73092 -23.5281 -23.3685 -23.4613 -23.5592 
-6.3755 -4.0555 -1.934 -1.4985 -3.158 -5.8235 -4.0835 -4.1885 -4.033 -4.302 0 
-10.1595 -5.263 -2.6125 -4.178 -9.23 -10.802 -9.3065 -6.354001 -7.7895 -4.302 
-10.7645 -6.174 -5.265 -9.3865 -14.3485 -16.025 -11.6564 -10.5035 -7.7895 
-11.6755 -8.771501 -9.6005 -14.5228 -19.5715 -18.3749 -15.8059 -10.5035 
-14.273 -13.2266 -14.7414 -19.7458 -21.9214 -22.5244 -15.8059 
