-4.759 
n/a 
n/a 
n/a 
n/a 
-4.759 
n/a 
n/a 
n/a 
n/a 
-4.759 
n/a 
n/a 
n/a 
n/a 
-4.759 
n/a 
n/a 
n/a 
n/a 
-1.4985 -3.499 -1.7565 -3.45 -5.1335 -3.152 -4.645 -3.3255 -8.599501 0 
-4.967 -4.306 -4.322 -7.7615 -7.306 -6.427 -7.739501 -12.8894 -8.599501 
-5.2225 -7.241 -8.343 -9.767 -9.1705 -9.056001 -17.8422 -12.8894 
-8.0955 -9.175 -10.426 -11.6315 -11.8477 -19.1619 -17.8422 
-9.478001 -11.662 -12.2905 -14.3087 -21.9536 -19.1619 
-3.0365 -2.4945 -4.2775 -4.519 -1.7695 -4.5445 -2.264 -1.4985 -3.499 -1.7565 -1.4985 -4.618 0 -1.756 -2.985 -4.231 
-3.688 -6.2075 -7.9075 -6.3125 -5.101 -5.7375 -2.9195 -4.967 -4.306 -2.4195 -6.106501 -4.618 -1.756 -4.2025 -6.377 
-6.989 -9.425 -9.665 -8.8745 -6.164001 -6.2995 -6.973501 -5.2225 -4.5175 -6.779001 -6.106501 -5.7655 -4.2025 -7.058001 
-10.3095 -10.5985 -12.3374 -10.155 -6.725 -10.0405 -7.499001 -5.4195 -7.774 -6.779001 -7.358 -7.5 -7.058001 
-11.7496 -14.5641 -13.6179 -10.667 -10.4845 -10.2535 -7.782001 -8.370501 -7.774 -7.817501 -8.689501 -9.948 
-2.0935 -2.3615 -1.4985 -4.2245 -4.331 -1.7695 -3.5045 -1.4985 -3.499 -3.0415 -2.0935 -3.5045 -2.925 -3.2955 -1.4985 -4.498 -3.7075 0 
-3.854 -4.913 -5.2345 -7.697001 -4.593 -4.661 -4.653 -4.967 -6.583 -5.367 -5.9285 -8.165 -5.588 -4.8715 -5.638 -7.440001 -3.7075 
-6.426 -8.707001 -8.822001 -8.0655 -8.311501 -5.487 -8.120001 -7.969 -8.9305 -10.054 -10.7605 -11.1552 -6.624001 -9.259001 -8.5585 -7.440001 
-10.2985 -12.2507 -9.163 -11.9602 -9.123 -8.7045 -11.6248 -10.476 -13.9115 -15.3484 -13.7507 -12.1912 -11.1963 -12.3419 -8.5585 
-13.8422 -12.5917 -13.1455 -12.7717 -12.3929 -12.6847 -14.1318 -15.457 -19.2059 -18.3386 -14.7867 -16.7635 -14.2792 -12.3419 
-1.4985 -3.499 -1.7565 -3.1495 -6.962 -2.674 -2.985 -3.5205 -4.6615 -1.756 -2.925 -2.4945 -4.645 -2.264 -4.219 -4.1175 
-4.967 -4.306 -3.914 -9.288 -8.632 -5.042 -4.257 -7.51 -5.7565 -4.2585 -3.7675 -6.212501 -6.816501 -6.084001 -9.179001 
-5.2225 -6.833 -9.961 -10.3825 -11.1758 -5.6365 -7.8385 -8.275001 -8.336 -5.16 -7.337 -7.91 -9.777501 -12.2514 
-7.574 -13.7444 -11.0555 -12.9263 -11.7703 -8.964 -8.653501 -10.553 -9.085001 -9.0935 -9.339001 -11.5094 -16.4993 
-14.6146 -14.8389 -13.5993 -13.5208 -15.0978 -9.6925 -10.6345 -11.302 -13.1331 -11.4561 -12.7708 -18.2312 
