-4.759 
n/a 
n/a 
n/a 
n/a 
-4.759 
n/a 
n/a 
n/a 
n/a 
-4.759 
n/a 
n/a 
n/a 
n/a 
-4.759 
n/a 
n/a 
n/a 
n/a 
-4.007 -2.186 -4.303 -4.7935 0 -2.872 -4.753 -2.186 -4.303 -4.9575 0 
-6.2675 -5.9575 -9.8675 -4.7935 -2.872 -8.2355 -6.9245 -5.9575 -9.3385 -4.9575 
-8.136001 -10.451 -9.8675 -7.877501 -8.2355 -8.519501 -8.562 -10.4265 -9.3385 
-12.8143 -10.451 -13.2493 -13.8234 -8.519501 -10.9462 -13.1726 -10.4265 
-12.8143 -14.1172 -19.1952 -14.1074 -10.9462 -15.5568 -13.1726 
-4.007 -2.186 -4.303 -4.4715 -2.872 -4.753 -2.186 -4.303 -3.383 -4.9575 0 
-6.2675 -5.9575 -7.6755 -7.1545 -8.2355 -6.9245 -5.9575 -6.9105 -6.21 -4.9575 
-8.136001 -9.0495 -10.9421 -12.9034 -8.519501 -8.562 -8.783001 -10.0445 -6.21 
-11.4128 -12.8829 -16.691 -13.1874 -10.9462 -11.5291 -11.9164 -10.0445 
-15.2462 -18.6318 -16.975 -15.6141 -13.9133 -14.6625 -11.9164 
-3.1385 -4.4605 -4.007 -4.067 -4.7415 -1.934 -1.4985 -3.188 0 -4.764 -4.753 -2.186 -2.6165 -3.115 -2.3335 0 
-8.465 -7.6075 -8.751 -6.616 -5.989 -2.6125 -3.619 -3.188 -4.764 -9.995001 -6.9245 -3.5105 -5.172501 -4.7415 -2.3335 
-11.8512 -12.9747 -10.7575 -7.253 -6.442501 -4.377 -3.619 -7.686 -9.995001 -10.762 -8.308001 -6.337501 -6.5785 -4.7415 
-17.2184 -14.9812 -11.3945 -7.793 -6.9505 -4.377 -7.927 -13.0446 -10.762 -12.1455 -10.6095 -7.5265 -6.5785 
-19.2249 -15.6182 -11.9345 -8.252501 -6.9505 -8.335501 -13.3606 -13.8116 -12.1455 -14.447 -11.7985 -7.5265 
-4.4715 -4.4605 -4.007 -2.872 -4.129 -4.753 -2.186 -3.689 0 
-8.356501 -7.6075 -6.8435 -7.121 -7.2925 -6.9245 -4.993 -3.689 
-11.6883 -9.5495 -10.168 -10.6465 -9.388 -10.1265 -4.993 
-13.6303 -13.042 -13.9283 -12.742 -12.7488 -10.1265 
-17.1228 -16.8023 -16.0238 -16.1028 -12.7488 
