-4.759 
n/a 
n/a 
n/a 
n/a 
-4.759 
n/a 
n/a 
n/a 
n/a 
-4.759 
n/a 
n/a 
n/a 
n/a 
-4.759 
n/a 
n/a 
n/a 
n/a 
-1.934 -1.4985 -4.7515 -3.957 -1.7565 -1.4985 -4.752 -4.153 0 -1.4985 -3.6385 -3.0695 -4.0925 -2.664 -4.571 -1.934 -1.4985 -3.9685 -3.6885 -3.9205 -2.5045 -5.291 -6.857 -3.264 -1.4985 -3.4635 -2.7455 -1.4985 -4.571 
-2.6125 -4.8385 -6.499 -4.676 -2.4195 -5.684 -5.6225 -4.153 -1.4985 -4.690001 -4.965 -7.110001 -6.3 -6.543 -6.8885 -2.6125 -4.987 -5.971 -7.672 -4.449 -8.110001 -7.484 -9.599501 -4.4645 -3.6265 -7.015 -3.637 -6.1085 
-5.792 -6.518001 -6.5335 -5.031 -6.421501 -6.09 -5.6225 -5.544001 -4.690001 -5.4355 -9.212001 -8.577001 -11.0518 -7.702 -8.009001 -6.1315 -6.7175 -10.275 -7.921 -9.8245 -9.830501 -10.181 -11.0276 -6.7665 -7.076 -7.5965 -7.6845 
-6.8465 -6.544 -6.726 -7.708 -6.699501 -6.09 -6.977 -8.820001 -5.4355 -9.436001 -10.8046 -13.7586 -12.2108 -9.2895 -10.6465 -7.521 -10.3155 -10.3765 -13.4615 -11.6166 -12.5973 -11.7269 -13.3296 -8.068001 -7.6085 -11.78 
-6.864501 -6.7335 -8.660001 -7.73 -6.699501 -7.129 -10.3545 -9.281001 -9.436001 -11.1616 -15.9862 -14.9176 -13.7983 -12.044 -10.6815 -11.3432 -10.3985 -16.2136 -15.2536 -14.3834 -14.1432 -14.0289 -14.6311 -8.549001 -11.7964 
-3.2615 -3.957 -1.7565 -1.4985 -4.752 -4.153 -1.934 -3.9465 -3.6885 0 -3.9685 0 -3.251 -4.0925 -2.871 -4.571 -2.3345 -5.291 -6.857 -1.756 -4.1585 -10.429 -4.571 -2.925 -2.4945 
-6.9165 -4.676 -2.4195 -5.684 -5.6225 -5.9665 -5.144 -7.357 -3.6885 -3.9685 -3.9685 -3.251 -7.001 -6.9855 -8.799001 -7.0995 -6.6315 -7.484 -7.98 -5.519 -15.8003 -15 -8.4505 -3.7675 
-8.272 -5.031 -6.421501 -6.09 -7.468501 -8.175501 -8.843 -7.357 -6.290501 -3.9685 -7.299 -7.001 -9.077001 -13.4601 -10.4515 -10.7025 -8.854501 -8.8785 -12.3788 -17.6172 -20.3713 -18.8795 -9.1945 
-8.5745 -7.708 -6.699501 -7.657001 -9.061501 -12.0491 -8.843 -7.5835 -6.290501 -7.299 -11.1568 -9.077001 -15.8942 -15.1126 -15.5479 -10.7425 -9.599001 -13.5219 -24.477 -22.1882 -24.2508 -19.6235 
-11.3793 -7.73 -8.1625 -9.252001 -13.0493 -12.0491 -10.443 -7.5835 -10.538 -11.1568 -13.2328 -15.8942 -17.5467 -20.209 -15.5879 -11.487 -14.4412 -25.6201 -29.048 -26.0677 -24.9948 
-4.752 -6.004 -3.307 -2.95 -6 -3.6885 -4.571 -2.871 -4.548 -2.264 -5.291 -6.857 -2.925 -3.8905 -3.595 -6.147 
-12.095 -9.764 -7.1475 -9.3795 -10.341 -8.0035 -8.3695 -8.000501 -6.000501 -8.1005 -7.484 -10.147 -5.937 -5.638 -9.316 
-15.855 -13.6725 -14.1678 -13.9225 -14.9416 -12.2948 -13.7502 -10.733 -13.2988 -10.3225 -10.9756 -13.159 -7.627501 -12.0778 
-19.7635 -20.6928 -18.7108 -18.5231 -19.2329 -17.6755 -16.4827 -18.0313 -15.5208 -13.8141 -13.9876 -14.8495 -14.2849 
-26.7838 -25.2358 -23.3114 -22.8144 -24.6136 -20.408 -23.781 -20.2533 -19.0124 -16.8261 -15.6781 -21.5069 
-3.106 -4.184 -4.153 -3.291 -4.126 0 -3.9685 -3.6885 -4.571 -4.548 -5.291 -6.857 0 
-6.017 -5.8855 -8.074 -6.1595 -4.126 -3.9685 -5.971 -8.0035 -10.3285 -11.117 -7.484 -6.857 
-6.875501 -9.538 -11.3973 -6.1595 -8.799001 -5.971 -9.276 -14.2538 -16.8975 -13.31 -7.484 
-10.6328 -13.2311 -11.3973 -11.5295 -11.0519 -9.276 -15.7931 -20.8228 -19.0905 -13.31 
-14.3259 -13.2311 -16.7673 -13.7824 -14.3569 -15.7931 -22.3621 -23.0158 -19.0905 
