-4.759 
n/a 
n/a 
n/a 
n/a 
-4.759 
n/a 
n/a 
n/a 
n/a 
-4.759 
n/a 
n/a 
n/a 
n/a 
-4.759 
n/a 
n/a 
n/a 
n/a 
-3.7485 0 -9.1595 -2.1715 0 -5.1645 0 
-3.7485 -9.1595 -11.4832 -2.1715 -5.1645 -5.1645 
-13.3904 -11.4832 -11.4832 -7.708001 -5.1645 
-15.7141 -11.4832 -17.0197 -7.708001 
-15.7141 -17.0197 -17.0197 
-3.7485 0 -10.502 0 -5.1645 0 
-3.7485 -10.5875 -10.5875 -5.1645 -5.1645 
-14.5504 -10.7499 -15.1899 -5.1645 
-14.5504 -15.1899 -15.1899 
-18.9904 -15.1899 
-3.7485 0 -5.4835 -5.0185 0 -5.1645 0 
-3.7485 -5.4835 -10.5875 -4.624 -5.1645 -5.1645 
-9.147 -10.7499 -10.7499 -9.064 -5.1645 
-14.5504 -10.7499 -15.1899 -9.064 
-14.5504 -15.1899 -15.1899 
-3.7485 0 -11.331 0 -5.1645 0 
-3.7485 -11.4832 -11.4832 -5.1645 -5.1645 
-15.7141 -11.4832 -17.0197 -5.1645 
-15.7141 -17.0197 -17.0197 
-21.2506 -17.0197 
