-4.759 
n/a 
n/a 
n/a 
n/a 
-4.759 
n/a 
n/a 
n/a 
n/a 
-4.759 
n/a 
n/a 
n/a 
n/a 
-4.759 
n/a 
n/a 
n/a 
n/a 
-6.864 -5.2875 -5.1605 -6.557 -2.5195 -4.208 -4.153 -1.7695 -4.4485 -4.153 
-8.533 -8.243501 -10.7335 -9.5595 -6.384 -6.7115 -6.192 -6.737 -6.742001 
-10.688 -14.3617 -13.736 -13.3796 -8.982 -9.044001 -10.586 -8.6525 
-16.8062 -17.3642 -17.5561 -15.9776 -10.4115 -13.6068 -10.707 
-19.8087 -21.1843 -20.1541 -17.4071 -14.9743 -13.7278 
-7.4885 -5.1605 -2.5195 -4.208 -1.7695 -4.4485 -4.153 -4.747 
-9.995501 -7.394 -6.384 -6.456 -6.737 -6.742001 -8.8465 
-12.3156 -11.5499 -7.5915 -7.898 -8.6525 -8.657001 
-16.4715 -12.7574 -8.63 -9.7825 -9.821501 
-17.679 -13.7959 -10.8639 -10.672 
-3.0835 -7.4885 -3.152 -5.1605 -2.5195 -4.4175 -2.1715 -4.6945 -4.4485 -5.0045 
-11.7822 -9.4565 -7.298 -7.394 -7.040501 -6.199 -6.7925 -8.677501 -8.040501 
-13.7502 -13.7217 -9.438001 -12.2064 -9.323501 -10.598 -11.0795 -11.743 
-18.0154 -15.8617 -14.2734 -14.4894 -14.4769 -15.9551 -15.5146 
-20.1554 -20.6971 -16.5564 -19.6428 -19.3762 -19.9264 
-4.253 -7.4885 -5.1605 -1.934 -4.4175 -2.1715 -1.7695 -2.543 -4.184 -4.153 
-12.6545 -9.995501 -6.4305 -6.2395 -6.199 -4.454 -4.76 -5.624001 -5.8855 
-15.1615 -11.3521 -11.3634 -8.182 -8.915 -5.6645 -7.699501 -7.898001 
-16.5181 -16.285 -13.3059 -10.5225 -10.7495 -10.403 -9.7705 
-21.451 -18.2275 -15.6464 -12.7404 -15.488 -12.474 
