-4.759 
n/a 
n/a 
n/a 
n/a 
-4.759 
n/a 
n/a 
n/a 
n/a 
-4.759 
n/a 
n/a 
n/a 
n/a 
-4.759 
n/a 
n/a 
n/a 
n/a 
-3.641 -4.315 -3.5745 -2.6165 -4.9395 -1.7695 -3.9555 -1.756 -2.4265 -2.7415 -1.8085 -4.758 -1.756 -7.652 -3.5015 0 
-7.022 -8.213 -4.114 -6.0595 -5.127501 -5.0965 -6.103 -3.949 -3.681 -3.891 -7.552501 -6.443 -8.3415 -10.316 -3.5015 
-11.699 -8.9125 -7.086 -6.2265 -7.992001 -6.7305 -7.6795 -4.9795 -4.626 -9.403 -9.687 -12.6325 -10.833 -9.691501 
-12.3985 -12.2703 -7.219 -8.5445 -9.222 -8.224001 -8.913 -5.991 -10.3885 -11.7747 -16.0797 -15.7644 -10.8774 
-15.7563 -12.4033 -9.394 -9.712 -10.7525 -9.651001 -9.9135 -12.0631 -12.7602 -18.1674 -19.1326 -15.7644 
-2.5045 -1.4985 -3.641 -3.602 -2.186 -2.6165 -3.0695 -3.251 -4.292 -3.4425 -2.9705 -2.186 -4.794 -1.756 -5.102 -4.3425 -3.4425 0 
-3.1915 -4.644 -5.7945 -5.1035 -3.5105 -6.3585 -4.7295 -7.1495 -8.514501 -5.896 -3.89 -6.253 -6.442 -6.6835 -9.790501 -8.026501 -3.4425 
-6.410501 -7.139 -8.0345 -6.628 -7.251 -8.8255 -8.159 -11.9992 -10.419 -6.5075 -7.5885 -7.837501 -12.1141 -11.6776 -13.6929 -8.026501 
-8.112 -10.248 -9.5555 -9.027 -10.275 -12.4054 -13.3623 -13.9037 -10.6225 -9.360001 -9.545501 -13.769 -17.1082 -15.58 -13.6929 
-11.7302 -11.769 -12.1639 -12.3564 -14.1391 -17.6087 -15.2668 -14.1072 -13.475 -11.7236 -15.5 -18.7631 -21.0106 -15.58 
-3.641 -4.197 -3.498 -2.8645 -2.6165 -4.8685 -1.7695 -3.9555 -2.8645 -3.1125 -4.794 -1.756 -3.2955 -2.3345 -4.758 -2.8645 -4.0835 
-5.1095 -8.859 -6.7105 -4.475 -6.042 -7.103001 -5.0965 -5.7535 -3.5345 -6.713 -6.442 -5.0135 -4.534 -7.187 -6.6435 -5.8155 
-9.779 -12.3911 -8.552501 -9.4347 -9.014 -11.4332 -8.712501 -6.832 -7.339 -8.0755 -8.823 -6.1415 -9.4475 -9.523101 -10.2135 
-13.4275 -14.2331 -13.768 -12.4067 -13.6008 -15.0492 -9.961 -11.8835 -8.8575 -10.757 -10.4855 -11.533 -11.9962 -13.0931 
-15.2695 -19.4486 -16.74 -16.9935 -17.2168 -16.2977 -15.1007 -13.402 -11.6672 -12.4195 -15.877 -14.0817 -15.5662 
-3.641 -3.7575 -2.847 -3.7435 -2.7765 -4.1 0 -2.925 -3.859 -2.925 -1.4985 -10.7715 0 -5.61 
-5.455501 -6.8865 -6.4745 -6.2915 -7.025001 -4.1 -2.925 -6.383 -5.3805 -4.202 -13.3638 -10.7715 -5.61 
-8.743 -10.0925 -7.9335 -10.4675 -7.025001 -6.968 -6.383 -7.592 -6.5265 -16.4163 -13.3638 -16.7095 
-12.066 -11.5515 -12.4755 -10.4675 -10.218 -10.688 -7.592 -8.7025 -19.136 -16.4163 -19.3018 
-13.525 -16.0935 -12.4755 -13.6605 -14.133 -11.897 -8.7025 -21.3934 -19.136 -22.3543 
