-4.759 
n/a 
n/a 
n/a 
n/a 
-4.759 
n/a 
n/a 
n/a 
n/a 
-4.759 
n/a 
n/a 
n/a 
n/a 
-4.759 
n/a 
n/a 
n/a 
n/a 
-2.847 -2.6615 -5.713 -3.6515 
-5.5625 -6.8935 -6.306 
-7.716001 -6.948 
-7.739501 
n/a 
-3.264 -2.6615 0 -8.013 -3.6515 
-5.932 -2.6615 -8.013 -12.3111 
-5.932 -11.2105 -12.3111 
-14.7922 -15.5086 
-19.0903 
-3.264 -2.6615 0 -5.713 -3.6515 
-5.932 -2.6615 -5.713 -6.306 
-5.932 -6.8935 -6.306 
-8.082001 -6.948 
-8.1 
-2.847 -2.6615 0 -9.7145 -3.6515 
-5.5625 -2.6615 -9.7145 -13.4988 
-5.5625 -12.912 -13.4988 
-16.069 -16.6963 
-19.8533 
