-4.759 
n/a 
n/a 
n/a 
n/a 
-4.759 
n/a 
n/a 
n/a 
n/a 
-4.759 
n/a 
n/a 
n/a 
n/a 
-4.759 
n/a 
n/a 
n/a 
n/a 
-4.426 -1.7565 -1.4985 -3.6115 -4.7285 -4.1555 -7.2065 -2.186 -5.0915 -3.3035 -8.991501 -3.1645 -3.9535 -1.934 -3.9985 -3.135 -4.2115 -3.152 -3.3425 -4.9135 -2.742 -3.9535 
-5.47 -2.4195 -4.081 -6.5495 -8.4455 -9.991001 -8.5115 -7.665501 -9.4715 -13.2026 -12.3282 -8.429501 -5.3325 -5.277 -7.4705 -6.742001 -7.2155 -6.0065 -7.3205 -8.361501 -8.367001 
-5.9535 -5.180501 -6.670501 -9.978001 -12.881 -10.013 -12.487 -12.5943 -19.481 -16.5393 -17.5932 -9.824 -7.479001 -8.3275 -11.3123 -9.271501 -9.9455 -10.2943 -11.7981 -14.2743 
-8.462501 -7.797 -10.054 -14.3919 -14.8059 -16.6107 -20.0982 -22.6038 -22.8177 -21.8043 -18.9877 -11.9417 -10.757 -12.2715 -13.8418 -12.1485 -14.2289 -14.7719 -17.7109 
-10.2375 -11.2985 -14.5043 -16.3168 -20.3822 -22.8611 -30.1077 -25.9405 -28.0827 -23.1988 -21.1054 -15.2197 -14.701 -14.801 -16.7188 -16.4319 -18.7065 -20.6847 
-3.83 -4.1785 -2.186 -1.8085 -5.0915 -4.5005 -2.229 -4.1785 -3.6885 -2.186 -3.2955 -1.7695 -3.4605 -3.8755 -2.3345 -12.16972 -7.426 -1.934 -3.9985 
-6.259501 -5.811501 -3.164 -7.3335 -11.0656 -7.258 -6.528 -6.053 -5.4995 -4.348001 -3.9425 -5.5985 -6.29 -4.4955 -14.83482 -19.59572 -9.7345 -5.277 
-7.836 -7.123 -8.325001 -13.8242 -13.8231 -12.0064 -8.9515 -8.577001 -7.058001 -4.837 -10.016 -9.045501 -6.534 -17.54022 -22.26082 -21.90422 -13.0837 
-9.4045 -12.8488 -15.2909 -16.5817 -18.5715 -14.4299 -10.177 -9.932501 -7.7885 -11.4315 -13.463 -9.0775 -20.35152 -24.96622 -24.56932 -25.25342 
-15.4617 -19.8147 -18.0484 -21.3301 -20.995 -15.6554 -11.5325 -10.4465 -14.8502 -14.8785 -13.495 -24.27482 -27.77752 -27.27472 -27.91852 
-3.83 -4.1785 -1.756 -5.0915 -3.655 -3.8755 -2.3345 -3.9985 -3.2955 -2.0935 -3.16 -2.9775 
-6.259501 -5.8805 -6.462 -10.862 -7.7465 -4.4955 -6.943 -7.672 -4.307 -5.238 -4.6715 
-7.8025 -10.375 -12.7927 -14.9535 -8.546 -9.400001 -11.0071 -9.298 -7.5 -7.170001 
-12.8048 -16.7057 -16.8842 -15.753 -13.7061 -13.9425 -12.6331 -12.7776 -9.0595 
-19.1355 -20.7972 -17.6837 -20.9131 -18.2486 -15.5685 -16.1127 -14.3371 
-4.0595 -2.186 -4.4895 -2.3345 -5.0915 -3.3035 0 -2.229 -8.535001 -6.3275 -1.934 -3.9985 -2.0935 -1.4985 -3.3425 -1.7565 -4.9135 -3.6885 -2.0935 -1.4985 -3.16 -3.64 
-5.203 -5.884501 -5.5805 -7.14 -9.4715 -3.3035 -2.229 -11.359 -15.3775 -9.380001 -5.277 -6.556 -2.9725 -6.4775 -6.7335 -6.961501 -6.1885 -5.5805 -2.9725 -4.0625 -4.892 
-10.316 -7.0645 -9.018001 -12.1266 -9.4715 -4.448 -11.359 -18.2015 -18.43 -12.715 -7.2635 -7.2165 -8.053 -7.627 -10.411 -8.399501 -7.304501 -6.5785 -5.77 -6.3505 
-11.496 -10.771 -14.4044 -12.1266 -10.7264 -14.6194 -18.2015 -21.254 -21.765 -14.7015 -7.836 -12.6724 -9.098001 -10.5035 -12.5148 -9.631001 -8.436001 -8.0835 -8.121 
-15.2025 -16.1574 -14.4044 -13.3815 -20.8978 -21.4619 -21.254 -24.589 -23.7515 -15.274 -13.5487 -13.7174 -12.1261 -13.3829 -13.7463 -11.0693 -9.509501 -10.6595 
