-4.759 
n/a 
n/a 
n/a 
n/a 
-4.759 
n/a 
n/a 
n/a 
n/a 
-4.759 
n/a 
n/a 
n/a 
n/a 
-4.759 
n/a 
n/a 
n/a 
n/a 
-3.9555 -3.325 -3.13 -2.882 -2.489 -3.8115 -1.7695 -4.597 -6.1155 0 -2.872 -4.0955 -3.098 -1.934 -1.8085 -4.395 -4.2605 0 -3.2775 -2.5045 -1.8085 -5.263 -4.288 -1.4985 -3.486 -4.1555 -2.0935 -4.338 0 -4.251 -4.4615 -3.8135 0 -3.5155 -3.237 0 -3.672 0 -2.742 -4.4685 -3.858 -3.8315 0 
-6.5205 -6.4735 -5.4755 -3.631 -4.1055 -3.8325 -5.044 -8.3995 -6.1155 -2.872 -6.176001 -6.2735 -4.746 -3.2685 -5.564 -9.049 -4.2605 -3.2775 -3.678 -3.3625 -6.4065 -6.314001 -6.2125 -3.5655 -6.124 -5.703001 -6.326 -4.338 -4.251 -6.009501 -8.030001 -3.8135 -3.5155 -6.242 -3.237 -3.672 -3.672 -2.742 -6.793 -8.407001 -6.782001 -3.8315 
-9.087501 -9.673 -7.876 -5.39 -4.11 -6.8705 -9.498501 -8.3995 -9.602001 -6.176001 -7.691 -8.0885 -6.206 -7.506001 -9.536 -9.049 -7.015 -3.678 -5.039 -7.233 -7.077 -8.017501 -8.697001 -6.3365 -6.1745 -9.928 -6.326 -8.984001 -6.009501 -9.986501 -8.030001 -7.2915 -6.242 -6.242 -5.4655 -3.672 -7.384501 -6.793 -9.901501 -11.609 -6.782001 
-12.669 -10.063 -10.1465 -5.394 -7.1785 -11.6164 -9.498501 -13.0802 -12.97 -7.691 -8.84 -9.455 -10.3955 -9.88 -9.536 -11.8909 -7.114501 -5.039 -9.724501 -9.0305 -8.842 -10.5325 -10.419 -6.376501 -10.0375 -9.928 -11.6422 -10.0075 -9.986501 -9.986501 -11.9814 -8.257501 -6.242 -8.573 -5.4655 -7.384501 -11.9819 -9.901501 -13.3991 -11.609 
-13.059 -12.6311 -10.1535 -8.6945 -12.016 -11.6164 -14.6626 -16.4482 -14.485 -8.84 -10.1185 -13.6863 -13.0287 -9.88 -12.4239 -11.9904 -7.982501 -9.724501 -10.2405 -10.66 -11.3754 -12.2545 -10.4395 -10.1185 -10.0375 -15.4004 -12.6657 -13.9845 -9.986501 -13.9379 -12.9474 -8.257501 -8.573 -8.573 -8.797501 -11.9819 -15.0904 -13.3991 -13.3991 
-6.9935 -3.2825 -4.681 -3.9795 -1.756 -7.745 -3.2825 -4.681 -3.9795 -2.0935 -7.377501 -1.934 -3.522 0 
-7.788 -6.239501 -7.3555 -5.7275 -9.9615 -10.533 -6.239501 -7.3555 -5.1125 -10.4115 -8.6085 -5.0285 -3.522 
-8.5445 -7.545501 -8.819501 -14.763 -12.7495 -13.49 -7.545501 -7.956 -14.1983 -11.6425 -12.1558 -5.0285 
-8.6085 -8.978001 -17.9858 -17.551 -15.7065 -14.796 -8.135 -17.3632 -15.4293 -15.1898 -12.1558 
-9.992001 -18.2127 -20.7738 -20.508 -17.0125 -15.3855 -17.5904 -18.5942 -18.9766 -15.1898 
-1.934 -1.4985 -3.158 -3.522 -2.9805 -3.7555 -1.4985 -6.9935 -3.2825 -4.681 -3.9795 -1.756 -8.318001 -4.6695 -3.9795 -2.0935 -1.4985 -3.8195 -7.377501 
-2.6125 -4.178 -5.7415 -6.2725 -5.3095 -4.843 -8.0435 -7.788 -6.239501 -7.3555 -5.7275 -10.9315 -13.3375 -7.987 -5.1125 -2.9725 -4.771 -10.7495 
-5.265 -6.6925 -8.800501 -8.9455 -6.3935 -10.292 -8.609 -8.5445 -7.545501 -8.819501 -15.733 -15.951 -16.655 -9.4315 -6.159 -6.207 -12.2012 
-7.2805 -8.9425 -11.5201 -9.836 -12.1341 -10.769 -9.5305 -8.6085 -8.978001 -18.9558 -20.7525 -19.2685 -18.0995 -10.398 -8.413 -13.8262 
-9.1645 -11.6993 -12.4106 -15.5766 -12.6111 -11.6905 -9.5795 -9.992001 -19.1827 -23.9753 -24.07 -20.713 -19.066 -12.8084 -16.3052 
-1.934 -3.522 -2.9805 -5.939 -3.2825 -4.681 -3.9795 -2.0935 -5.227 -1.934 -3.7955 -7.377501 0 
-5.0285 -6.2725 -7.682001 -9.498501 -6.239501 -7.3555 -5.1125 -9.105 -6.109 -6.2355 -9.5415 -7.377501 
-6.636 -10.4185 -11.5493 -12.4697 -7.545501 -7.956 -12.8918 -10.244 -10.1145 -12.5099 -9.5415 
-10.6875 -14.2858 -14.5205 -13.7757 -8.135 -16.0567 -14.0308 -14.4077 -16.3889 -12.5099 
-14.5548 -17.257 -15.8265 -14.3652 -16.2839 -17.1957 -18.1945 -20.6821 -16.3889 
