-4.759 
n/a 
n/a 
n/a 
n/a 
-4.759 
n/a 
n/a 
n/a 
n/a 
-4.759 
n/a 
n/a 
n/a 
n/a 
-4.759 
n/a 
n/a 
n/a 
n/a 
-3.237 -4.375 0 -3.8325 -4.375 0 -3.0435 -4.375 
-6.128 -4.375 -3.8325 -6.486 -4.375 -3.0435 -8.077001 
-6.128 -8.172 -6.486 -6.486 -7.62 -8.077001 
-9.380501 -8.3125 -6.486 -9.443501 -10.0855 
-9.4595 -8.3125 -9.443501 -12.3554 
0 -3.3785 -4.1095 0 -3.8325 -4.1095 0 -3.891 -4.1095 
-3.3785 -7.576501 -4.1095 -3.8325 -6.271501 -4.1095 -3.891 -7.621 
-7.576501 -7.576501 -8.3155 -6.271501 -6.271501 -7.940001 -7.621 
-7.576501 -12.3173 -8.701501 -6.271501 -10.8884 -12.411 
-12.3173 -12.7033 -8.701501 -10.8884 -15.3594 
-3.3785 -4.1095 -3.8325 -4.1095 0 -4.1975 -4.1095 
-7.576501 -8.3155 -6.271501 -4.1095 -4.1975 -8.7395 
-12.3173 -8.701501 -6.271501 -7.748001 -8.7395 
-12.7033 -8.701501 -9.772 -10.0445 
-12.7033 -12.5452 -10.0985 
0 -3.237 -4.1095 0 -3.8325 -4.1095 0 -3.8355 -4.1095 
-3.237 -6.5035 -4.1095 -3.8325 -6.271501 -4.1095 -3.8355 -8.3585 
-6.5035 -6.5035 -8.3155 -6.271501 -6.271501 -8.344001 -8.3585 
-6.5035 -10.1595 -8.701501 -6.271501 -10.564 -13.1094 
-10.1595 -10.256 -8.701501 -10.564 -15.3294 
