-4.759 
n/a 
n/a 
n/a 
n/a 
-4.759 
n/a 
n/a 
n/a 
n/a 
-4.759 
n/a 
n/a 
n/a 
n/a 
-4.759 
n/a 
n/a 
n/a 
n/a 
-5 -4.5545 -1.7565 -7.211 -2.229 -3.3435 -3.5125 -3.152 -4.403 -3.147 
-7.159 -5.6825 -9.502501 -8.756001 -5.0415 -6.0675 -6.9825 -6.780001 -6.35 
-8.388 -14.2051 -10.555 -11.7991 -7.915501 -9.6085 -10.1305 -9.509001 
-17.1444 -15.2576 -13.5981 -14.6731 -10.6735 -12.7565 -12.8831 
-18.1969 -18.3007 -16.4721 -17.4311 -13.8215 -15.5091 
-3.147 -3.0365 -2.186 -1.756 -5.4695 -4.5545 -2.264 -3.3435 -3.5125 -1.7565 -7.211 0 
-5.7475 -3.66 -5.029 -7.17 -9.189501 -6.4765 -5.651 -6.0675 -4.312 -9.502501 -7.211 
-6.405 -6.798501 -11.5038 -11.0144 -10.214 -9.574 -7.8925 -6.984 -12.6002 -9.502501 
-10.0375 -13.4995 -15.3482 -12.0389 -13.3647 -12.3627 -9.3985 -15.6936 -12.6002 
-16.7385 -17.3439 -16.3727 -15.1896 -16.1534 -13.8687 -18.1211 -15.6936 
-3.3435 -3.5125 -1.7565 -7.211 -1.756 -3.482 -2.4945 -4.3725 -1.934 -1.4985 -4.5545 0 
-6.0675 -4.312 -9.502501 -9.059 -5.3005 -5.764 -5.572001 -5.022501 -2.6125 -5.465 -4.5545 
-6.984 -12.6002 -11.3979 -12.6783 -6.9865 -8.835501 -5.9685 -5.515501 -6.491 -5.465 
-15.6936 -14.4956 -15.0172 -14.3643 -10.259 -9.452001 -6.593 -9.5325 -6.491 
-17.589 -18.1149 -16.7032 -17.6368 -10.9241 -9.962501 -10.757 -9.5325 
-3.147 -8.066501 -2.229 -3.3435 -3.5125 -1.756 -3.562 -4.798 -2.4945 -3.0365 
-12.0617 -8.865001 -5.0415 -6.0675 -4.7915 -5.635 -9.466501 -7.1925 -4.952001 
-12.8602 -12.9047 -7.915501 -7.1 -8.566 -12.2703 -12.1784 -9.337501 
-16.8999 -15.7787 -8.793 -10.5975 -15.8185 -14.9822 -14.3234 
-19.7739 -16.6562 -12.3717 -18.138 -18.5304 -17.1272 
