-4.759 
n/a 
n/a 
n/a 
n/a 
-4.759 
n/a 
n/a 
n/a 
n/a 
-4.759 
n/a 
n/a 
n/a 
n/a 
-4.759 
n/a 
n/a 
n/a 
n/a 
-3.6115 0 -2.356 -3.6065 -3.992 -4.4915 -3.436 -5.1845 -3.1385 -4.0555 -2.5195 -3.976 -3.3255 -5.484 -4.1115 -1.7695 -3.502 -3.8735 0 
-3.6115 -2.356 -5.204 -6.887 -10.31 -7.456 -9.669001 -7.4095 -6.3625 -5.0775 -6.079 -7.0515 -9.328501 -6.72 -6.007501 -5.535 -6.2275 -3.8735 
-6.257 -5.204 -9.661 -14.0362 -13.2745 -14.0308 -11.906 -11.0099 -7.3935 -8.0865 -8.715 -13.4099 -10.761 -8.432 -9.124001 -7.982 -6.2275 
-9.796 -9.661 -16.8768 -17.0007 -19.8493 -16.2678 -15.5064 -12.0409 -9.834001 -10.8525 -15.4264 -14.8424 -12.473 -11.9859 -11.9242 -7.982 
-14.253 -16.8768 -19.8413 -23.5755 -22.0863 -19.8682 -16.5374 -14.4814 -12.7102 -17.5639 -16.8589 -16.5544 -16.0269 -14.7861 -11.9242 
-1.4985 -3.6115 -2.186 -1.934 -1.8085 -5.0275 -4.1755 -2.5195 -3.976 -3.3755 -1.7565 -4.719 -4.1115 -1.4985 -3.502 -4.1865 -3.1385 -4.0555 
-4.081 -5.764501 -4.0835 -3.2685 -5.385 -7.02 -6.246 -6.079 -8.7915 -4.5295 -6.517001 -8.783001 -5.8805 -4.5955 -6.301 -6.7955 -6.3625 
-5.880001 -7.835501 -5.3035 -7.1105 -7.235001 -8.8025 -10.2843 -10.7335 -10.249 -10.007 -10.647 -10.2595 -8.670501 -7.4965 -9.654 -9.876 
-7.912001 -9.192 -9.2585 -9.473001 -8.9575 -13.1846 -14.9388 -12.191 -15.8801 -14.391 -12.1235 -13.4987 -12.0369 -10.19 -12.7807 
-9.252001 -13.1938 -11.6146 -11.5333 -13.4412 -17.8391 -16.3963 -17.8221 -20.2641 -15.8675 -15.3627 -16.8651 -14.7304 -13.3167 
-1.4985 -3.6115 -2.9635 -3.644 -2.3335 -1.4985 -5.7305 -1.7565 -3.1385 -3.0695 -4.0555 -2.5195 -3.976 -1.7695 -3.502 -3.8735 -1.934 -1.4985 -4.193 -3.3255 -4.1115 -2.4945 -5.1845 -3.1385 0 
-4.081 -7.193501 -7.6215 -4.989501 -3.3515 -7.078501 -7.0805 -4.388 -4.286 -5.5715 -5.0775 -6.079 -6.0855 -5.535 -6.2275 -5.938 -2.6125 -4.594501 -7.546 -7.8505 -6.946 -8.5895 -7.4095 -3.1385 
-7.566501 -10.375 -8.609 -5.794001 -8.722501 -7.447501 -10.2472 -5.278 -6.860001 -6.685 -8.0865 -7.18 -8.1635 -7.982 -8.062 -6.6595 -5.558001 -8.002001 -12.5338 -11.1706 -13.2878 -10.1905 -7.4095 
-10.4105 -10.587 -9.3215 -11.2992 -9.248 -10.7604 -11.1372 -7.745 -7.9715 -9.269501 -9.5175 -8.8245 -10.564 -9.372001 -8.733 -9.361 -8.706 -12.9866 -15.8539 -17.5124 -14.8888 -10.1905 
-10.634 -11.2995 -14.9007 -11.8247 -12.5267 -11.6504 -13.6042 -8.839001 -10.4105 -10.4685 -11.1362 -11.8214 -11.954 -10.1345 -11.5681 -12.9152 -14.1374 -16.3067 -22.1957 -19.1134 -14.8888 
-1.4985 -3.6115 -3.992 -2.186 -2.3335 -4.399 -1.7565 -3.45 -3.0695 -4.0555 -2.5195 -3.976 -3.3255 -1.4985 -5.484 -4.1115 -2.186 -3.0415 -3.849 -5.1845 -3.288 0 
-4.081 -6.182 -5.739 -3.9765 -7.813001 -4.831 -4.322 -4.273 -5.5715 -5.0775 -6.079 -7.0515 -3.8945 -6.222 -6.72 -6.279 -4.6165 -4.942 -8.881001 -7.7045 -3.288 
-7.644501 -7.981 -6.521 -9.537001 -8.9405 -8.097 -5.289 -6.7695 -6.685 -8.0865 -8.715 -7.613501 -8.714001 -6.981501 -8.620501 -8.241 -7.2295 -9.3005 -11.6406 -7.7045 
-8.925 -9.286 -12.2119 -10.4955 -12.5031 -9.626 -7.4645 -8.047 -9.269501 -10.8525 -9.290001 -9.9805 -9.631001 -8.741501 -10.7267 -10.5035 -11.973 -12.1801 -11.6406 
-9.656501 -15.1893 -13.1704 -14.0581 -14.0321 -11.8341 -8.9355 -10.4585 -12.1767 -11.4275 -11.9086 -11.5019 -11.4418 -10.8689 -12.9892 -15.4278 -14.8526 -12.1801 
