-4.759 
n/a 
n/a 
n/a 
n/a 
-4.759 
n/a 
n/a 
n/a 
n/a 
-4.759 
n/a 
n/a 
n/a 
n/a 
-4.759 
n/a 
n/a 
n/a 
n/a 
-2.3615 -2.8645 -3.1125 -5.043 -3.222 -3.6065 -3.9035 0 -1.756 -4.648 -9.8175 -1.7695 -5.656 -2.5685 -1.4985 -3.772 
-4.878 -3.5345 -9.391001 -6.851501 -6.141 -5.818501 -3.9035 -1.756 -6.391 -15.6207 -11.7148 -6.101501 -7.313 -3.7015 -5.215 
-5.359 -9.631001 -9.9735 -9.242001 -7.940001 -5.818501 -5.1585 -6.391 -17.5925 -17.518 -16.0468 -7.9725 -8.548 -6.728 
-12.2409 -10.073 -12.7888 -11.0696 -7.940001 -7.7085 -10.485 -17.5925 -19.4898 -21.85 -17.9178 -9.008 -9.712501 
-12.6829 -13.0429 -14.6164 -11.0696 -9.1625 -13.243 -21.6865 -19.4898 -23.8218 -23.721 -18.9533 -10.4345 
-2.3615 -4.6825 -4.7925 -3.222 -3.3715 -3.9035 0 -1.756 -4.741 -8.802501 -2.0935 -2.3615 -4.6825 
-7.571 -7.845 -5.2095 -6.256001 -5.995 -3.9035 -1.756 -6.0715 -14.7977 -11.372 -3.854 -7.571 
-11.1153 -9.311501 -7.636 -8.247001 -5.995 -5.1585 -6.0715 -16.9778 -17.3672 -13.1325 -9.399 
-12.5818 -11.8712 -9.071 -8.247001 -7.828001 -10.5652 -16.9778 -19.5473 -19.1277 -18.6775 
-15.1415 -13.3062 -9.071 -9.2255 -13.4541 -21.4715 -19.5473 -21.3078 -24.6727 
-3.9035 -1.7565 -1.4985 -3.5435 -4.794 0 -5.3175 -1.4985 -10.2885 -1.7695 -5.656 -2.3615 0 
-4.616 -2.4195 -4.2755 -9.057 -4.794 -5.3175 -6.4995 -10.985 -12.1268 -6.101501 -7.9345 -2.3615 
-4.895 -5.3025 -9.544001 -9.057 -11.3697 -6.4995 -16.843 -12.8233 -16.4588 -8.437 -7.9345 
-7.821 -10.5975 -9.544001 -15.6835 -12.5517 -16.843 -18.6813 -17.1553 -18.7943 -8.437 
-13.2848 -10.5975 -16.1945 -16.8655 -22.8952 -18.6813 -23.0133 -19.4908 -18.7943 
-2.925 -2.674 -6.3195 -1.756 -9.170501 -4.254 
-4.1785 -8.41 -7.972501 -11.9351 -13.8357 
-9.790001 -9.899 -18.5106 -16.6003 
-11.3354 -20.4371 -23.1758 
-21.8735 -25.1023 
