-4.759 
n/a 
n/a 
n/a 
n/a 
-4.759 
n/a 
n/a 
n/a 
n/a 
-4.759 
n/a 
n/a 
n/a 
n/a 
-4.759 
n/a 
n/a 
n/a 
n/a 
-1.4985 -3.9675 -1.7565 -5.3885 -4.91 -1.4985 -4.343 -1.7565 -5.226 -4.231 -1.7565 -3.1385 -3.8245 -3.0365 
-5.356501 -5.258 -7.235001 -10.985 -5.331 -6.161 -6.377001 -7.099 -10.4345 -5.2425 -4.388 -5.577001 -6.346 
-5.832 -9.454 -13.1945 -11.406 -8.729501 -6.864501 -12.3905 -12.6445 -11.446 -8.3725 -6.2815 -7.3205 
-10.2428 -15.8613 -13.6155 -14.8045 -9.125501 -13.2132 -17.936 -13.656 -14.576 -10.5865 -8.363501 
-16.6501 -16.2823 -17.014 -15.2005 -15.7462 -18.7587 -18.9475 -16.786 -16.79 -13.4029 
-1.4985 -3.9675 -1.7565 -5.3885 -3.837 -1.4985 -3.9675 -1.7565 -1.4985 -3.6065 -4.7005 -1.7565 -3.1385 -3.8245 -3.0365 0 
-5.356501 -5.258 -7.235001 -9.998001 -4.797 -5.356501 -5.258 -2.4195 -4.8665 -5.6825 -4.764 -4.388 -5.577001 -6.346 -3.0365 
-5.832 -9.454 -12.2075 -11.2644 -9.1455 -5.832 -6.065001 -5.668 -6.677501 -5.719501 -6.488 -6.2815 -7.3205 -6.346 
-10.2428 -14.8743 -13.4739 -15.6129 -9.5065 -6.4985 -9.112 -7.467 -6.702001 -7.443501 -9.371 -8.363501 -7.3205 
-15.6631 -16.1407 -17.8224 -15.9739 -10.235 -9.484 -11.1506 -7.4865 -8.773001 -9.8415 -10.329 -8.363501 
-2.5685 -3.319 -1.7565 -4.9225 -2.4945 -4.657 -1.934 -5.3885 -4.91 -1.4985 -5.3885 -3.9675 0 
-6.443501 -4.165 -6.4125 -6.9525 -7.751 -5.156 -6.4035 -10.985 -5.331 -7.283501 -9.3835 -3.9675 
-6.8035 -9.579 -8.7425 -12.527 -8.294001 -9.448 -12.3268 -11.406 -11.9372 -11.9637 -9.3835 
-10.7575 -12.0524 -14.4046 -13.07 -12.8866 -15.6601 -12.7478 -18.0122 -16.6174 -11.9637 
-13.2309 -17.7145 -14.9476 -17.6626 -19.0987 -16.0811 -19.354 -22.6924 -16.6174 
-5.3885 -3.1385 -3.511 -2.356 -3.3715 -4.2945 -1.756 -2.3615 -2.186 -1.4985 -3.2825 -3.9675 -1.7565 -5.3885 0 
-9.1225 -5.979 -5.258 -5.039001 -8.3055 -5.445001 -4.4615 -3.5005 -3.339 -3.712 -8.078001 -5.258 -7.235001 -5.3885 
-12.2722 -7.5205 -8.4445 -10.2755 -9.9835 -8.2405 -5.0895 -4.3105 -4.8425 -8.3855 -9.795501 -9.454 -7.235001 
-13.8137 -10.647 -13.8636 -11.9535 -12.9766 -8.9005 -5.87 -5.7495 -9.810501 -9.969 -14.0255 -9.454 
-16.9402 -16.0661 -15.5416 -14.9466 -13.6366 -9.896501 -6.9085 -10.7595 -11.4394 -14.2356 -14.0255 
