-4.759 
n/a 
n/a 
n/a 
n/a 
-4.759 
n/a 
n/a 
n/a 
n/a 
-4.759 
n/a 
n/a 
n/a 
n/a 
-4.759 
n/a 
n/a 
n/a 
n/a 
-3.929 -2.4265 -2.186 -3.8825 -1.7695 -4.065 -3.6085 0 -4.3105 -3.6085 -2.186 -4.9325 -2.356 -1.8085 -3.6065 -5.1125 -1.756 -6.9175 -1.7565 -3.9355 0 
-5.029 -3.292 -5.2765 -4.5575 -6.2135 -6.4865 -3.6085 -4.3105 -7.291 -5.869 -6.4585 -6.423501 -3.4075 -4.464 -8.044001 -6.637 -8.4665 -7.87 -5.442 -3.9355 
-5.7665 -6.538 -5.3695 -8.705 -8.5495 -6.4865 -7.686001 -7.291 -8.900001 -7.629001 -8.4495 -7.5115 -5.811501 -8.257501 -9.143001 -13.8849 -9.723001 -9.969501 -5.442 
-9.0205 -6.6335 -9.6745 -9.8625 -8.5495 -9.342001 -8.179001 -8.900001 -10.5645 -9.781001 -9.101 -9.866501 -8.641001 -9.272501 -16.4721 -15.1414 -11.7301 -9.969501 
-9.1805 -10.597 -10.8772 -9.8625 -11.6334 -9.408501 -10.4345 -10.5645 -12.7165 -10.319 -10.4855 -10.429 -9.6075 -16.631 -17.7286 -17.1485 -11.7301 
-3.929 -2.4265 -5.6985 -4.559 -3.6085 0 -2.4265 -2.8645 -3.135 -3.4865 -3.9355 -3.759 -1.756 -7.159 0 
-5.029 -6.8215 -9.995001 -7.646 -3.6085 -2.4265 -4.1435 -5.203 -6.0255 -7.43 -8.501 -5.259 -8.564 -7.159 
-8.923 -11.278 -13.4236 -7.646 -6.52 -4.1435 -6.3155 -7.6115 -8.873 -12.4915 -9.838 -13.0704 -8.564 
-13.4689 -14.7066 -13.4236 -11.3625 -8.079 -6.3155 -8.7895 -10.4105 -14.2631 -13.8285 -17.8674 -13.0704 
-16.8975 -14.7066 -17.1401 -12.9215 -10.322 -8.7895 -11.6991 -16.1144 -15.6001 -21.8579 -17.8674 
-3.1435 -2.882 -2.489 -3.486 -2.356 -4.065 -3.6085 -2.872 -1.934 -8.8505 -3.6085 -2.674 -3.135 -3.4865 -12.16972 -1.756 -3.8235 -4.15 
-7.005 -3.631 -6.8345 -5.7605 -6.432 -6.4865 -6.363 -4.659 -10.802 -12.8474 -7.1595 -4.7595 -6.0255 -16.99782 -13.92572 -5.86 -8.73 
-8.533501 -8.085501 -8.5525 -9.4545 -8.919001 -8.475 -7.982501 -14.2088 -14.7989 -16.3984 -9.2705 -7.3035 -19.79322 -18.75382 -18.02972 -10.66 
-13.3166 -9.9665 -12.4445 -12.2849 -11.1319 -10.292 -17.6425 -18.2057 -18.3499 -18.5094 -11.9801 -21.31442 -21.54922 -22.85782 -22.82972 
-15.1976 -14.1693 -15.2749 -14.4978 -12.9489 -20.167 -21.6394 -21.7567 -20.4609 -21.219 -25.99102 -23.07042 -25.65322 -27.65782 
-3.1435 -4.559 -3.6885 -2.872 -3.135 -6.0665 -2.4945 -3.2955 -2.3345 -5.6025 -3.098 
-9.288501 -8.627001 -6.246 -5.309 -9.288 -8.1365 -4.6305 -4.534 -7.5325 -8.5135 
-13.6073 -11.7305 -8.6495 -10.717 -10.4955 -9.874001 -5.836 -9.177501 -10.5425 
-16.7108 -14.134 -14.1693 -12.7483 -12.233 -10.5785 -10.3885 -12.3193 
-19.1143 -19.6538 -16.2006 -14.4858 -12.9375 -15.131 -13.7421 
