-4.759 
n/a 
n/a 
n/a 
n/a 
-4.759 
n/a 
n/a 
n/a 
n/a 
-4.759 
n/a 
n/a 
n/a 
n/a 
-4.759 
n/a 
n/a 
n/a 
n/a 
-1.4985 -2.911 -4.0555 -1.7695 -2.664 -3.498 0 
-4.6515 -8 -4.7475 -4.185 -5.1155 -3.498 
-8.657001 -9.028001 -6.349 -5.6315 -5.1155 
-9.674001 -9.4355 -6.4995 -5.6315 
-10.066 -9.492001 -6.4995 
-4.6475 -1.7695 -3.197 -3.5505 -1.756 -4.39 
-6.663 -3.9565 -6.878 -4.5495 -5.752501 
-8.556 -7.227 -7.639 -8.0015 
-12.0787 -7.918 -10.0215 
-12.7697 -10.4105 
-2.911 -3.5505 -4.3855 -2.9995 -2.95 
-6.528 -9.175 -8.153501 -4.5905 
-13.5795 -12.8532 -9.2475 
-17.2577 -13.9472 
-18.3517 
-2.911 -4.3855 -1.756 -4.39 -3.688 
-8.795501 -5.614501 -5.752501 -7.983001 
-9.826001 -9.121 -9.9505 
-13.9143 -13.6458 
-18.4391 
