-4.759 
n/a 
n/a 
n/a 
n/a 
-4.759 
n/a 
n/a 
n/a 
n/a 
-4.759 
n/a 
n/a 
n/a 
n/a 
-4.759 
n/a 
n/a 
n/a 
n/a 
-13.943 -4.0005 -3.5025 -3.64 -2.8645 -3.135 -3.535 -3.9035 
-15.6343 -7.4095 -6.98 -7.0245 -5.203 -5.962501 -5.5485 
-19.0985 -11.4728 -9.487 -9.2395 -7.992 -8.318501 
-23.4266 -13.9798 -12.3946 -12.1813 -10.5035 
-25.9336 -16.8874 -15.3364 -14.6928 
-12.5635 -4.207 -3.355 -1.7565 -3.188 -4.0005 -3.16 
-14.85 -7.986501 -3.725 -5.13 -4.969501 -5.2365 
-19.1628 -8.708 -7.252 -6.884501 -5.246 
-19.4398 -12.3824 -8.991 -7.428 
-23.2294 -14.1214 -9.887001 
-3.355 -1.7565 -3.188 -4.0005 -3.16 
-3.725 -5.13 -4.969501 -5.2365 
-7.252 -6.884501 -5.246 
-8.991 -7.428 
-9.887001 
-12.5635 -3.535 -3.355 -1.7565 -1.4985 -4.1865 -3.16 
-13.6845 -5.981 -3.725 -2.4195 -5.649 -6.669 
-16.2478 -6.1795 -4.0515 -6.5905 -7.0955 
-16.3428 -6.501 -7.678 -8.1085 
-16.6613 -10.1105 -9.7115 
