-4.759 
n/a 
n/a 
n/a 
n/a 
-4.759 
n/a 
n/a 
n/a 
n/a 
-4.759 
n/a 
n/a 
n/a 
n/a 
-4.759 
n/a 
n/a 
n/a 
n/a 
-4.22 -4.2225 0 -1.756 -3.511 -1.934 -4.2085 -4.2225 -3.2015 -2.4265 0 
-7.225 -4.2225 -1.756 -5.11 -4.582 -6.139 -7.103001 -7.939001 -5.6215 -2.4265 
-7.225 -5.3695 -5.11 -6.223 -8.6565 -10.4765 -11.4807 -10.75 -5.6215 
-8.4405 -8.3675 -6.223 -10.292 -13.2802 -14.8542 -14.2917 -10.75 
-11.7643 -9.1435 -10.292 -14.9157 -17.6579 -17.6652 -14.2917 
-4.22 -4.2225 0 -1.756 -4.2085 -4.2225 -3.074 -2.7765 -2.489 -3.8535 0 
-7.225 -4.2225 -1.756 -5.939 -7.103001 -7.1765 -5.628 -3.495 -4.6325 -3.8535 
-7.225 -5.3695 -5.939 -8.921 -10.564 -9.298 -6.26 -5.238501 -4.6325 
-8.4405 -9.210001 -8.921 -12.613 -12.6855 -9.776501 -8.205 -5.238501 
-12.6068 -12.364 -12.613 -14.7345 -13.164 -11.7609 -8.205 
-3.486 -3.772 -2.0935 -2.5685 -4.0135 -1.7565 -4.282 -1.756 -4.326 -5.328 0 
-7.374001 -5.2215 -3.987 -6.252501 -4.201 -5.7385 -5.814 -5.641 -8.3325 -5.328 
-9.093 -6.8085 -7.3275 -6.31 -7.784 -7.257 -7.4145 -9.058001 -8.3325 
-10.6345 -10.5975 -7.3535 -9.689501 -8.923 -8.1385 -9.169001 -9.058001 
-14.4235 -10.617 -11.0164 -10.9667 -10.1177 -10.0005 -9.169001 
-1.934 -4.326 -4.2225 -1.756 -4.2225 -1.934 -4.2085 -2.7295 -2.7765 -3.047 -2.3615 -4.7275 
-5.986 -6.3715 -5.3695 -5.5795 -5.681 -6.139 -7.147501 -4.065 -4.5075 -4.672 -6.264 
-7.665 -7.318501 -8.127501 -6.983 -9.2845 -9.737501 -8.7405 -5.696 -5.288 -8.457001 
-8.6595 -10.3225 -9.2165 -9.612 -13.2376 -11.3305 -9.989501 -7.347 -9.540001 
-11.8545 -10.7685 -11.9535 -14.1561 -14.8306 -12.5795 -11.7433 -10.476 
