-4.759 
n/a 
n/a 
n/a 
n/a 
-4.759 
n/a 
n/a 
n/a 
n/a 
-4.759 
n/a 
n/a 
n/a 
n/a 
-4.759 
n/a 
n/a 
n/a 
n/a 
-4.732 -3.539 -6.127501 -4.3435 -8.298 -4.967 -2.4945 -4.424 0 
-7.373 -7.568 -9.514501 -11.735 -13.429 -7.0125 -8.615 -4.424 
-10.5925 -11.2625 -18.1859 -18.9116 -15.7727 -13.4584 -8.615 
-14.5286 -19.1671 -24.1943 -20.9571 -22.2186 -13.4584 
-23.6262 -25.5283 -26.2398 -27.403 -22.2186 
-8.298 -4.3195 -1.4985 -3.4155 -4.967 -4.732 -2.9965 -3.539 -3.131 
-13.6935 -5.1515 -4.4155 -7.8805 -9.807 -7.788501 -5.8345 -4.8825 
-14.8237 -7.983 -8.6645 -13.1735 -12.9561 -9.6385 -6.9355 
-17.6552 -12.4042 -14.2209 -16.3226 -14.8061 -11.0059 
-22.0764 -17.9606 -17.37 -18.1726 -16.1735 
-3.539 -2.9965 0 -3.5725 -3.131 -8.298 -2.7415 -3.8275 -4.9225 0 
-5.4675 -2.9965 -3.5725 -8.425501 -10.3575 -11.7005 -7.3255 -9.419001 -4.9225 
-5.4675 -7.634001 -8.425501 -16.7972 -15.405 -16.6781 -13.4406 -9.419001 
-10.5225 -12.6924 -16.7972 -20.9249 -20.0844 -22.7932 -13.4406 
-15.5809 -21.0641 -20.9249 -25.6043 -26.1995 -22.7932 
-8.298 -3.152 -3.7905 -3.4155 -4.967 -5.7865 -3.539 -6.127501 
-11.919 -8.2075 -7.0315 -7.8805 -11.8151 -8.490001 -7.568 
-17.3109 -11.3979 -9.835501 -15.1816 -14.5186 -12.2856 
-20.5013 -14.2019 -17.2956 -17.8851 -18.3142 
-23.3053 -21.662 -19.9991 -21.6807 
