-4.759 
n/a 
n/a 
n/a 
n/a 
-4.759 
n/a 
n/a 
n/a 
n/a 
-4.759 
n/a 
n/a 
n/a 
n/a 
-4.759 
n/a 
n/a 
n/a 
n/a 
-5.1605 -2.3345 -6.09 0 -5.6695 0 -7.259501 -6.195 -2.356 -4.4695 -3.5015 -2.0935 -3.7865 -1.934 -5.585 0 -5.459 0 
-6.162 -8.0965 -6.09 -5.6695 -5.6695 -7.259501 -14.5387 -8.5385 -6.870501 -7.613 -4.7905 -6.184 -5.4965 -7.4505 -5.585 -5.459 -5.459 
-12.7366 -8.0965 -10.5535 -5.6695 -13.6536 -14.5387 -16.8822 -13.3632 -10.5186 -8.539001 -8.307501 -7.656001 -12.0448 -7.4505 -9.337501 -5.459 
-12.7366 -13.048 -10.5535 -13.6536 -20.9328 -16.8822 -21.7069 -17.0113 -11.4446 -12.162 -10.2645 -15.0277 -12.0448 -11.545 -9.337501 
-17.6881 -13.048 -18.5376 -20.9328 -23.2763 -21.7069 -25.355 -17.9373 -15.0676 -14.119 -17.6362 -15.0277 -16.1393 -11.545 
-5.1605 -2.3345 -7.912 0 -8.164001 0 -9.8575 -2.925 -2.674 -4.4695 -2.0935 -5.585 0 -3.9675 -1.756 -3.594 0 
-6.162 -9.656501 -7.912 -8.164001 -8.164001 -9.8575 -13.2739 -4.1785 -8.242001 -5.6265 -8.097 -5.585 -3.9675 -4.9775 -5.3155 -3.594 
-14.2966 -9.656501 -10.586 -8.164001 -18.5451 -13.2739 -14.5274 -9.411501 -9.6288 -9.844 -8.097 -9.3025 -4.9775 -7.039001 -5.3155 
-14.2966 -12.3653 -10.586 -18.5451 -21.9615 -14.5274 -19.7604 -10.9425 -13.8463 -9.844 -12.1139 -9.684 -7.039001 -7.039001 
-17.0054 -12.3653 -20.9671 -21.9615 -23.215 -19.7604 -21.2914 -15.16 -13.8463 -13.9101 -12.4954 -12.5413 -7.039001 
-3.3715 -5.585 -2.9705 -3.152 -7.425 -2.3345 -6.195 -10.9655 0 -5.6695 0 -8.2205 0 -2.4945 -4.4155 -1.7565 -4.5735 -3.594 -4.088 0 
-7.705001 -7.8265 -5.007 -10.204 -8.27 -8.332001 -18.0437 -10.9655 -5.6695 -5.6695 -8.2205 -8.2205 -2.4945 -6.2805 -7.453 -5.6355 -6.5525 -8.0865 -4.088 
-9.832001 -8.780001 -12.415 -11.049 -14.5129 -20.4709 -18.0437 -16.635 -5.6695 -14.6146 -8.2205 -11.4714 -6.2805 -9.272 -11.7124 -7.7235 -11.9396 -8.0865 
-10.8759 -16.3724 -13.26 -17.2919 -26.6518 -20.4709 -23.7132 -16.635 -14.6146 -14.6146 -11.4714 -15.2574 -9.272 -13.6384 -13.8004 -13.2446 -11.9396 
-18.4683 -17.2174 -19.5029 -29.4308 -26.6518 -26.1404 -23.7132 -25.5801 -14.6146 -17.8655 -15.2574 -18.2489 -13.6384 -15.7264 -19.3215 -13.2446 
-1.4985 -3.892 -3.251 -1.4985 -5.709 -1.7565 -6.864 0 -7.462 -1.756 -7.259501 -2.356 -3.3715 -5.585 -1.756 -3.7865 0 
-4.68 -6.983 -4.5775 -6.593 -6.4935 -8.661 -6.864 -7.462 -9.3815 -9.712501 -11.0145 -5.039001 -7.705001 -6.4485 -5.7705 -3.7865 
-7.381001 -7.969 -10.4855 -6.6805 -14.5098 -8.661 -9.861 -9.3815 -17.5436 -13.5895 -13.6975 -9.1665 -8.362501 -10.76 -5.7705 
-8.868001 -14.5812 -10.6755 -15.1594 -14.5098 -10.76 -10.085 -17.5436 -21.4206 -16.2725 -17.825 -9.436501 -12.9142 -10.76 
-15.2616 -14.7712 -19.1544 -15.1594 -16.6088 -10.984 -18.6173 -21.4206 -24.1036 -20.4 -18.095 -14.3266 -12.9142 
