-4.759 
n/a 
n/a 
n/a 
n/a 
-4.759 
n/a 
n/a 
n/a 
n/a 
-4.759 
n/a 
n/a 
n/a 
n/a 
-4.759 
n/a 
n/a 
n/a 
n/a 
-2.5195 -5.5915 -12.16972 -4.4755 -2.0935 -3.046 -8.015 -2.3345 -1.4985 -4.0955 -4.5675 
-8.170501 -18.40522 -16.64522 -6.235 -4.281 -12.2588 -9.861 -3.233 -5.2675 -7.9655 
-21.52382 -22.88072 -18.40472 -9.6635 -14.1084 -14.1048 -11.1535 -6.9775 -9.4305 
-25.99932 -24.64022 -21.83322 -19.5389 -15.9544 -15.3973 -14.898 -10.2585 
-27.75882 -28.06872 -31.70862 -21.3849 -17.2469 -19.1418 -18.179 
-3.458 -5.5915 -1.756 -5.681 -4.0955 -5.679 -4.5485 -1.756 -4.4755 -1.4985 -4.2655 -1.756 -4.2655 -4.248 
-8.521501 -7.823 -8.325001 -10.0965 -7.188 -9.857 -6.1455 -5.784 -5.2505 -5.9775 -5.291 -5.637 -7.443 
-8.664001 -9.5035 -13.0317 -13.189 -11.694 -11.6744 -9.3195 -6.3955 -8.8465 -7.2185 -8.263 -8.622001 
-9.774 -14.2412 -16.1242 -17.695 -13.5114 -14.8484 -10.3202 -9.889501 -10.1185 -10.634 -11.7856 
-14.5471 -17.3337 -20.6302 -19.5124 -16.6854 -15.8491 -13.8142 -11.1175 -13.534 -14.1566 
-2.5195 -5.5915 -1.7695 -5.681 -3.0365 -7.532001 -1.8085 -5.0275 -4.281 -8.095 -12.16972 -1.756 -3.8755 -1.8085 -3.845 -1.7565 -4.248 -1.7565 -4.2655 0 
-8.170501 -8.0895 -8.165 -9.091001 -11.1165 -9.147 -7.644 -9.7295 -12.6926 -20.79092 -13.92572 -5.7875 -5.0255 -3.9645 -4.13 -5.3215 -4.8235 -5.3855 -4.2655 
-8.627001 -9.7585 -10.5035 -17.5756 -12.7315 -15.3527 -12.9676 -18.1735 -25.38852 -22.54692 -17.95722 -6.3385 -7.109 -4.156 -7.4535 -6.283 -6.134501 -5.3855 
-9.9405 -12.1288 -18.9881 -19.1906 -18.9372 -20.6763 -21.4116 -30.86942 -27.14452 -26.57842 -18.50822 -8.500001 -7.2335 -7.462501 -9.153501 -7.5765 -6.134501 
-12.3364 -20.6134 -20.6031 -25.3963 -24.2608 -29.1203 -34.10752 -32.62542 -31.17602 -27.12942 -20.66972 -8.523001 -10.929 -9.169001 -10.7208 -7.5765 
-1.8085 -4.0955 -5.0335 -4.2995 -3.849 -1.4985 -3.6135 -5.465 0 -4.0555 -3.222 -4.6975 -3.458 -7.528 -1.756 -7.506001 -1.756 -2.4265 -5.4865 -1.4985 -3.9335 -2.0935 -4.2655 -1.756 -4.3705 -4.712 
-5.3805 -8.684 -8.3155 -7.387 -4.7705 -4.4525 -9.301001 -5.465 -4.0555 -5.5095 -6.238501 -7.666 -11.136 -8.441 -8.7895 -8.567501 -3.949 -7.762501 -6.5375 -5.969 -5.7945 -6.725501 -5.291 -5.5605 -8.676001 
-8.995501 -12.4848 -11.5822 -7.99 -7.383 -10.1105 -9.301001 -8.6485 -5.5095 -6.7535 -8.758 -15.6116 -12.049 -8.807 -10.0445 -10.66 -8.899 -8.393001 -11.4598 -7.606 -10.7025 -7.3715 -7.4525 -9.557501 
-13.6197 -15.7515 -12.1852 -10.8789 -13.289 -10.1105 -12.6009 -10.3419 -6.7535 -9.3905 -17.0264 -16.5246 -12.415 -10.0785 -12.137 -15.61 -9.6595 -13.3793 -13.0968 -12.6812 -11.3485 -9.365001 -12.0699 
-16.8864 -16.3545 -15.0741 -16.7849 -13.289 -13.4104 -14.2943 -11.5859 -9.3905 -17.7237 -17.9394 -16.8906 -13.6865 -12.171 -17.087 -16.3705 -14.6458 -15.0163 -18.172 -13.3272 -13.342 -14.172 
