-4.759 
n/a 
n/a 
n/a 
n/a 
-4.759 
n/a 
n/a 
n/a 
n/a 
-4.759 
n/a 
n/a 
n/a 
n/a 
-4.759 
n/a 
n/a 
n/a 
n/a 
-2.264 -3.288 -4.749 0 -3.8735 -4.541 -4.5045 -1.4985 -6.371 -4.1025 -4.99 -2.9705 -2.7415 -4.622 -2.5195 -1.4985 -3.995 -1.7695 -1.4985 -4.142 -1.7565 -12.0775 
-4.5935 -6.120501 -4.749 -3.8735 -8.1765 -6.652 -5.8255 -7.887501 -8.25 -8.239 -7.7685 -4.512 -5.66 -6.4445 -3.1695 -4.712 -5.9385 -2.7955 -5.4315 -5.3145 -13.8828 
-7.0635 -6.120501 -9.634001 -8.1765 -9.1845 -7.8655 -9.964001 -8.8865 -12.9525 -10.5325 -8.722 -6.814 -7.4405 -7.071 -6.2025 -6.455501 -6.8505 -6.77 -5.589 -19.0904 
-7.0635 -11.8505 -14.1972 -9.1845 -10.287 -10.5745 -10.537 -13.7054 -15.246 -11.486 -9.872001 -8.994 -7.9645 -9.3555 -7.1825 -7.088 -9.932501 -6.9045 -19.7425 
-13.1307 -16.4137 -15.2052 -10.287 -12.996 -11.1475 -15.3559 -15.9989 -16.1995 -12.636 -10.2525 -9.518001 -10.4988 -10.5865 -7.281 -10.1895 -9.990001 -21.3286 
-3.288 -2.846 0 -3.8735 -6.371 -4.1025 -2.5195 -3.7345 -1.7695 -3.7345 -4.99 -2.7415 -4.622 -4.541 -2.0935 -4.696 -5.7335 0 
-5.1485 -2.846 -3.8735 -8.653501 -8.25 -6.9725 -5.9715 -5.4305 -5.992001 -6.9325 -7.306001 -5.66 -7.6595 -6.6425 -7.251 -8.6945 -5.7335 
-5.1485 -7.600501 -8.653501 -10.3345 -10.733 -10.7335 -7.546 -8.059501 -9.724001 -9.85 -8.51 -8.3725 -9.9455 -12.2886 -10.7025 -8.6945 
-9.920501 -12.8017 -10.3345 -12.9257 -14.494 -12.308 -8.491 -12.1405 -12.1925 -11.054 -10.3745 -10.6465 -15.7904 -15.7401 -10.7025 
-15.2097 -14.4827 -12.9257 -16.6867 -16.0685 -13.253 -12.809 -14.609 -13.3965 -12.9185 -12.8977 -16.4914 -19.2419 -15.7401 
-2.264 -3.288 -2.846 0 -3.8735 -2.674 -4.541 -4.8645 -2.985 -3.6035 -4.064 -1.7565 -4.678 -4.99 -2.0935 -9.081 -2.9705 -2.7765 -3.983 -2.5195 -3.995 -1.7695 -3.995 
-4.5935 -5.1485 -2.846 -3.8735 -6.702 -5.756001 -7.231 -7.8205 -6.759 -6.8885 -5.337 -6.29 -10.254 -7.448501 -10.6475 -12.5343 -4.677 -6.6815 -6.851501 -6.152 -5.9385 -5.497 
-6.162001 -5.1485 -7.600501 -6.702 -9.634501 -8.4655 -9.5935 -11.8983 -10.7175 -9.1555 -10.1105 -12.3616 -12.7125 -16.5187 -14.9494 -14.2408 -8.827001 -9.927501 -8.560501 -7.156 -8.2065 
-6.162001 -9.920501 -10.8502 -9.634501 -12.344 -10.3035 -13.7737 -15.8568 -12.9845 -14.096 -16.5839 -14.8201 -21.7827 -20.8206 -16.6559 -18.3908 -12.009 -11.6365 -11.6017 -9.618501 
-11.467 -13.2582 -13.7827 -12.344 -14.182 -14.4837 -17.7322 -18.1238 -17.925 -20.5694 -19.0424 -23.8903 -26.0846 -22.5271 -20.8059 -21.5728 -13.718 -14.6777 -14.0642 
-3.288 -2.846 -3.8735 -6.371 -4.1025 -4.3645 -4.7195 -4.0375 -9.476501 
-5.1485 -7.600501 -8.653501 -8.25 -8.4825 -7.8105 -9.029501 -14.0798 
-9.920501 -12.8017 -10.3345 -13.196 -12.1661 -12.5923 -19.6546 
-15.2097 -14.4827 -15.3887 -16.8796 -16.9479 -23.2174 
-16.8907 -19.5369 -19.0723 -21.6614 -27.573 
