-4.759 
n/a 
n/a 
n/a 
n/a 
-4.759 
n/a 
n/a 
n/a 
n/a 
-4.759 
n/a 
n/a 
n/a 
n/a 
-4.759 
n/a 
n/a 
n/a 
n/a 
-3.5005 -3.502 -3.355 -1.7565 -8.493 -1.7565 -4.79 -4.219 -4.7315 0 -3.986 -9.644501 -2.5045 -1.8085 -3.4185 -1.7565 -12.16972 -8.6265 -4.293 -4.304 0 
-7.1355 -7.241 -3.725 -9.9925 -10.6179 -7.224 -9.446001 -7.328001 -4.7315 -3.986 -15.1737 -11.046 -3.3625 -4.1435 -4.2475 -14.87542 -20.79622 -13.1451 -7.591001 -4.304 
-11.4117 -7.415 -12.6754 -12.2396 -16.0854 -12.6076 -12.7274 -7.328001 -9.042 -15.1737 -16.5752 -11.904 -5.3145 -4.5105 -18.17902 -23.50192 -25.31482 -16.4431 -7.591001 
-11.5857 -16.3306 -14.9225 -17.7071 -21.469 -15.889 -12.7274 -12.1285 -20.4781 -16.5752 -17.4332 -13.856 -5.453001 -18.75722 -26.80552 -28.02052 -28.61282 -16.4431 
-20.5013 -18.5777 -20.39 -23.0907 -24.7504 -15.889 -17.5279 -23.5646 -21.8796 -17.4332 -19.3852 -13.9945 -20.12952 -27.38372 -31.32412 -31.31852 -28.61282 
-2.264 -4.5925 -1.7565 -1.4985 -4.79 -5.468 -3.8145 -2.9705 -3.7965 -1.4985 -3.502 -3.9975 -3.986 -2.7415 -4.645 -1.7695 -1.4985 -4.21 -3.1715 -4.285 -3.545 0 -4.293 -3.545 0 -1.934 -3.9415 0 
-4.7155 -4.707 -2.4195 -5.6215 -11.4814 -8.5485 -6.477 -5.034 -4.8165 -4.5955 -6.3235 -7.8485 -6.0125 -5.6165 -5.484001 -2.7955 -5.5705 -5.796 -7.814001 -6.5315 -3.545 -4.293 -6.147 -3.545 -1.934 -5.2535 -3.9415 
-4.7185 -5.097 -6.585501 -12.5037 -14.5619 -11.6954 -7.3565 -5.840001 -8.343 -8.294001 -9.883 -9.266001 -7.218 -6.170001 -5.949501 -6.835001 -6.5095 -11.5517 -9.151001 -6.5315 -6.0185 -6.147 -6.147 -5.182 -5.2535 -5.2535 
-5.107 -10.5425 -14.2253 -15.5842 -17.7088 -12.5749 -8.086 -9.050501 -12.3175 -12.2043 -11.8563 -10.761 -8.284 -6.377501 -8.417001 -7.632 -13.1632 -12.8887 -9.151001 -8.642 -7.8025 -6.147 -8.5725 -7.657001 -5.2535 
-10.5525 -18.1823 -17.3058 -18.7311 -18.5883 -13.3044 -10.172 -13.117 -16.2278 -14.1776 -13.3513 -11.827 -8.597 -8.6365 -8.981001 -14.6725 -14.5002 -12.8887 -11.4975 -10.918 -7.8025 -8.5725 -11.6293 -7.657001 
-1.934 -3.502 -11.0235 -1.756 -4.79 -4.219 -3.8145 -2.9805 -4.645 -1.4985 -3.986 -1.934 -3.9415 -2.5045 -3.4075 -9.602501 
-4.8155 -16.0241 -12.7795 -6.8795 -9.446001 -7.064 -6.872 -7.6045 -6.388 -5.286 -5.960001 -5.2535 -6.4705 -6.094501 -14.665 
-18.425 -17.7801 -17.903 -11.7625 -10.6105 -9.908001 -11.9538 -9.400001 -9.731001 -8.828501 -9.794001 -6.951 -9.592501 -17.7164 
-20.181 -22.9036 -22.786 -12.927 -13.4545 -15.3208 -13.7493 -12.7974 -13.1681 -12.8735 -11.5651 -10.228 -21.2448 
-25.3045 -27.7866 -23.9505 -15.771 -18.8673 -17.1163 -17.1467 -16.2345 -17.2131 -14.6446 -14.8421 -21.8803 
-10.4535 -3.5455 -4.1355 -1.934 -4.79 -4.219 -1.934 -1.4985 -3.8955 -1.4985 -9.079 -7.3855 -3.2875 -2.7415 -4.645 
-13.999 -7.652 -6.356 -7.1915 -9.446001 -5.832 -2.6125 -4.759501 -5.752501 -11.6713 -16.6861 -11.619 -5.934 -5.6165 
-18.1055 -9.7775 -12.1163 -12.5887 -11.2314 -6.751501 -5.656 -6.344501 -16.2825 -19.2784 -20.9196 -14.2655 -9.0705 
-20.231 -15.8772 -17.5135 -14.3741 -12.1509 -9.134501 -7.131001 -17.1711 -23.8896 -23.5119 -23.5661 -17.402 
-26.3307 -21.2744 -19.2989 -15.2936 -14.5339 -10.75 -18.3236 -24.7782 -28.1231 -26.1584 -26.7026 
