-4.759 
n/a 
n/a 
n/a 
n/a 
-4.759 
n/a 
n/a 
n/a 
n/a 
-4.759 
n/a 
n/a 
n/a 
n/a 
-4.759 
n/a 
n/a 
n/a 
n/a 
-2.5685 -4.1455 -1.934 -2.3615 -3.8195 -2.4945 -4.4695 
-5.7295 -5.8585 -3.539 -5.4645 -6.696 -6.5845 
-7.915501 -7.338 -6.443 -7.671 -10.76 
-9.205501 -9.263 -7.953 -11.851 
-10.443 -10.0715 -12.1728 
-2.5685 -4.1455 -2.4945 -4.0385 -4.0865 
-5.7295 -5.869 -6.429501 -7.469501 
-7.482501 -9.091001 -10.0815 
-10.5325 -10.4595 
-11.901 
-2.5685 -5.823 -4.1455 -2.4945 -3.383 -4.4695 0 
-9.139 -7.571001 -5.869 -4.732 -6.6995 -4.4695 
-10.355 -9.4595 -7.652 -8.0235 -6.6995 
-12.2435 -11.4001 -10.298 -8.0235 
-14.1841 -14.0461 -10.298 
-2.5685 -1.4985 -4.1455 -1.934 -1.4985 -3.7955 -2.4945 -4.316 
-3.7015 -5.3955 -5.8585 -2.6125 -4.78 -6.901501 -7.943 
-6.5455 -6.9275 -6.42 -5.797501 -7.4185 -12.7024 
-7.76 -7.421 -8.2775 -7.851001 -13.0998 
-8.219501 -8.637501 -9.5295 -13.5651 
