-4.759 
n/a 
n/a 
n/a 
n/a 
-4.759 
n/a 
n/a 
n/a 
n/a 
-4.759 
n/a 
n/a 
n/a 
n/a 
-4.759 
n/a 
n/a 
n/a 
n/a 
-3.0365 -2.186 -1.8085 -3.6885 -1.934 -2.3335 -4.6195 -3.557 -2.9905 -3.0415 -2.925 -5.2275 -4.2675 -2.4265 
-3.66 -3.164 -4.486 -5.1845 -4.359 -6.522 -7.1285 -5.269 -5.6625 -4.8045 -6.594501 -7.8125 -5.977 
-4.218 -5.5705 -5.9065 -7.063 -9.468 -9.117001 -8.849 -7.8835 -7.264 -7.953001 -8.963 -8.8275 
-5.947001 -6.7305 -7.496 -12.5618 -12.0414 -10.7947 -11.8727 -9.5865 -10.1895 -10.4629 -9.842501 
-7.2285 -8.173 -13.1014 -15.1352 -13.7191 -13.8184 -13.5757 -12.6038 -12.8882 -11.3424 
-3.922 -1.4985 -3.995 -4.237 -3.638 -2.6165 -1.8085 -4.031 -1.756 -1.4985 -4.873 -3.074 -3.5095 -3.135 -1.7565 -1.4985 -4.237 -2.6165 -4.9055 -2.3335 0 
-4.7665 -4.712 -8.308001 -6.6705 -7.075001 -4.0345 -5.249001 -5.7505 -3.0405 -6.0205 -8.223001 -5.89 -6.2065 -3.9195 -2.4195 -5.154 -7.535 -7.062 -7 -2.3335 
-8.8935 -8.967501 -10.0155 -9.946 -8.643001 -6.9945 -6.864501 -6.907001 -7.7895 -8.9615 -11.172 -8.304001 -6.634501 -4.168 -6.273 -8.3745 -12.4919 -9.509001 -7 
-13.8532 -10.718 -13.291 -11.514 -11.7826 -9.533 -8.196501 -12.0698 -10.6595 -11.9767 -13.586 -8.677 -6.9985 -7.739 -9.5485 -13.5774 -14.9389 -9.509001 
-15.6037 -13.9935 -14.859 -14.6536 -14.3211 -10.761 -13.5449 -14.9398 -13.6747 -14.3907 -13.959 -8.998 -10.7175 -11.5187 -14.8866 -16.0244 -14.9389 
-4.3905 -3.995 -4.237 -2.186 -7.6955 -4.612 -2.186 -2.6165 -4.031 -4.1935 -3.5855 -3.074 -4.237 -12.16972 -4.612 -3.013 -5.651501 -6.8065 0 
-9.3135 -8.308001 -6.133 -11.0919 -12.6419 -6.164 -3.5105 -7.1485 -9.05 -7.7155 -7.3245 -7.752001 -17.63332 -16.78172 -7.984 -8.529501 -12.6085 -6.8065 
-13.9007 -9.7565 -15.7637 -16.0383 -14.1939 -7.6545 -7.6415 -12.6997 -12.7806 -11.9755 -12.2925 -21.55452 -22.24532 -20.15372 -13.3379 -15.7516 -12.8451 
-15.3492 -19.3872 -20.7101 -17.5903 -15.6844 -12.1075 -14.0027 -16.4303 -17.0406 -16.9435 -26.09502 -26.16652 -25.61732 -25.50762 -21.5634 -15.982 
-24.9799 -24.3336 -22.2621 -19.0808 -20.1374 -18.4687 -17.7333 -20.6903 -22.0086 -30.74602 -30.70702 -29.53852 -30.97122 -33.73312 -21.5634 
-2.847 -2.871 -3.5005 -1.4985 -4.6195 -4.288 -2.3335 -5.0065 -2.6165 -5.098 -4.4985 -3.772 -2.186 -2.6165 -1.8085 -6.593 -4.0505 -2.7765 -4.88 -1.4985 -4.4115 -1.7565 -4.237 -5.291 -3.974 0 
-4.4675 -6.89 -4.372 -5.9655 -8.317 -5.001 -7.243501 -7.9245 -8.4385 -9.3175 -10.3285 -6.134501 -3.5105 -4.0345 -8.3745 -11.5747 -6.7995 -7.034501 -6.7815 -4.787 -4.7565 -5.66 -9.5085 -9.609001 -3.974 
-7.4075 -7.4885 -9.128 -9.726 -9.028501 -9.469501 -10.115 -14.2711 -13.1494 -15.1861 -12.691 -7.4935 -4.4335 -11.6053 -13.8598 -14.3237 -11.5391 -9.125001 -10.155 -4.837 -8.203501 -11.5091 -13.8551 -9.609001 
-7.969 -12.5595 -13.0447 -10.3565 -13.689 -12.4652 -16.774 -18.982 -19.018 -17.5486 -14.05 -8.790001 -12.3853 -17.0906 -16.6088 -19.0633 -13.6296 -12.6907 -10.206 -8.255 -14.3514 -15.8557 -13.8551 
-13.2392 -16.4762 -13.6752 -15.017 -16.6847 -19.1242 -21.4849 -24.8506 -21.3805 -18.9076 -15.3465 -16.7514 -17.8706 -19.8396 -21.3484 -21.1538 -17.1953 -12.7417 -13.624 -14.4459 -18.698 -15.8557 
