-4.759 
n/a 
n/a 
n/a 
n/a 
-4.759 
n/a 
n/a 
n/a 
n/a 
-4.759 
n/a 
n/a 
n/a 
n/a 
-4.759 
n/a 
n/a 
n/a 
n/a 
-2.0935 -2.3615 -2.9805 -3.7555 -3.091 -3.0835 -3.4075 -3.9795 
-3.854 -5.7 -5.3095 -5.822001 -4.956 -5.7665 -6.398001 
-7.044 -8.246 -6.5035 -6.918 -7.709 -8.7075 
-9.413 -9.662001 -7.459 -9.0135 -9.745501 
-10.9298 -10.6175 -10.621 -12.0514 
-2.9805 -3.7555 -3.0835 -3.4075 -3.9795 
-5.3095 -7.339 -5.7665 -6.398001 
-8.8885 -10.5618 -8.7075 
-12.2919 -13.5028 
-15.2329 
-2.4265 -4.3155 -3.0835 -3.4075 -3.9795 -1.7695 -3.595 0 
-6.304501 -8.316501 -5.7665 -6.398001 -5.853001 -4.741 -3.595 
-10.038 -11.3837 -8.7075 -8.52 -8.471001 -4.741 
-13.507 -14.3247 -10.1225 -11.4052 -8.471001 
-16.448 -15.7397 -13.4237 -11.4052 
-2.4265 -4.3155 -3.595 -1.8085 -4.208 -3.4075 -3.9795 
-6.304501 -6.108 -5.091001 -6.3435 -7.2205 -6.398001 
-7.969 -7.4315 -9.434001 -9.585501 -10.4035 
-9.3255 -12.1081 -13.0326 -12.8831 
-14.0605 -15.7067 -16.3302 
