-4.759 
n/a 
n/a 
n/a 
n/a 
-4.759 
n/a 
n/a 
n/a 
n/a 
-4.759 
n/a 
n/a 
n/a 
n/a 
-4.759 
n/a 
n/a 
n/a 
n/a 
-2.8965 -3.1575 -2.3615 -2.674 -4.0955 -2.5645 0 0 -4.519 -2.341 0 0 -4.754 -4.0955 -4.7925 0 0 
-4.4055 -5.4355 -6.129 -7.7 -7.336 -2.5645 0 -4.519 -7.506001 -2.341 0 -4.754 -8.717001 -9.061 -3.9945 0 
-6.295 -8.568001 -11.7646 -11.3171 -7.336 -2.5645 -4.519 -7.506001 -7.506001 -2.341 -4.754 -8.717001 -14.1237 -8.98 -3.9945 
-9.942501 -14.3666 -15.3817 -11.3171 -7.336 -7.6415 -7.506001 -7.506001 -7.506001 -7.403501 -8.717001 -14.1237 -14.1237 -8.98 
-15.9389 -17.9837 -15.3817 -11.3171 -12.8528 -9.922501 -7.506001 -7.506001 -12.9387 -12.1225 -14.1237 -14.1237 -14.1237 
-4.1485 -2.3335 -4.0955 0 -2.5645 0 0 0 -12.16972 -2.341 0 0 -6.2715 -4.0955 -4.7925 0 0 
-5.245 -6.835 -4.0955 -2.5645 -2.5645 0 0 -12.16972 -14.51072 -2.341 0 -6.2715 -11.307 -9.061 -3.9945 0 
-10.275 -6.835 -7.336 -2.5645 -2.5645 0 -12.16972 -14.51072 -14.51072 -2.341 -6.2715 -11.307 -16.1915 -8.98 -3.9945 
-10.275 -10.4825 -7.336 -2.5645 -2.5645 -12.16972 -14.51072 -14.51072 -14.51072 -8.81 -11.307 -16.1915 -16.1915 -8.98 
-13.9225 -10.4825 -7.336 -2.5645 -14.95522 -14.51072 -14.51072 -14.51072 -20.97972 -14.0187 -16.1915 -16.1915 -16.1915 
-2.8965 -3.1575 -2.3615 -3.0365 -2.4945 -4.0955 -4.2655 -2.5645 0 0 -5.5265 -2.341 0 0 -5.5635 -4.0955 -4.7925 0 0 
-4.4055 -5.4355 -5.891 -3.688 -6.987 -6.586 -7.2545 -2.5645 0 -5.5265 -8.0695 -2.341 0 -5.5635 -7.416501 -9.061 -3.9945 0 
-6.295 -7.818501 -6.443501 -8.066501 -10.451 -9.8985 -7.2545 -2.5645 -5.5265 -8.0695 -8.0695 -2.341 -5.5635 -7.416501 -11.2695 -8.98 -3.9945 
-8.475 -8.420501 -10.6335 -11.8389 -13.7635 -9.8985 -7.2545 -9.033501 -8.0695 -8.0695 -8.0695 -8.2255 -7.416501 -12.9615 -12.9615 -8.98 
-9.005 -12.6891 -14.4059 -15.1514 -13.7635 -9.8985 -14.1467 -11.6895 -8.0695 -8.0695 -14.466 -10.575 -12.9615 -12.9615 -12.9615 
-4.685 -2.5195 -2.3335 -5.003 -2.4945 -2.5645 0 0 -5.5265 -2.341 0 -6.1195 -5.0275 -4.7925 0 -2.4945 -3.0365 
-5.093 -4.9535 -6.6785 -6.32 -5.936501 -2.5645 0 -5.5265 -8.0695 -2.341 -6.1195 -12.1066 -10.226 -3.9945 -2.4945 -4.952001 
-6.458001 -10.451 -7.430501 -10.371 -5.936501 -2.5645 -5.5265 -8.0695 -8.0695 -9.322001 -12.1066 -16.6651 -9.586 -7.677001 -4.952001 
-12.5167 -11.203 -11.7479 -10.371 -5.936501 -9.033501 -8.0695 -8.0695 -15.5625 -15.3893 -16.6651 -16.6651 -13.8421 -9.932501 
-13.2687 -15.5204 -11.7479 -10.371 -12.9319 -11.6895 -8.0695 -15.5625 -21.6298 -19.9478 -16.6651 -20.9212 -16.0976 
