-4.759 
n/a 
n/a 
n/a 
n/a 
-4.759 
n/a 
n/a 
n/a 
n/a 
-4.759 
n/a 
n/a 
n/a 
n/a 
-4.759 
n/a 
n/a 
n/a 
n/a 
-2.3615 -3.4005 -2.7415 -3.3235 -3.7855 -2.5045 -1.4985 -4.1135 -4.328 -4.4905 -1.7695 -1.4985 -5.585 0 
-6.8695 -6.286 -5.541 -7.043 -5.8665 -3.1915 -5.4345 -5.746 -8.745001 -4.895 -2.7955 -6.5345 -5.585 
-8.816501 -8.9615 -9.512501 -10.523 -6.192501 -7.52 -7.269 -10.4265 -8.814 -5.3335 -7.738501 -6.5345 
-11.5778 -13.1696 -13.1251 -10.849 -10.2695 -9.260501 -12.5041 -10.5265 -9.693001 -9.473001 -7.738501 
-15.7859 -16.7822 -13.4511 -14.926 -12.01 -14.316 -12.6041 -11.4055 -13.9587 -9.473001 
-2.3615 -3.4005 -2.7415 -7.672 -1.934 -4.4265 -4.412 -2.5045 -1.4985 -3.8135 -4.2815 -2.356 -1.4985 -5.585 0 
-6.8695 -6.286 -9.3915 -8.8865 -6.25 -7.111501 -6.7685 -3.1915 -5.432 -8.146501 -5.666 -3.1615 -6.5345 -5.585 
-8.816501 -13.438 -10.4775 -13.3141 -8.6885 -9.122001 -7.374001 -7.135 -9.691501 -9.964001 -6.287001 -8.717501 -6.5345 
-16.0543 -14.524 -14.9051 -15.7526 -10.6605 -9.630501 -11.6923 -11.6693 -11.5574 -10.393 -12.1946 -8.717501 
-17.1403 -18.9516 -17.3436 -17.7246 -11.169 -13.9864 -16.2266 -13.5352 -11.9864 -16.3006 -12.1946 
-3.4005 -2.7415 -4.8555 -3.7855 -1.7695 -1.4985 -3.1385 -1.934 -1.4985 -3.8135 -2.9705 -3.152 -4.4905 -1.7695 -1.4985 -5.585 0 
-6.286 -6.877501 -9.272 -4.793 -2.7955 -4.2575 -4.522 -2.6125 -5.432 -6.418 -5.007 -6.7565 -4.895 -2.7955 -6.5345 -5.585 
-9.7355 -11.4732 -9.886001 -5.356501 -5.4345 -5.28 -5.087501 -6.1115 -7.725501 -7.332 -8.1035 -6.92 -5.3335 -7.738501 -6.5345 
-14.4562 -12.0872 -10.754 -7.725 -6.785 -6.079 -8.720501 -8.5185 -9.050001 -11.2325 -8.3035 -7.2505 -9.473001 -7.738501 
-15.0702 -12.9552 -13.1225 -9.095501 -7.278501 -9.5825 -10.6605 -9.978001 -13.0341 -11.4325 -8.571001 -10.3745 -9.473001 
-4.39 -1.7565 -3.8135 -1.756 -5.585 -2.7415 -4.7075 -4.4265 -3.4005 -1.756 -4.9835 0 
-4.681 -5.534 -4.976501 -6.84 -8.316 -6.324 -8.314501 -7.1035 -4.503 -6.4815 -4.9835 
-9.261001 -6.416 -8.8645 -9.659 -12.0377 -9.8785 -11.3027 -7.859 -9.1525 -6.4815 
-9.976001 -10.504 -11.8855 -13.3971 -15.5922 -12.9319 -12.0582 -12.7297 -9.1525 
-14.17 -13.525 -15.6236 -16.9516 -18.6456 -13.6874 -16.9289 -12.7297 
