-4.759 
n/a 
n/a 
n/a 
n/a 
-4.759 
n/a 
n/a 
n/a 
n/a 
-4.759 
n/a 
n/a 
n/a 
n/a 
-4.759 
n/a 
n/a 
n/a 
n/a 
-12.16972 -3.9725 -6.4055 0 -3.941 -4.7115 0 
-16.14222 -9.973001 -6.4055 -3.941 -7.7965 -4.7115 
-22.14272 -9.973001 -10.5755 -7.7965 -7.7965 
-22.14272 -14.4624 -14.431 -7.7965 
-26.63212 -18.3179 -14.431 
-3.3635 0 -8.241 -5.847 -11.0965 0 -3.6675 -3.251 -4.7115 0 
-3.3635 -8.241 -8.983 -13.834 -8.387501 -3.6675 -6.282001 -8.526 -4.7115 
-10.3475 -8.983 -14.5705 -13.006 -12.7875 -6.282001 -9.042001 -8.526 
-10.3715 -10.484 -10.484 -15.4401 -15.8209 -9.042001 -9.042001 
-11.3177 -9.885 -15.3443 -18.7816 -19.1479 -9.042001 
-3.3635 0 -7.644001 -5.847 -10.6035 0 -3.941 -4.7115 0 
-3.3635 -7.644001 -14.1274 -13.245 -7.7985 -3.941 -7.7965 -4.7115 
-11.6015 -14.1274 -22.2844 -14.004 -15.3354 -7.7965 -7.7965 
-18.0849 -23.2044 -23.2044 -20.9568 -19.4283 -7.7965 
-27.1619 -23.2044 -29.2372 -24.9513 -19.4283 
-3.3635 0 -8.241 -5.847 -6.4055 0 -5.08 -4.7115 0 
-3.3635 -8.241 -8.983 -9.138 -6.4055 -5.08 -7.349501 -4.7115 
-10.3475 -8.983 -9.1685 -9.138 -12.4225 -7.349501 -7.349501 
-10.3715 -9.1685 -9.1685 -15.3614 -14.692 -7.349501 
-10.535 -9.1685 -15.4063 -17.6309 -14.692 
