-4.759 
n/a 
n/a 
n/a 
n/a 
-4.759 
n/a 
n/a 
n/a 
n/a 
-4.759 
n/a 
n/a 
n/a 
n/a 
-4.759 
n/a 
n/a 
n/a 
n/a 
-2.3335 -3.1335 -3.2615 -2.3335 -3.428 -3.508 -3.647 -2.8645 -3.1125 -4.8085 0 
-5.9635 -6.2585 -5.0495 -7.665 -5.8215 -8.426001 -5.764 -3.5345 -6.252501 -4.8085 
-8.929501 -8.1495 -9.8295 -10.3791 -11.6823 -10.1995 -7.083 -6.673 -6.252501 
-10.396 -13.2921 -12.5436 -16.2399 -13.4558 -11.5185 -10.8697 -6.673 
-15.755 -16.0062 -18.4044 -18.0134 -14.7748 -15.3052 -10.8697 
-2.3615 -3.1335 -3.2615 -3.428 -1.934 -3.508 -3.647 -3.3035 -4.0875 -3.2295 -2.4265 
-4.7915 -6.2585 -7.375 -5.735001 -5.049 -8.426001 -7.416 -6.9985 -5.602 -5.3715 
-8.217 -10.0445 -8.9335 -8.3265 -8.665501 -12.5628 -12.164 -7.8935 -7.9625 
-12.2972 -11.603 -11.8092 -12.6004 -12.9943 -17.3108 -13.059 -10.3965 
-13.8557 -14.4787 -16.0831 -16.9292 -17.7423 -18.2058 -15.562 
-2.3615 -3.1335 -3.2615 -3.428 -3.508 -3.429 -2.0935 -3.647 -4.5675 0 
-4.7915 -6.2585 -7.375 -5.8215 -8.611501 -5.7075 -5.713 -9.938001 -4.5675 
-8.217 -10.0445 -10.1531 -11.8678 -11.2238 -8.776 -12.8034 -9.938001 
-12.2972 -12.8226 -16.1994 -14.4801 -14.2923 -16.8656 -12.8034 
-15.0753 -18.8689 -18.8117 -17.5486 -22.3819 -16.8656 
-2.3615 -3.1335 -2.7415 -3.882 -4.7005 -2.3345 -3.647 -3.3035 -1.934 -8.736 -3.428 0 
-4.7915 -5.679 -5.7495 -7.4175 -5.6035 -4.874001 -7.416 -5.076 -9.89 -10.634 -3.428 
-7.3565 -9.1285 -7.8805 -7.611 -7.6725 -9.514501 -10.0855 -13.8352 -11.788 -10.634 
-9.986 -11.3943 -7.9045 -9.767 -12.9818 -12.088 -18.9655 -15.7332 -11.788 
-12.3196 -11.4183 -9.896001 -15.2505 -15.5553 -20.968 -20.8635 -15.7332 
