-4.759 
n/a 
n/a 
n/a 
n/a 
-4.759 
n/a 
n/a 
n/a 
n/a 
-4.759 
n/a 
n/a 
n/a 
n/a 
-4.759 
n/a 
n/a 
n/a 
n/a 
-3.849 -4.1145 -4.1005 -2.4945 -6.3835 0 -4.1065 -2.5045 -4.5675 0 
-8.359 -8.3475 -5.9665 -8.104 -6.3835 -4.1065 -5.875 -7.976501 -4.5675 
-13.4208 -9.780001 -12.1042 -8.104 -10.223 -5.875 -11.8496 -7.976501 
-14.8533 -16.1857 -12.1042 -12.2911 -12.1569 -11.8496 -11.8496 
-21.259 -16.1857 -16.2913 -14.225 -18.1315 -11.8496 
-3.3715 -4.1145 -3.64 -2.4945 -4.005 -2.3345 -3.672 -5.147 -3.7495 0 
-8.289001 -5.99 -5.508 -5.433001 -5.1035 -5.8345 -9.943001 -10.1035 -3.7495 
-9.017 -8.0205 -8.8275 -6.394001 -7.9415 -12.9441 -14.8641 -10.1035 
-10.5975 -11.7554 -9.241 -8.973001 -15.6827 -17.8652 -14.8641 
-14.3324 -12.1689 -12.5214 -16.8738 -20.6038 -17.8652 
-3.3715 -4.1145 -2.229 -3.8475 -1.7695 -7.0185 -5.1215 0 
-8.289001 -6.818501 -6.0645 -5.8985 -8.715 -12.6724 -5.1215 
-9.642 -11.344 -8.141001 -13.5568 -14.6699 -12.6724 
-14.2021 -13.4205 -15.9365 -19.5117 -14.6699 
-16.2786 -21.216 -21.8914 -19.5117 
-3.3715 -4.1145 -5.0075 -1.7695 -3.672 0 -4.1065 -2.0935 -1.4985 -6.327 0 
-8.289001 -9.731001 -5.113 -5.625 -3.672 -4.1065 -5.2945 -2.9725 -6.935 -6.327 
-14.5427 -9.775001 -8.8815 -5.625 -8.5705 -5.2945 -6.122 -8.467 -6.935 
-14.5867 -13.6277 -8.8815 -10.322 -10.1265 -6.122 -11.7981 -8.467 
-18.4394 -13.6277 -13.7911 -11.878 -10.954 -11.7981 -11.7981 
