-4.759 
n/a 
n/a 
n/a 
n/a 
-4.759 
n/a 
n/a 
n/a 
n/a 
-4.759 
n/a 
n/a 
n/a 
n/a 
-4.759 
n/a 
n/a 
n/a 
n/a 
-4.426 -1.7565 -1.4985 -3.6115 -4.7285 -4.1555 -3.147 -7.028501 -3.3975 
-5.47 -2.4195 -4.081 -6.5495 -8.4455 -5.77 -11.0237 -10.061 
-5.9535 -5.180501 -6.670501 -9.978001 -9.541501 -13.7877 -14.0562 
-8.462501 -7.797 -10.054 -11.0524 -17.5592 -16.8202 
-10.2375 -11.2985 -11.1648 -19.0701 -20.5917 
-12.16972 0 -4.624 -3.3975 0 
-12.16972 -4.624 -9.0235 -3.3975 
-16.79372 -9.0235 -9.0235 
-21.19322 -9.0235 
-21.19322 
-4.624 -3.3975 
-9.0235 
n/a 
n/a 
n/a 
-12.16972 0 -4.624 -3.3975 0 
-12.16972 -4.624 -9.0235 -3.3975 
-16.79372 -9.0235 -9.0235 
-21.19322 -9.0235 
-21.19322 
