-4.759 
n/a 
n/a 
n/a 
n/a 
-4.759 
n/a 
n/a 
n/a 
n/a 
-4.759 
n/a 
n/a 
n/a 
n/a 
-4.759 
n/a 
n/a 
n/a 
n/a 
-1.4985 -6.6115 -4.36 -3.8405 -2.7415 -4.434 -2.3345 -7.7545 -4.0965 -1.756 -10.2885 -3.0695 -3.152 -5.1035 -3.325 -1.4985 -3.926 -4.8035 -1.7565 -1.4985 -7.7545 -4.0965 -4.0875 -1.4985 -4.1495 -1.934 -5.5545 0 
-7.432501 -10.586 -7.8435 -6.0775 -6.920501 -6.6145 -10.1345 -9.578 -5.706 -13.0531 -13.4268 -4.8015 -7.597 -7.538501 -3.898 -5.1875 -8.6385 -6.1915 -2.4195 -8.348001 -9.578 -8.531 -5.0195 -5.454 -5.960001 -7.755 -5.5545 
-11.6434 -14.0695 -9.828501 -9.494 -7.689001 -14.9623 -11.958 -11.2623 -18.0349 -16.1914 -15.1588 -9.0185 -9.745501 -7.957001 -6.517 -9.3985 -9.088 -7.005 -8.750501 -9.769 -14.0873 -9.338 -8.650001 -7.008 -12.3782 -7.755 
-15.1269 -16.0545 -13.2732 -10.178 -16.3966 -16.7858 -13.6423 -23.5912 -21.1732 -17.9234 -19.3758 -11.726 -10.1255 -9.6885 -9.494 -9.4545 -9.632501 -13.7922 -10.131 -14.3107 -14.8943 -13.0865 -10.218 -13.7476 -12.3782 
-17.1119 -19.4992 -13.9572 -18.9902 -18.2201 -18.4701 -25.9712 -26.7295 -22.9052 -22.1404 -22.0833 -12.106 -11.857 -13.1685 -9.499001 -10.2155 -16.6215 -15.1727 -14.6727 -15.1177 -18.6428 -14.6545 -16.9576 -13.7476 
-1.934 -5.5545 0 -1.4985 -4.36 -3.8405 -1.7565 -6.6115 -4.0555 -1.7695 -2.664 -3.498 -2.3345 -7.6 -4.0965 -1.756 -1.4985 -10.2885 -3.0695 -3.152 -3.325 -1.4985 -3.926 -4.8035 -1.7565 -7.7545 -4.6825 0 -4.0325 -2.264 -1.4985 -3.519 0 
-7.755 -5.5545 -1.4985 -5.1445 -7.8435 -4.563 -8.276 -9.9755 -4.7475 -4.185 -5.1155 -6.239 -10.028 -9.345 -5.706 -3.0405 -10.985 -13.4268 -4.8015 -6.104 -3.898 -5.1875 -8.6385 -6.1915 -8.559 -8.253 -4.6825 -4.0325 -5.960001 -2.9195 -4.426001 -3.519 
-7.755 -7.938 -5.1445 -8.361 -8.330501 -12.2437 -11.876 -10.366 -6.349 -5.6315 -7.466001 -14.3801 -11.773 -10.565 -6.4995 -12.7368 -14.1233 -15.1588 -7.3625 -6.6895 -6.517 -9.3985 -9.088 -13.697 -9.415001 -8.253 -9.208 -5.960001 -6.277 -6.1165 -4.426001 
-8.733 -11.718 -8.361 -8.633 -16.1204 -15.8437 -12.2665 -11.9675 -6.4995 -7.537001 -15.8707 -16.1251 -12.993 -11.3585 -17.004 -15.8751 -15.8553 -17.7198 -7.8465 -8.708 -9.494 -9.4545 -17.0387 -14.553 -9.415001 -13.1397 -10.7345 -6.277 -10.553 -6.1165 
-12.643 -14.9345 -8.633 -16.4937 -19.7204 -16.2342 -13.868 -12.118 -8.735001 -15.9547 -17.6157 -17.3451 -13.7865 -21.863 -20.1423 -17.6071 -18.4163 -18.2038 -10.057 -11.8606 -9.499001 -17.892 -17.8947 -14.553 -14.3453 -14.6662 -11.0515 -10.553 -10.553 
-1.4985 -3.8315 -8.194 -5.2875 -1.7565 -1.4985 -6.933001 -4.245 -5.7 -3.222 -6.114501 -3.893 -1.4985 -5.0515 -1.7565 -1.4985 -9.070001 -1.4985 -5.2875 -5.857 -3.325 -9.985001 -1.934 -1.4985 -3.8315 -4.642 -4.153 0 -5.0545 -1.4985 -9.070001 -2.9905 -1.7565 -1.4985 -5.1845 -3.59 -1.756 -5.1605 -2.5195 -6.3215 
-4.604 -9.855 -9.5605 -6.936501 -2.4195 -8.120501 -8.585001 -10.3965 -7.1245 -7.1 -9.656501 -4.573 -5.901 -5.5125 -2.4195 -9.5135 -10.186 -6.782001 -10.151 -8.3065 -10.8415 -10.598 -2.6125 -4.604 -7.791501 -6.7015 -4.153 -5.0545 -6.0875 -9.5135 -10.932 -3.6185 -2.4195 -6.5205 -8.539001 -5.017 -6.781 -7.394 -8.212 
-10.361 -10.6505 -10.762 -7.7305 -8.875501 -9.355 -14.9671 -11.821 -8.0555 -10.485 -10.098 -9.1085 -6.2035 -6.290501 -10.089 -10.2825 -15.4695 -10.749 -12.6955 -16.09 -11.4545 -10.654 -5.003 -8.598001 -8.137001 -6.7015 -9.302 -6.0875 -14.5245 -11.4783 -11.56 -4.3385 -7.2335 -8.769501 -9.769 -9.626 -8.644 -10.5225 
-10.6585 -11.852 -11.556 -14.5407 -10.2185 -15.7893 -16.3916 -12.752 -11.5831 -10.9265 -14.6335 -9.249001 -7.092 -10.733 -10.474 -15.566 -19.4365 -13.2935 -20.479 -16.703 -11.5105 -13.0445 -8.805 -8.6415 -8.137001 -12.5741 -9.973001 -14.5245 -16.4893 -12.1063 -12.28 -9.777 -9.320001 -9.946001 -14.4062 -11.7044 -11.9239 
-11.86 -12.646 -18.3662 -15.8837 -16.6528 -17.2138 -17.3226 -16.2796 -12.0246 -15.462 -14.774 -9.7515 -10.733 -11.118 -15.7575 -19.533 -21.981 -21.077 -21.092 -16.759 -13.901 -16.8465 -8.847 -8.6415 -14.2676 -13.2451 -18.41 -16.4893 -17.1173 -12.8263 -17.7185 -11.9213 -10.3485 -14.5872 -16.4846 -14.9843 
-1.4985 -5.6295 -2.229 -4.36 -3.7515 -2.7415 -4.4195 -2.3345 -1.4985 -7.6 -4.6825 -1.934 -5.5545 -1.756 -1.4985 -10.128 -3.0695 -6.3235 -3.325 -1.4985 -3.926 -3.9555 -1.7565 -7.6 -4.005 -1.4985 -5.4195 0 
-6.403 -6.8015 -5.962501 -5.7925 -6.2555 -5.981501 -6.2285 -3.233 -8.3765 -8.493501 -6.343501 -7.755 -7.871 -3.0405 -10.396 -13.2831 -8.264001 -8.330501 -3.898 -5.1875 -7.814 -5.097 -8.364 -12.2844 -5.536 -5.807 -5.4195 
-7.049 -10.1225 -7.0185 -8.1835 -10.051 -7.132501 -6.8665 -9.524 -8.7285 -9.627501 -10.4345 -8.8585 -9.0175 -12.1478 -13.5511 -18.4776 -10.1595 -8.6405 -6.517 -8.394 -8.151501 -12.4561 -13.356 -13.8154 -8.8415 -5.807 
-10.494 -11.6241 -9.056001 -12.3262 -11.4822 -7.696001 -13.4665 -10.469 -9.750501 -13.8555 -11.538 -9.882501 -18.1934 -15.3029 -18.7456 -20.3731 -10.3175 -10.4345 -8.802 -8.484 -15.7376 -17.4481 -14.887 -17.1209 -8.8415 
-12.2078 -13.6616 -13.2867 -13.7574 -12.0457 -14.446 -14.4115 -11.491 -14.0551 -14.959 -12.562 -19.1744 -21.3485 -20.4974 -20.6411 -20.5311 -12.1115 -12.7195 -8.815001 -16.2683 -20.7296 -18.9791 -18.1925 -17.1209 
