-4.759 
n/a 
n/a 
n/a 
n/a 
-4.759 
n/a 
n/a 
n/a 
n/a 
-4.759 
n/a 
n/a 
n/a 
n/a 
-4.759 
n/a 
n/a 
n/a 
n/a 
-4.539 -6.818 -12.16972 0 -10.5675 0 
-10.4675 -19.45452 -12.16972 -10.5675 -10.5675 
-23.10402 -19.45452 -22.73722 -10.5675 
-23.10402 -30.02202 -22.73722 
-33.67152 -30.02202 
-4.539 0 -6.818 -8.4075 0 -5.7865 0 
-4.539 -6.818 -15.6923 -8.4075 -5.7865 -5.7865 
-10.4675 -15.6923 -15.6923 -14.8912 -5.7865 
-19.3418 -15.6923 -22.176 -14.8912 
-19.3418 -22.176 -22.176 
-4.539 0 -12.16972 -7.1985 0 -5.7865 0 
-4.539 -12.16972 -19.36822 -7.1985 -5.7865 -5.7865 
-17.09732 -19.36822 -19.36822 -14.0502 -5.7865 
-24.29582 -19.36822 -26.21992 -14.0502 
-24.29582 -26.21992 -26.21992 
-4.539 0 -6.818 -7.1985 0 -5.7865 0 
-4.539 -6.818 -14.4833 -7.1985 -5.7865 -5.7865 
-10.4675 -14.4833 -14.4833 -14.0502 -5.7865 
-18.1328 -14.4833 -21.335 -14.0502 
-18.1328 -21.335 -21.335 
