-4.759 
n/a 
n/a 
n/a 
n/a 
-4.759 
n/a 
n/a 
n/a 
n/a 
-4.759 
n/a 
n/a 
n/a 
n/a 
-4.759 
n/a 
n/a 
n/a 
n/a 
-4.1485 -2.8195 -3.8245 -4.587 0 -3.135 -8.360001 -3.893 -1.7565 -4.6385 -4.587 -3.152 -4.0225 -3.6055 -3.158 -2.5195 -3.948 -3.9035 -1.7565 -3.188 -1.7695 -4.2765 -4.2875 -1.934 -2.985 -3.959 0 
-8.151 -5.6645 -7.995 -4.587 -3.135 -12.726 -9.972501 -4.1785 -6.153 -8.473001 -6.568501 -6.166 -7.594 -5.061 -5.471001 -5.454 -6.1125 -4.616 -5.13 -5.2365 -4.5005 -8.045 -6.337 -4.111 -6.287 -3.959 
-11.3716 -9.6595 -7.995 -7.652501 -12.726 -14.3385 -10.0455 -8.5185 -10.0155 -10.6475 -9.2945 -8.9785 -8.5845 -6.884501 -8.729501 -7.151 -6.1715 -8.063001 -8.2325 -8.2885 -8.393001 -10.6245 -8.425 -6.7625 -6.287 
-15.3666 -9.6595 -10.1505 -17.5499 -14.3385 -14.4115 -14.3855 -12.7748 -12.19 -13.3735 -12.306 -10.1896 -10.2045 -9.774 -10.1945 -7.163 -9.2435 -9.8295 -11.5115 -12.3956 -11.1265 -12.7125 -11.3057 -6.7625 
-15.3666 -13.8798 -21.0125 -19.1624 -14.4115 -18.7515 -18.6418 -14.9493 -14.916 -16.385 -13.5171 -11.8096 -13.094 -10.7605 -10.202 -9.7115 -11.19 -13.1085 -15.6186 -15.1291 -13.2145 -15.5932 -11.3057 
-4.685 -2.5195 -1.4985 -4.587 -2.3335 -3.511 -3.147 0 -3.776 -3.264 -1.7565 -5.376 -4.587 -2.3335 -3.6955 -2.5195 -1.4985 -3.5455 -4.918 -1.7695 -8.877001 -2.985 -4.152 -3.852 -3.6955 -1.7695 -6.6585 0 
-5.093 -3.1695 -5.585 -6.477 -6.047501 -5.9685 -3.147 -3.776 -6.537001 -3.6125 -6.4665 -7.6975 -6.477 -5.4835 -4.843 -3.1695 -4.554 -5.943501 -6.699 -9.0295 -12.2604 -6.863501 -6.307501 -7.452001 -4.4705 -8.6355 -6.6585 
-5.585001 -7.5715 -7.325 -8.121501 -7.585501 -5.9685 -8.1075 -6.537001 -6.754001 -7.8475 -8.514 -9.241 -8.439001 -6.3305 -5.604 -5.8305 -6.3085 -7.599 -14.5574 -12.5129 -16.1389 -8.414001 -9.5165 -8.111501 -10.341 -8.6355 
-9.5965 -9.3795 -8.852501 -9.439501 -7.585501 -11.3088 -11.1017 -6.754001 -11.4272 -9.8275 -10.134 -10.6225 -9.666 -7.057 -7.9175 -7.3815 -7.6715 -16.0058 -18.0408 -16.3914 -17.6894 -12.2362 -10.3496 -14.8188 -10.341 
-11.5805 -10.9288 -10.1265 -9.439501 -13.2678 -14.303 -11.3187 -11.4272 -13.4072 -11.6461 -11.5155 -11.8495 -10.7045 -9.281501 -9.753 -8.097 -16.1383 -19.4892 -21.9193 -17.9419 -21.5116 -13.0693 -17.0569 -14.8188 
-4.685 -2.5195 -1.4985 -4.587 -3.8245 -3.147 -1.8085 -4.076 -3.893 -1.7565 -5.4675 -4.4575 -4.178 -4.44 -1.7695 -6.6585 -1.7695 -4.644 -2.5195 -2.985 -4.1695 -5.2425 -1.7565 -4.142 -4.918 -3.5455 -4.152 -3.852 0 
-5.093 -3.1695 -5.585 -7.9925 -6.1295 -5.4375 -4.7005 -5.9395 -4.1785 -6.759501 -8.368 -6.2795 -8.5275 -5.8835 -8.6355 -9.160501 -5.409 -5.5865 -4.751 -8.219501 -7.949 -6.1635 -5.4835 -8.323501 -8.026501 -6.305 -6.307501 -3.852 
-5.585001 -7.5715 -9.1595 -9.8585 -8.3795 -8.668 -5.995 -5.979001 -10.147 -9.5345 -9.1195 -9.896501 -10.1075 -13.4079 -10.1465 -12.895 -6.319 -7.5105 -9.5365 -9.168 -9.180501 -10.647 -10.4425 -10.6215 -9.9615 -8.135 -6.307501 
-9.5965 -11.49 -10.688 -12.2001 -11.9362 -10.0815 -6.031 -12.2997 -12.922 -9.903001 -12.7681 -11.5255 -17.8887 -14.9189 -13.881 -13.805 -7.846 -12.6654 -9.997001 -10.5739 -14.0194 -15.606 -12.7405 -12.5565 -11.7915 -8.135 
-13.691 -13.0185 -13.0296 -15.7568 -13.3497 -10.117 -12.3807 -15.0747 -13.2905 -13.5516 -14.3971 -19.3067 -19.3997 -18.6534 -14.791 -15.332 -13.1053 -13.1259 -11.4795 -15.4128 -18.9784 -17.904 -14.6755 -14.3865 -11.7915 
-4.685 -2.5195 -3.45 -4.587 -3.8245 -3.147 0 -5.091 -4.0145 -1.7565 -4.587 -2.4945 -5.743001 -2.3335 -3.6955 -2.5195 -3.5455 -4.918 -4.418 -2.3335 -3.6955 -1.7695 -4.628 -4.743 -1.7695 -4.241 -3.277 -2.5195 -4.152 -3.852 0 
-5.093 -5.1315 -7.3715 -7.9925 -6.1295 -3.147 -5.091 -8.476501 -5.004 -5.7435 -6.225 -7.8145 -9.683001 -5.4835 -4.843 -5.71 -5.943501 -8.900001 -6.3715 -5.4835 -4.4705 -6.618001 -4.7515 -7.046 -4.518 -6.061 -5.134501 -6.0805 -6.307501 -3.852 
-7.0695 -9.492001 -10.4265 -9.8585 -6.1295 -8.7075 -8.476501 -9.3475 -7.658 -7.606 -9.1675 -10.564 -12.9554 -6.3305 -8.0895 -8.186001 -9.557 -10.9647 -9.777 -6.4205 -8.842 -6.7625 -7.0655 -9.551001 -6.266 -6.4805 -9.253 -9.583 -6.307501 
-11.742 -12.7336 -12.4685 -9.8585 -12.2978 -12.313 -9.3475 -12.0617 -9.035501 -10.7025 -12.0864 -13.8364 -13.8024 -9.915 -10.9013 -12.2665 -12.0321 -14.3702 -10.5555 -11.373 -8.879 -8.145 -9.5705 -11.5062 -6.6835 -9.519 -13.0873 -9.583 
-14.9836 -14.7756 -12.4685 -16.1184 -15.9033 -13.184 -12.0617 -13.4392 -12.249 -13.6214 -15.3588 -14.6834 -17.3869 -12.6504 -14.9818 -14.7416 -15.4376 -15.1487 -15.508 -11.41 -9.816501 -10.8726 -11.5305 -11.9237 -9.615001 -13.3825 -13.0873 
