-4.759 
n/a 
n/a 
n/a 
n/a 
-4.759 
n/a 
n/a 
n/a 
n/a 
-4.759 
n/a 
n/a 
n/a 
n/a 
-4.759 
n/a 
n/a 
n/a 
n/a 
-12.224 -5.311 -3.3195 -3.335 0 -3.225 0 
-15.8926 -9.4335 -6.5465 -3.335 -3.225 -3.225 
-19.423 -12.8039 -6.5465 -6.924001 -3.225 
-22.932 -12.8039 -9.6385 -6.924001 
-22.932 -15.8959 -9.6385 
-4.8835 -5.7305 -2.229 -4.405 -4.179 -1.934 -5.311 0 -3.225 0 
-8.217 -6.827 -6.221 -7.645 -5.607501 -6.1935 -5.311 -3.225 -3.225 
-8.035501 -9.518001 -9.56 -8.694501 -9.274 -6.1935 -8.849501 -3.225 
-10.3585 -13.5154 -10.8769 -12.5142 -9.274 -10.1765 -8.849501 
-14.6124 -14.8323 -14.6966 -12.5142 -13.5406 -10.1765 
-12.224 -5.311 -3.3195 -4.2675 0 -3.225 0 
-15.8926 -9.4335 -7.5105 -4.2675 -3.225 -3.225 
-19.423 -13.7679 -7.5105 -7.533501 -3.225 
-23.896 -13.7679 -11.0815 -7.533501 
-23.896 -17.3389 -11.0815 
-10.614 -2.229 -8.868501 -3.3195 -3.7455 0 -3.225 0 
-9.3135 -11.6925 -12.524 -8.234 -3.7455 -3.225 -3.225 
-18.3614 -15.348 -17.4385 -8.234 -8.051001 -3.225 
-22.6206 -20.2625 -17.4385 -12.8835 -8.051001 
-27.5743 -20.2625 -22.088 -12.8835 
