-4.759 
n/a 
n/a 
n/a 
n/a 
-4.759 
n/a 
n/a 
n/a 
n/a 
-4.759 
n/a 
n/a 
n/a 
n/a 
-4.759 
n/a 
n/a 
n/a 
n/a 
-2.871 -4.4595 -2.871 -3.8445 -8.803 -4.832 -5.4285 
-7.456 -7.4705 -6.932 -13.8205 -13.871 -9.070001 
-9.314 -9.142501 -17.4784 -18.8885 -18.109 
-11.0944 -20.0071 -22.5464 -23.1265 
-21.959 -25.0751 -26.7844 
-5.0275 -8.803 0 -4.832 -6.132 
-14.5761 -8.803 -4.832 -10.766 
-14.5761 -13.871 -10.766 
-19.6441 -19.805 
-25.5781 
-5.0275 -4.628 -7.1155 -1.756 -12.16972 -6.132 
-10.4115 -10.688 -8.59 -14.93432 -18.30172 
-16.4715 -12.1625 -22.01312 -21.06632 
-17.946 -25.58562 -28.14512 
-31.36912 -31.71762 
-5.0275 
n/a 
n/a 
n/a 
n/a 
