-4.759 
n/a 
n/a 
n/a 
n/a 
-4.759 
n/a 
n/a 
n/a 
n/a 
-4.759 
n/a 
n/a 
n/a 
n/a 
-4.759 
n/a 
n/a 
n/a 
n/a 
-5.1845 -3.432 -3.4605 -2.186 -2.0935 -4.628 -5.939 -4.31 0 
-7.6925 -6.322001 -4.916 -4.4495 -6.9575 -5.9615 -10.2335 -4.31 
-10.66 -8.505 -6.484 -9.7005 -7.857501 -10.3405 -10.2335 
-12.843 -10.564 -12.8246 -10.7207 -12.5875 -10.3405 
-14.902 -16.9046 -13.8448 -15.4507 -12.5875 
-6.694 -3.4605 -2.186 -2.0935 -6.6585 -4.31 0 
-9.151 -4.916 -4.4495 -9.232 -11.7271 -4.31 
-10.8697 -6.484 -12.113 -14.4022 -11.7271 
-12.4377 -15.2371 -17.2832 -14.4022 
-21.1908 -20.4073 -17.2832 
-6.694 -3.4605 -2.0935 -6.899 -3.2945 -2.229 
-9.151 -5.0435 -8.9865 -11.2039 -4.7125 
-10.9972 -12.5255 -13.3708 -12.6219 
-18.4792 -16.9098 -14.7888 
-22.8635 -18.3278 
-6.694 -11.0905 -9.4215 -12.16972 0 
-19.4317 -20.512 -21.76602 -12.16972 
-28.8532 -32.85652 -21.76602 
-41.19772 -32.85652 
-41.19772 
