-4.759 
n/a 
n/a 
n/a 
n/a 
-4.759 
n/a 
n/a 
n/a 
n/a 
-4.759 
n/a 
n/a 
n/a 
n/a 
-4.759 
n/a 
n/a 
n/a 
n/a 
-2.9805 -4.101 -4.051 -3.6115 -2.95 -2.5195 -3.488 -5.238 -1.7695 -3.5195 -4.8065 0 
-5.2985 -9.890001 -8.0005 -5.347 -5.489 -5.609 -7.799001 -7.383 -5.6925 -7.717 -4.8065 
-11.4143 -13.8395 -11.114 -7.893001 -8.3485 -10.007 -9.6155 -9.959001 -9.7185 -7.717 
-15.3638 -16.953 -13.66 -10.0885 -12.8225 -10.2135 -10.761 -10.6785 -9.7185 
-18.4773 -19.499 -15.8555 -14.8551 -13.029 -11.4768 -11.4805 -10.6785 
-2.5195 -5.238 -1.7695 -3.5195 -4.8065 0 -2.9805 -4.101 -2.264 -3.091 -3.6115 -4.171 -4.6835 0 
-7.534 -7.383 -5.6925 -7.717 -4.8065 -2.9805 -5.2985 -5.091001 -4.534 -5.5775 -6.929 -7.0985 -4.6835 
-7.943 -9.959001 -9.7185 -7.717 -7.410001 -5.2985 -6.0275 -7.263 -6.932 -7.8885 -9.278501 -7.0985 
-11.4866 -10.6785 -9.7185 -9.598001 -9.3015 -6.0275 -7.783 -9.709001 -8.528001 -9.910501 -9.278501 
-12.2061 -10.6785 -11.5995 -11.5985 -10.234 -7.783 -10.3155 -10.752 -10.381 -9.910501 
-2.9805 -5.7505 -4.051 -3.925 -3.6115 -2.95 -2.5195 -3.488 -5.238 -1.7695 -3.5195 -4.8065 
-7.015501 -9.943001 -7.8855 -7.9715 -5.347 -5.489 -5.609 -7.799001 -7.383 -5.6925 -7.717 
-11.7574 -14.2173 -12.4084 -10.1345 -7.893001 -8.3485 -10.007 -9.6155 -9.959001 -9.7185 
-16.0317 -18.7402 -14.5714 -12.6805 -10.0885 -12.8225 -10.2135 -10.761 -10.6785 
-20.5546 -20.9032 -17.1174 -14.876 -14.8551 -13.029 -11.4768 -11.4805 
-2.3345 -3.6115 -2.95 
-6.5185 -5.347 
-8.975 
n/a 
n/a 
