-4.759 
n/a 
n/a 
n/a 
n/a 
-4.759 
n/a 
n/a 
n/a 
n/a 
-4.759 
n/a 
n/a 
n/a 
n/a 
-4.759 
n/a 
n/a 
n/a 
n/a 
0 -7.897 0 -3.757 -3.7805 -2.4285 -4.8625 
-7.897 -7.897 -3.757 -7.8135 -6.1055 -7.389501 
-7.897 -12.147 -7.8135 -9.332001 -8.93 
-12.147 -16.2035 -9.332001 -10.46 
-16.2035 -17.722 -10.46 
-2.186 0 -7.897 0 -3.757 -3.7805 0 -4.8625 
-2.186 -7.897 -7.897 -3.757 -7.8135 -3.7805 -4.8625 
-10.985 -7.897 -12.147 -7.8135 -7.8135 -7.221001 
-10.985 -12.147 -16.2035 -7.8135 -11.5822 
-15.235 -16.2035 -16.2035 -11.5822 
-7.897 0 -3.757 -4.591 0 -3.7805 0 
-7.897 -3.757 -8.4175 -4.591 -3.7805 -3.7805 
-12.147 -8.4175 -8.4175 -6.287 -3.7805 
-16.8075 -8.4175 -9.8335 -6.287 
-16.8075 -9.8335 -9.8335 
-7.897 0 -3.757 -3.7805 0 -4.8625 0 
-7.897 -3.757 -7.8135 -3.7805 -4.8625 -4.8625 
-12.147 -7.8135 -7.8135 -7.221001 -4.8625 
-16.2035 -7.8135 -11.5822 -7.221001 
-16.2035 -11.5822 -11.5822 
