-4.759 
n/a 
n/a 
n/a 
n/a 
-4.759 
n/a 
n/a 
n/a 
n/a 
-4.759 
n/a 
n/a 
n/a 
n/a 
-4.759 
n/a 
n/a 
n/a 
n/a 
-2.925 -2.4945 -3.43 -3.115 -1.4985 -4.3125 -3.962 -1.934 -1.4985 -4.832 -5.62 -2.9705 -2.186 -3.2955 -1.7695 -3.5395 -1.4985 -5.1255 -2.0935 -1.4985 -4.6025 0 
-3.7675 -4.758 -6.9605 -4.2305 -4.9725 -7.955 -4.8165 -2.6125 -5.706 -8.09 -7.711 -3.89 -4.348001 -3.9425 -4.7845 -4.8575 -6.221001 -7.1885 -2.9725 -5.9125 -4.6025 
-6.0895 -8.231001 -7.983 -6.340001 -8.171 -8.385 -5.392 -6.5915 -8.9315 -10.275 -8.306001 -5.7615 -4.837 -6.5305 -5.7725 -9.571 -8.301001 -8.0825 -7.658501 -5.9125 
-9.209001 -9.2425 -9.747001 -8.6695 -8.550501 -8.844 -9.5525 -10.7186 -11.3939 -10.87 -10.3815 -6.2085 -7.891 -7.447 -10.2035 -11.815 -9.090501 -13.1025 -7.658501 
-10.115 -11.0305 -12.1063 -9.080001 -8.9975 -13.0929 -13.8028 -13.181 -11.9889 -12.9455 -10.8285 -9.2965 -8.4905 -11.982 -12.6269 -12.6045 -14.1941 -13.1025 
-3.1495 -4.1835 -3.8825 -1.7695 -1.4985 -4.1955 -8.157001 0 -2.9705 -2.4945 -4.834 -1.934 -6.0835 0 -1.7695 -4.5915 -3.1385 -2.0935 -4.6025 0 
-6.938 -7.2875 -4.5575 -2.7955 -5.036 -13.3615 -8.157001 -2.9705 -4.302 -6.0725 -5.8555 -7.511 -6.0835 -1.7695 -5.579 -6.42 -5.396501 -6.508501 -4.6025 
-9.8985 -7.498001 -5.1235 -6.1965 -14.3182 -13.3615 -10.8215 -4.302 -7.6905 -7.24 -12.1275 -7.511 -7.879001 -5.579 -7.366 -8.977501 -9.328001 -6.508501 
-10.0885 -7.944 -7.871 -15.5871 -14.3182 -16.026 -12.153 -7.6905 -8.8065 -13.9496 -12.1275 -9.145 -11.9533 -7.366 -9.3695 -13.0942 -9.328001 
-10.5345 -11.0841 -17.413 -15.5871 -16.9827 -17.3575 -15.5415 -8.8065 -15.6055 -13.9496 -13.7615 -13.3283 -13.7403 -9.3695 -13.536 -13.0942 
-2.925 -2.4945 -3.115 -1.4985 -4.1955 -4.3625 -1.7565 -4.7875 -6.0835 -2.9705 -2.4945 -3.2955 -1.7695 -3.5395 -1.4985 -3.1385 -2.0935 -4.6025 0 
-3.7675 -5.505 -4.2305 -5.036 -7.261001 -6.126 -6.004001 -8.48 -8.4335 -4.302 -4.6305 -3.9425 -4.7845 -4.8575 -4.2575 -5.396501 -6.508501 -4.6025 
-6.5385 -6.576 -7.4845 -8.5835 -8.733001 -10.1145 -9.377501 -11.0256 -9.129001 -6.081 -5.1225 -6.5305 -5.7725 -7.698501 -6.52 -9.328001 -6.508501 
-7.443 -9.892 -10.7175 -9.286 -12.8903 -13.7474 -12.0195 -11.7211 -10.9814 -6.566 -8.479 -7.447 -8.183001 -9.908001 -10.1945 -9.328001 
-10.759 -13.125 -11.42 -13.5741 -16.5232 -16.3894 -12.715 -13.5735 -11.4664 -9.871501 -9.250501 -9.765 -10.403 -13.5019 -10.1945 
-2.7295 -2.7765 -3.197 -3.1435 -12.16972 -1.934 -4.7875 -7.8025 -2.9705 -2.4945 -3.2955 -1.7695 -4.5915 -2.0935 -2.985 -5.131 
-4.065 -4.745501 -6.219 -16.50802 -14.10372 -6.5285 -10.5535 -10.3415 -4.302 -4.6305 -3.9425 -5.579 -7.045 -4.3315 -6.8405 
-6.017 -7.535501 -20.32492 -18.44202 -18.69822 -13.0049 -13.5047 -11.673 -6.081 -5.1225 -7.809 -8.235001 -9.68 -7.9685 
-8.880501 -21.89162 -22.25892 -23.03652 -25.17462 -15.9561 -14.8362 -13.452 -6.566 -9.4175 -10.4765 -10.7325 -13.3934 
-23.33222 -23.82562 -26.85342 -29.51292 -28.12582 -17.2876 -16.6152 -13.937 -11.289 -12.1378 -13.3416 -14.4459 
