-4.759 
n/a 
n/a 
n/a 
n/a 
-4.759 
n/a 
n/a 
n/a 
n/a 
-4.759 
n/a 
n/a 
n/a 
n/a 
-4.759 
n/a 
n/a 
n/a 
n/a 
-2.4265 -2.7415 -4.4015 -2.3335 -7.525001 -7.387001 -2.742 -5.3975 -3.5455 -1.4985 -3.158 -6.372 
-3.681 -5.9195 -5.3755 -10.281 -15.4698 -10.5535 -6.936 -8.2285 -3.91 -4.178 -7.319 
-6.045 -6.4285 -13.9128 -18.2258 -18.6363 -14.7475 -9.43 -8.3755 -5.429 -7.9665 
-6.432 -14.9696 -21.8576 -21.3923 -22.8303 -17.2415 -9.825001 -10.5703 -9.090501 
-14.9747 -22.9144 -25.0241 -25.5863 -25.3243 -17.6365 -12.0198 -13.6418 
-1.934 -6.372 -3.8405 -5.25 -4.174 -4.3765 -2.5045 -7.774 
-6.628 -9.646501 -9.114 -10.3675 -8.657001 -6.476 -10.001 
-10.0775 -14.1097 -14.3219 -14.8505 -10.9927 -12.1825 
-15.8946 -19.494 -18.8049 -17.1862 -16.6992 
-21.4639 -23.977 -21.1406 -22.8927 
-6.372 -3.1495 -3.4795 -7.774 -4.9225 -2.4945 -4.06 
-9.2025 -5.004 -10.353 -11.927 -6.9525 -5.1305 
-10.1975 -12.1292 -15.723 -13.8485 -9.969501 
-17.8615 -17.4977 -17.6265 -16.8655 
-23.23 -19.4012 -20.6435 
-1.934 -6.372 -1.4985 -3.5085 -4.9225 -5.3905 -2.186 -7.774 
-6.628 -7.403501 -4.4755 -9.492001 -10.4675 -8.377501 -9.6595 
-8.3865 -9.798 -10.757 -15.4238 -13.4545 -15.3801 
-9.233001 -15.2185 -16.6888 -18.4108 -20.4571 
-15.6444 -21.2227 -19.6758 -25.4134 
