-4.759 
n/a 
n/a 
n/a 
n/a 
-4.759 
n/a 
n/a 
n/a 
n/a 
-4.759 
n/a 
n/a 
n/a 
n/a 
-4.759 
n/a 
n/a 
n/a 
n/a 
-4.8315 -7.0175 -3.115 -3.3715 -3.7495 0 -3.9285 -1.756 -4.536 -1.756 -3.1435 -3.9005 -1.756 -2.3345 -2.6165 -4.282 -2.985 -4.414 -2.5045 -2.925 -3.6645 0 -1.756 -3.557 -3.3715 -4.526 -2.264 -2.3615 -3.6645 
-12.51 -11.2093 -5.5935 -5.7225 -3.7495 -3.9285 -5.4255 -5.615 -5.879 -4.1365 -6.471 -5.634 -4.614 -5.487 -6.9165 -7.132 -6.055 -6.615 -4.3205 -6.8535 -3.6645 -1.756 -5.094 -6.5635 -7.387501 -7.0145 -3.8255 -4.907 
-16.7018 -13.6878 -7.783501 -5.7225 -8.302501 -5.4255 -9.2735 -7.7305 -8.8105 -7.665 -8.516001 -9.34 -7.3235 -9.0225 -9.261001 -8.9965 -8.022 -7.896 -7.715001 -6.8535 -5.064 -5.094 -7.625 -10.564 -9.822001 -8.6615 -7.1815 
-19.1803 -15.8778 -7.783501 -11.2221 -9.964001 -9.2735 -10.293 -10.2535 -12.57 -10.025 -12.2952 -12.2689 -11.1946 -11.4742 -11.2539 -10.31 -8.566501 -11.5127 -7.715001 -7.973001 -7.931 -7.625 -11.7955 -12.9985 -11.4532 -12.2849 
-21.3703 -15.8778 -13.5503 -12.8836 -14.0588 -10.293 -14.0246 -14.013 -14.93 -13.8042 -15.2241 -16.14 -13.6463 -13.4671 -12.5674 -10.421 -12.413 -11.5127 -8.7395 -11.055 -10.907 -11.7955 -14.23 -14.6297 -15.0766 
-4.8315 0 -4.0005 -4.0805 -3.115 -7.0175 0 -2.674 -4.131 -1.4985 -4.2285 -4.4695 -3.326 -3.7075 -2.3335 -3.4405 -2.6165 -4.115 -1.4985 -4.761 -1.756 -2.5685 -1.4985 -4.031 -2.5045 -3.3235 -2.5045 -2.985 -4.754 0 
-4.8315 -4.0005 -7.467 -6.384 -9.933001 -7.0175 -2.674 -6.3215 -6.0325 -5.319 -9.217501 -7.2315 -6.9455 -5.72 -5.0155 -3.7415 -5.732 -4.8635 -6.061501 -5.87 -4.2335 -3.7015 -4.937 -6.544 -3.7105 -3.8485 -5.065001 -6.467 -4.754 
-7.9625 -7.467 -9.579 -13.4848 -9.933001 -9.596001 -6.3215 -7.6005 -10.078 -10.6465 -12.2153 -11.47 -8.471001 -7.535501 -5.1585 -6.4055 -6.481 -9.637501 -7.171 -8.658 -5.11 -7.0555 -7.5055 -7.587 -3.8545 -5.865 -8.745001 -6.467 
-11.5894 -9.579 -16.756 -13.4848 -10.764 -10.762 -7.6005 -11.873 -15.4055 -13.6443 -16.4538 -12.9955 -10.4769 -7.714 -8.267 -7.075 -11.3304 -10.705 -9.4215 -9.324 -8.526 -9.622001 -8.498501 -7.6595 -5.8675 -9.874001 -8.745001 
-13.7014 -16.756 -16.756 -14.3158 -10.7695 -13.914 -11.873 -17.2005 -18.4033 -17.8828 -17.9793 -15.0014 -10.6554 -10.05 -8.728001 -12.0458 -12.3979 -12.9555 -10.5135 -12.975 -11.0551 -10.566 -8.5965 -9.589001 -9.882501 -9.874001 
-7.0175 0 -2.8965 -4.676 0 -4.5605 -3.1575 -12.16972 -2.925 -6.6835 -3.9595 -1.4985 -3.9355 
-7.0175 -2.8965 -6.1025 -4.676 -4.5605 -7.877 -16.44422 -15.09472 -8.7235 -11.5252 -5.404 -4.8035 
-10.9908 -6.1025 -6.1025 -9.903501 -7.877 -21.55632 -19.36922 -20.89322 -13.8054 -12.9697 -8.5895 
-14.1968 -6.1025 -11.7684 -13.676 -21.55632 -24.48132 -25.16772 -25.97512 -15.2499 -16.1552 
-14.1968 -11.7684 -15.5409 -27.35532 -24.48132 -30.27982 -30.24962 -27.41962 -18.4354 
-3.074 -3.135 -4.676 -3.115 -7.0175 0 -3.43 -2.985 -4.0225 -3.3255 -1.4985 -4.4245 -4.0225 -2.3345 -2.6165 -4.4165 -1.4985 -4.761 -1.756 -2.985 -4.048 0 
-5.767 -7.114501 -7.0085 -9.933001 -7.0175 -3.43 -5.796 -7.0985 -7.353 -3.8945 -5.5635 -7.9605 -6.371 -5.487 -6.6235 -5.3005 -6.061501 -5.87 -4.2025 -6.666 -4.048 
-9.7955 -9.290001 -14.0043 -9.933001 -10.2755 -5.796 -10.5975 -10.096 -8.031 -7.909501 -9.0905 -10.0815 -9.7865 -8.104 -7.706 -10.3045 -7.171 -6.563 -7.45 -6.666 
-12.0308 -16.3136 -14.0043 -13.327 -13.5919 -10.5975 -13.595 -10.549 -12.2462 -11.8123 -11.3815 -13.497 -12.4609 -8.881001 -12.907 -11.414 -8.752501 -11.5787 -7.45 
-19.0544 -16.3136 -17.3983 -16.6434 -18.3934 -13.595 -14.048 -14.7642 -16.149 -14.1033 -14.797 -16.1714 -13.2379 -14.222 -14.0165 -12.9955 -14.1454 -11.5787 
