-4.759 
n/a 
n/a 
n/a 
n/a 
-4.759 
n/a 
n/a 
n/a 
n/a 
-4.759 
n/a 
n/a 
n/a 
n/a 
-4.759 
n/a 
n/a 
n/a 
n/a 
-1.4985 -3.995 -6.04 -1.4985 -3.7075 -2.229 -4.764 -1.934 -1.4985 -3.307 -2.5045 -6.4845 -3.7805 -3.158 -1.934 -1.4985 -5.284 -4.764 0 
-4.712 -7.666 -6.861501 -4.6235 -5.5255 -7.013 -6.538501 -2.6125 -4.581 -5.3125 -8.859 -9.7955 -7.127 -4.7985 -2.6125 -6.35 -8.282001 -4.764 
-7.752001 -8.866501 -9.543501 -5.9985 -9.354 -8.874001 -7.131501 -5.476501 -7.104 -11.63 -10.955 -10.478 -8.7985 -5.598001 -7.579 -8.6625 -8.282001 
-8.933001 -9.876 -11.0721 -9.386001 -11.5198 -9.562501 -9.266001 -8.139 -13.8017 -14.852 -13.9885 -13.8079 -9.662001 -10.757 -9.8065 -8.6625 
-9.920501 -11.4864 -14.4596 -11.5416 -12.2083 -11.7166 -12.0981 -15.2785 -17.0237 -17.5105 -16.3284 -14.6714 -15.1028 -12.9845 -9.8065 
-3.995 -3.9485 -2.356 -1.4985 -4.365 -3.2 -2.186 -4.99 -1.934 -1.4985 -5.732 -3.3755 -4.9845 -1.756 -6.054 -2.4265 -2.229 -3.307 -1.934 -2.664 -5.1795 -1.934 -6.4845 -3.7805 -3.277 0 
-7.839 -4.311 -3.1615 -5.4465 -5.4195 -4.7335 -5.502 -5.477 -2.6125 -6.261001 -5.8985 -6.862 -6.691501 -7.826 -8.648001 -3.3415 -5.599 -5.094501 -4.0475 -6.9905 -7.0215 -8.885 -9.7955 -6.184 -3.277 
-8.061501 -4.981 -7.262501 -5.913 -7.238501 -8.6945 -5.947001 -5.791 -7.082 -6.3015 -6.864 -8.024 -13.3965 -10.238 -9.9835 -8.118501 -7.3395 -7.5865 -7.646 -8.516001 -14.3424 -11.5475 -8.915 -6.184 
-8.643001 -9.036 -8.3225 -7.5595 -9.854501 -9.1955 -6.245 -10.1765 -7.11 -7.206501 -8.024 -15.1596 -15.8085 -11.5735 -14.7857 -9.882501 -9.933001 -11.6276 -9.668501 -16.1701 -17.4222 -11.7898 -8.819 
-10.451 -9.995001 -9.964001 -10.092 -10.2365 -9.5045 -10.3545 -10.184 -7.8075 -8.249001 -15.1604 -17.5716 -17.144 -16.3757 -16.5497 -12.5736 -13.9741 -13.6501 -17.4618 -19.2499 -17.4317 -11.7898 
-3.995 -2.356 -1.4985 -4.5285 -2.186 -4.06 -1.934 -1.8085 -3.8685 -3.0415 -2.3335 -2.4265 -2.742 -3.429 -6.4845 -3.7805 -3.277 -1.7695 -5.25 -3.6215 -5.732 -3.3755 -4.9845 0 
-6.308001 -3.1615 -4.936 -5.998 -4.672 -4.483 -3.2685 -5.120501 -6.6005 -4.132 -3.913 -4.095 -4.5865 -10.777 -9.7955 -6.184 -4.9945 -6.051001 -7.210001 -9.475 -5.8985 -6.862 -4.9845 
-7.179501 -6.9585 -6.18 -9.4025 -5.13 -5.7405 -5.587 -7.874001 -7.179 -5.238 -5.1505 -5.5315 -11.03 -12.828 -8.915 -8.092501 -9.880501 -7.775001 -13.6933 -9.513 -6.864 -6.862 
-10.0185 -8.869 -9.801001 -9.851501 -6.2065 -8.18 -8.3325 -8.4165 -8.2095 -6.4155 -6.661 -11.8434 -14.3744 -13.0355 -11.055 -13.3587 -10.7635 -14.4311 -13.7313 -10.6271 -6.864 
-11.929 -12.5744 -10.236 -10.8794 -8.6415 -9.9805 -8.6425 -9.298501 -9.4315 -8.576 -12.7242 -15.0582 -14.3839 -15.8663 -17.0072 -14.2417 -17.4196 -14.4691 -14.8454 -10.6271 
-1.934 -5.0685 -1.7565 -2.3615 -4.0325 
-7.097 -5.8925 -3.523 -6.114 
-8.4965 -8.028 -7.486001 
-10.7056 -12.4084 
-15.086 
