-4.759 
n/a 
n/a 
n/a 
n/a 
-4.759 
n/a 
n/a 
n/a 
n/a 
-4.759 
n/a 
n/a 
n/a 
n/a 
-4.759 
n/a 
n/a 
n/a 
n/a 
-2.3335 -2.95 -9.014501 -3.786 -4.184 -3.4185 -1.7565 -2.3335 -5.6055 0 
-4.8245 -12.8981 -12.9351 -7.405001 -7.8645 -4.2475 -4.314 -7.889 -5.6055 
-15.0464 -16.8187 -16.5541 -11.6609 -8.467501 -6.710001 -10.3027 -7.889 
-18.967 -20.4377 -20.81 -12.2639 -10.674 -13.4873 -10.3027 
-22.586 -24.6936 -21.413 -14.4704 -17.4513 -13.4873 
-3.851 -1.7695 -2.3615 -5.2545 -4.425 -6.1855 -3.4185 -1.934 -3.091 -3.6825 
-4.0015 -3.736 -8.3915 -8.607 -10.3285 -10.0255 -5.6705 -4.2105 -6.0125 
-6.14 -9.694 -11.8538 -15.2179 -14.3793 -12.3625 -7.7985 -7.375 
-12.2036 -13.1937 -18.4647 -19.2687 -16.7163 -14.4905 -10.2755 
-15.7033 -19.8046 -22.5155 -21.6057 -18.8443 -16.9675 
-5.2545 -3.918 -1.4985 -3.6825 -2.5045 -6.1855 -3.4185 -2.5045 -3.543 -4.904 0 
-9.0795 -5.135 -4.87 -6.13 -9.503501 -10.0255 -6.34 -5.323 -8.3155 -4.904 
-9.395 -7.502 -7.049001 -13.75 -13.6815 -13.032 -8.929501 -9.731 -8.3155 
-10.245 -9.166 -14.8152 -17.928 -16.688 -15.6215 -13.4679 -9.731 
-12.0554 -17.1362 -18.9932 -20.9345 -19.2775 -20.1599 -13.4679 
-4.122 -5.2545 -3.786 -4.184 -3.4185 -1.934 -4.267 -1.4985 -3.97 0 
-9.387001 -9.9615 -7.405001 -7.8645 -5.6705 -6.221 -6.655 -5.476 -3.97 
-14.2446 -13.6631 -11.6609 -9.632501 -9.951 -9.8915 -11.0081 -5.476 
-17.9462 -17.919 -13.4289 -13.927 -13.8957 -14.2446 -11.0081 
-22.2021 -19.687 -17.7234 -17.8717 -18.2488 -14.2446 
