-4.759 
n/a 
n/a 
n/a 
n/a 
-4.759 
n/a 
n/a 
n/a 
n/a 
-4.759 
n/a 
n/a 
n/a 
n/a 
-4.759 
n/a 
n/a 
n/a 
n/a 
-5.34 -2.186 -4.3035 -2.0935 -4.2335 -1.7695 -4.3245 -3.5505 0 
-6.964 -5.1255 -5.4225 -6.3625 -6.032 -4.714 -7.063 -3.5505 
-9.1485 -5.7605 -9.030001 -7.7385 -7.704 -7.375 -7.063 
-9.443501 -9.408001 -9.5625 -9.4975 -9.478001 -7.375 
-13.2364 -9.890501 -11.4825 -10.675 -9.478001 
-5.5255 -2.229 -3.737 -1.7565 -4.471 -4.1085 -1.7695 -3.7075 -4.202 0 
-8.545 -6.0395 -5.3145 -6.015501 -9.186501 -4.428 -6.146501 -8.679001 -4.202 
-12.6873 -8.000501 -10.3345 -10.66 -9.395 -9.859 -11.6474 -8.679001 
-14.6483 -13.3233 -14.979 -10.8685 -14.9226 -15.6289 -11.6474 
-19.9711 -17.9678 -15.1875 -16.3961 -20.6925 -15.6289 
-5.2365 -4.663 -4.471 -1.7695 -3.0785 -2.791 -5.346 -4.591 
-10.5975 -7.9675 -6.128 -3.9555 -4.7485 -9.170501 -9.105 
-13.902 -9.637501 -7.642 -5.4465 -12.5158 -13.3891 
-15.572 -11.2055 -9.822001 -13.6526 -16.7344 
-17.14 -13.3855 -18.1021 -17.8712 
-4.2335 -3.331 -5.34 -1.7695 -4.3245 -3.1435 -3.86 0 
-7.1105 -8.184501 -6.7365 -4.714 -6.985 -7.8195 -3.86 
-8.911 -8.545 -8.370001 -7.1835 -12.2306 -7.8195 
-9.226501 -10.0445 -10.609 -12.4617 -12.2306 
-10.5235 -12.2835 -15.8872 -12.4617 
