-4.759 
n/a 
n/a 
n/a 
n/a 
-4.759 
n/a 
n/a 
n/a 
n/a 
-4.759 
n/a 
n/a 
n/a 
n/a 
-4.759 
n/a 
n/a 
n/a 
n/a 
-5.831 -6.249 -3.5795 -5.0935 -3.499 -4.645 -4.0675 -2.3345 -3.1385 -1.756 -4.645 -2.341 -3.499 -2.3345 -3.757 0 
-6.4665 -10.703 -9.967001 -8.4545 -6.6445 -7.757501 -5.7905 -5.443501 -4.6325 -6.3775 -7.589001 -6.2245 -5.798 -5.775001 -3.757 
-11.4795 -17.0905 -13.328 -11.7366 -9.0905 -7.991501 -8.8475 -7.143001 -8.956 -9.887 -10.181 -9.304501 -9.795 -5.775001 
-17.867 -20.4515 -16.6101 -14.1826 -9.6335 -10.292 -10.494 -11.9055 -12.8707 -12.5404 -13.4104 -13.1971 -9.795 
-21.228 -23.7336 -19.0561 -14.7256 -11.8166 -11.9385 -15.2565 -15.8202 -15.5241 -15.7698 -17.303 -13.1971 
-1.4985 -3.4185 -1.7565 -4.698 -3.7965 -1.4985 -3.926 -4.0785 -1.7565 -1.4985 -5.0935 -3.499 -2.3345 -3.1385 -3.321 -3.757 -1.7565 -3.8735 -4.648 -1.4985 -2.341 -3.499 -3.9225 -3.277 0 
-5.019 -4.2475 -5.5475 -8.496501 -4.8165 -5.1875 -7.29 -4.595 -2.4195 -8.234501 -8.4545 -5.798 -5.443501 -6.4305 -6.654 -4.5665 -5.112 -8.7945 -6.3195 -4.961 -6.2245 -7.409 -5.4525 -3.277 
-6.382501 -6.2225 -9.294001 -9.632501 -8.084001 -8.018001 -8.061 -5.757 -8.856501 -10.543 -10.8901 -9.884501 -9.019001 -10.31 -7.209 -7.1095 -9.143001 -10.168 -10.0605 -8.639501 -10.5953 -8.34 -5.4525 
-7.566 -10.3546 -10.4855 -12.9404 -11.2925 -8.885 -9.019501 -12.726 -10.718 -12.9786 -14.9766 -13.4294 -13.0241 -10.865 -8.988 -11.7091 -10.254 -13.909 -13.739 -13.5039 -11.5263 -8.34 
-12.2073 -11.5461 -13.7934 -16.1489 -12.1595 -9.3365 -16.2967 -14.5875 -13.1536 -17.0651 -18.5215 -17.4345 -13.5791 -12.644 -13.8542 -12.8201 -13.995 -17.5875 -18.6034 -14.4349 -11.5263 
-1.934 -5.831 -6.249 -5.0935 -3.499 -2.4945 -4.645 -4.0675 -2.3345 -1.4985 -3.1385 -1.756 -2.341 -3.499 -2.4945 -4.645 -2.3345 -1.4985 -3.757 0 
-7.6595 -6.4665 -12.2901 -8.4545 -5.2055 -6.212501 -7.757501 -5.7905 -3.233 -4.2575 -4.6325 -4.5775 -6.2245 -5.2055 -6.212501 -5.881001 -3.233 -4.5435 -3.757 
-7.71 -13.0666 -15.6511 -10.2976 -6.9405 -8.3915 -7.991501 -6.2605 -5.869 -5.7255 -7.7135 -7.5895 -8.015 -6.9405 -6.748 -6.213 -5.679 -4.5435 
-14.8259 -16.4276 -17.4942 -12.0326 -9.3655 -8.727501 -8.129001 -8.2375 -7.0405 -9.502501 -11.1163 -9.599501 -9.278 -7.2025 -7.166 -9.516001 -5.679 
-18.1869 -18.2707 -19.2292 -14.4576 -9.564 -8.9615 -8.505001 -9.271501 -10.5525 -12.9735 -13.1263 -10.69 -10.271 -8.045 -10.354 -9.516001 
-5.831 -6.249 -2.8645 -5.0935 -4.66 -2.9705 -3.1385 -3.5045 -1.4985 -3.499 -1.756 -2.341 -5.086 -2.3345 -3.757 
-6.4665 -8.5875 -8.531 -9.8165 -7.244 -5.9795 -6.8865 -4.653 -4.967 -4.9 -4.5775 -8.2075 -5.9725 -5.775001 
-9.0755 -14.3112 -14.0366 -12.5457 -10.718 -9.6075 -8.4455 -8.120001 -6.584001 -7.2665 -9.836 -9.1695 -7.519501 
-14.877 -19.8168 -16.7658 -16.0197 -14.346 -11.3191 -12.2027 -9.651501 -9.557501 -10.374 -10.706 -10.6581 
-20.3826 -22.546 -20.2398 -19.6477 -16.0576 -15.0763 -13.7342 -12.7982 -12.767 -11.9144 -12.1946 
