-4.759 
n/a 
n/a 
n/a 
n/a 
-4.759 
n/a 
n/a 
n/a 
n/a 
-4.759 
n/a 
n/a 
n/a 
n/a 
-4.759 
n/a 
n/a 
n/a 
n/a 
-1.934 -3.9745 -3.0365 -2.7415 -2.664 -4.1375 -3.594 -2.0935 -3.345 -1.756 -3.6055 -5.009 -1.7565 -3.6835 -5.164 0 -2.5195 -2.3335 -4.1375 -3.594 -2.7295 -2.674 -1.7695 -3.197 -1.4985 -3.739 -2.7455 -3.345 -1.756 -3.992 -2.3615 -4.77 -2.7415 -1.4985 -3.535 -3.602 -1.934 -2.3615 -3.594 
-5.2945 -6.8715 -4.2225 -4.6625 -8.949 -8.017 -5.748 -4.212 -5.2935 -5.005 -10.281 -5.818501 -4.6675 -5.399 -5.164 -2.5195 -4.9535 -7.251 -8.017 -6.6335 -3.8 -3.787 -3.9565 -4.291 -4.208 -6.896 -5.7725 -5.2935 -5.193501 -6.5385 -6.483 -6.704501 -4.063 -4.255 -6.246 -5.007 -3.539 -6.396 
-7.486001 -8.1815 -5.384 -11.4893 -13.0733 -10.3285 -8.3525 -6.3595 -5.4295 -11.8739 -11.0905 -8.495001 -6.324 -5.399 -7.139 -4.9535 -9.132501 -11.5613 -11.5143 -7.583 -4.963 -5.9475 -4.7825 -8.264001 -7.086 -10.2176 -7.526 -7.9935 -7.129001 -11.1694 -7.745 -8.462001 -6.335 -6.4445 -7.7995 -6.7465 -7.4545 
-8.951501 -9.4975 -12.7042 -15.6136 -15.3848 -13.129 -10.575 -6.4435 -12.6196 -12.6834 -13.767 -10.8787 -6.324 -7.5515 -9.5005 -9.132501 -13.617 -15.0586 -12.4638 -8.908 -6.854 -6.8795 -8.625501 -11.3294 -10.5294 -11.9711 -9.7495 -10.7025 -12.6877 -12.4314 -9.6955 -10.76 -8.265 -8.052501 -8.629001 -10.647 
-10.419 -16.8781 -16.8285 -17.9251 -18.1853 -15.3515 -10.628 -13.8896 -13.4291 -15.3599 -16.1507 -10.8787 -8.324501 -9.900001 -13.7569 -13.617 -17.1143 -16.0081 -13.7888 -11.019 -7.79 -10.7945 -11.8087 -14.7728 -12.2829 -14.1946 -12.4585 -16.2612 -13.9497 -14.3819 -12.0687 -12.69 -9.76 -8.954 -12.7809 
-3.8665 -3.3035 -2.5195 -4.193 -1.7695 -3.498 -2.264 -4.0995 -4.5285 0 -4.7415 0 -4.5925 -2.4265 -2.8645 -2.356 -3.9005 -3.943 0 -4.5925 -1.7565 -3.6835 -3.3435 -3.3715 -3.681 -4.683 -2.356 -2.3615 0 -2.925 -3.6785 -3.436 -2.4265 -4.4995 -2.925 -3.6785 -2.3615 -3.594 -2.5045 -2.664 -2.7295 -4.816 -3.436 -2.4265 -3.766 0 
-5.9235 -5.218 -6.1595 -5.1975 -4.8045 -6.004 -7.131001 -6.811501 -4.5285 -4.7415 -4.7415 -4.5925 -7.804 -4.1435 -6.314 -6.068501 -7.262501 -3.943 -4.5925 -4.707 -4.6675 -5.7725 -6.7655 -5.4275 -6.5255 -6.2255 -4.2185 -2.3615 -2.925 -5.1305 -6.876 -4.978 -5.4455 -7.027 -5.1305 -5.4075 -6.396 -6.1135 -4.074 -7.0595 -6.8995 -7.387001 -4.978 -6.5 -3.766 
-7.819 -9.2275 -6.258 -6.239 -6.971 -11.567 -10.296 -6.811501 -9.297001 -4.7415 -9.359001 -7.804 -9.505 -7.2995 -10.1945 -10.0505 -7.262501 -10.8415 -4.707 -8.0965 -6.2755 -8.8345 -8.778 -8.05 -8.029 -7.7615 -4.2185 -5.8255 -5.1305 -8.524 -8.676001 -7.04 -7.9595 -8.991501 -7.109 -9.786501 -8.4425 -7.487 -9.1685 -11.2741 -9.726 -8.9245 -9.023001 -6.5 
-12.2661 -9.250501 -6.2915 -8.503 -12.9462 -14.732 -10.296 -12.2032 -9.297001 -9.359001 -12.6175 -9.505 -12.681 -10.334 -14.6711 -10.0505 -15.0412 -10.956 -8.0965 -9.9945 -9.195001 -10.8742 -11.7187 -9.7515 -9.443501 -7.7615 -7.3825 -7.702001 -8.524 -10.335 -10.634 -9.357 -9.977501 -11.1154 -10.749 -11.9292 -10.138 -13.0813 -13.6829 -14.1006 -11.4683 -13.4363 -9.023001 
-12.2891 -9.507501 -8.546 -14.849 -16.1112 -14.732 -15.6877 -12.2032 -14.0743 -12.6175 -14.3185 -12.681 -15.7155 -15.4854 -14.6711 -17.8292 -15.1557 -14.3455 -9.9945 -12.914 -11.2863 -13.8149 -13.4202 -11.1394 -9.443501 -11.2001 -9.4425 -11.3425 -10.335 -12.293 -12.951 -11.4096 -12.1626 -14.7554 -12.8917 -13.6247 -15.7323 -17.5957 -16.5094 -15.8429 -15.9801 -13.4363 
-2.264 -1.4985 -4.1175 -2.3335 -4.129 -2.5195 -4.839 -3.681 -4.732 -1.4985 -5.1035 -1.7565 -2.3615 -3.188 0 -3.345 -1.756 -3.992 -2.186 -9.514501 0 -1.4985 -3.992 -3.4625 -3.8055 -4.056 -2.186 -2.3335 -3.6835 -3.4625 -2.229 -5.6935 -2.7765 -3.074 -2.489 -6.0205 -1.934 -4.3135 -2.5045 -2.925 -4.397 -3.9345 -1.7695 -3.754 -2.3335 -2.186 -3.788 -4.4015 
-2.9195 -4.6915 -5.961 -6.723001 -5.397 -7.223001 -8.512 -8.083 -5.618001 -6.0895 -5.786 -3.523 -5.2525 -3.188 -3.345 -5.2935 -5.193501 -5.227 -10.413 -8.113001 -1.4985 -5.2675 -7.2115 -6.0625 -5.811501 -6.4945 -3.9765 -6.015 -5.5035 -7.036 -6.9055 -8.107 -4.359 -4.381 -6.574 -7.3435 -4.826 -6.6285 -4.3205 -6.1515 -7.6835 -3.94 -5.4965 -4.79 -3.7085 -4.9005 -6.678 
-4.9245 -6.1445 -10.7897 -7.691 -10.8951 -10.634 -13.03 -8.928501 -10.8402 -6.146 -7.556001 -5.842 -5.2525 -6.6445 -5.2935 -7.9935 -6.402 -11.4315 -9.141001 -10.172 -5.2675 -8.789001 -10.2485 -7.4945 -7.884 -7.879001 -7.4145 -8.0745 -7.3935 -12.1373 -9.173 -10.335 -4.9485 -8.754001 -7.862 -9.205501 -6.828001 -8.345 -6.539001 -9.64 -7.6875 -8.626 -6.507 -5.7365 -5.994 -8.325001 
-6.1565 -11.2316 -11.7577 -13.5799 -14.3061 -15.152 -13.8755 -14.4329 -10.8967 -7.9115 -10.6735 -5.842 -8.6825 -8.511001 -7.9935 -9.485001 -11.6145 -10.1765 -11.3726 -14.1426 -8.789001 -11.727 -11.8389 -9.156 -8.410501 -11.3804 -9.71 -9.109501 -12.776 -14.4048 -11.3658 -10.4535 -9.218 -10.082 -9.3265 -11.3659 -8.488501 -10.8869 -10.1145 -9.646 -12.5575 -9.856501 -7.261001 -7.712501 -9.617001 
-11.2924 -12.1996 -17.6466 -16.9909 -18.8241 -15.9975 -19.3799 -14.4894 -12.6622 -11.0454 -10.6735 -9.2495 -9.923 -12.3264 -9.485001 -14.8945 -11.6649 -12.4081 -15.3432 -17.6641 -11.727 -13.3174 -13.5004 -9.703 -11.9295 -13.6759 -10.84 -14.8684 -15.0435 -16.5976 -11.4843 -14.723 -10.543 -11.5263 -11.5203 -13.0264 -11.2384 -14.4624 -10.1285 -14.6016 -13.788 -10.4625 -9.0745 -10.5535 
-4.399 -1.7565 -3.8665 -3.8975 -1.756 -1.4985 -4.257 0 -1.756 -1.934 -2.5685 0 -4.5925 -3.0365 -2.186 -1.8085 -3.519 -2.264 -2.3615 -4.1175 0 -3.7875 -4.913 -1.4985 -3.6835 -3.3435 -2.3335 -2.8645 -1.8085 -3.519 -3.115 -3.9745 0 -2.3615 -2.7765 -2.489 -4.956 -3.436 -2.3615 -2.186 -1.4985 -4.3565 -4.4725 -3.436 0 
-4.831 -4.9325 -6.58 -4.9005 -3.0405 -5.1765 -4.257 -1.756 -4.0205 -4.244 -2.5685 -4.5925 -7.881001 -3.66 -3.164 -5.0315 -5.7825 -3.8255 -6.37 -4.1175 -3.7875 -10.0225 -5.525 -4.7155 -5.7725 -5.5325 -4.3785 -3.9785 -5.0315 -6.9915 -6.966001 -3.9745 -2.3615 -4.876 -3.495 -6.361 -7.981501 -5.5165 -3.5005 -3.339 -5.2825 -9.805 -7.804 -3.436 
-8.6675 -7.382 -7.511 -6.475 -6.689 -5.1765 -5.785 -4.0205 -6.0645 -4.244 -7.3725 -7.881001 -8.9575 -4.218 -6.0315 -7.1315 -6.7295 -6.441501 -6.37 -7.759501 -10.0225 -10.8455 -8.7375 -7.412001 -7.578 -7.1965 -5.4815 -7.396501 -7.86 -11.0807 -6.966001 -6.554501 -4.876 -5.155 -6.884 -8.8605 -9.923 -6.693501 -4.3105 -7.057 -10.328 -13.1365 -7.804 
-11.3186 -8.2025 -8.7165 -10.476 -6.689 -6.6315 -7.9195 -6.0645 -6.0645 -9.566501 -10.8756 -8.9575 -9.545 -7.4865 -8.501 -8.474 -9.884501 -6.441501 -9.7405 -14.2663 -10.8455 -14.058 -11.7382 -9.2115 -8.93 -8.8675 -8.6875 -9.381001 -12.1542 -11.0807 -9.409 -8.6335 -5.155 -9.186 -9.296 -10.8974 -11.1 -7.5975 -7.9775 -12.5449 -13.6595 -13.1365 
-12.1391 -9.234501 -12.9473 -10.476 -9.078 -8.998 -10.275 -6.0645 -11.801 -13.2168 -11.9521 -9.545 -12.9487 -8.6485 -10.233 -11.988 -9.884501 -9.7615 -16.4237 -15.0893 -14.058 -17.0587 -13.5377 -10.329 -10.9714 -12.1633 -10.859 -13.8324 -12.1542 -13.5237 -11.5906 -8.910501 -9.186 -11.6382 -11.3683 -12.0744 -12.004 -11.5383 -13.7132 -15.8764 -13.6595 
