-4.759 
n/a 
n/a 
n/a 
n/a 
-4.759 
n/a 
n/a 
n/a 
n/a 
-4.759 
n/a 
n/a 
n/a 
n/a 
-4.759 
n/a 
n/a 
n/a 
n/a 
-3.788 0 -1.7565 -1.4985 -3.873 -4.706 -2.264 -1.4985 -9.5775 -2.9705 -2.4945 -3.2495 -4.277 -3.277 -3.5905 0 
-3.788 -1.7565 -2.4195 -4.7405 -7.7325 -6.2345 -2.9195 -10.7495 -12.8322 -4.302 -4.891 -6.7675 -6.336 -4.7035 -3.5905 
-5.3625 -2.4195 -5.411 -8.0345 -9.2255 -6.501 -12.5531 -14.0042 -14.1637 -7.3695 -9.0245 -8.0495 -7.210501 -4.7035 
-5.764 -5.411 -8.832001 -9.7635 -9.43 -16.6008 -15.8078 -15.3357 -17.2312 -11.6928 -10.259 -9.0065 -7.210501 
-8.4735 -8.832001 -10.7025 -10.1575 -19.6296 -19.8555 -17.1393 -18.4032 -21.5545 -12.9273 -10.319 -9.0065 
-6.783 -5.527 -2.7415 -1.4985 -3.0835 -3.2775 -6.728 -5.0515 -1.756 -3.0415 -3.1435 -3.098 -2.8645 -4.4275 -1.4985 -5.054 -4.245 -2.0935 -2.3615 -4.0135 -1.7565 -4.8675 -4.654 
-12.7554 -8.4095 -4.063 -3.535 -6.398 -10.1305 -10.4855 -6.3 -4.454 -5.929501 -5.4265 -5.837 -5.847 -5.274 -6.172 -8.5235 -6.2925 -3.854 -5.1525 -4.201 -5.754 -8.312 
-15.6379 -9.439501 -5.12 -6.491 -10.4765 -10.501 -10.5685 -9.3675 -7.494 -8.798 -7.872 -9.103001 -6.6225 -10.172 -9.0775 -10.0195 -8.031501 -6.343 -5.2165 -8.938001 -9.265 
-16.6679 -10.011 -7.5335 -10.4845 -10.509 -10.5755 -10.586 -10.544 -9.908001 -10.243 -10.1715 -9.235001 -10.4675 -10.466 -10.1725 -10.519 -10.085 -6.3505 -9.9665 -10.4265 
-17.2394 -10.549 -10.542 -10.5085 -10.5835 -10.593 -10.6035 -10.5715 -10.517 -10.5615 -10.2155 -10.5655 -10.4905 -10.585 -10.5305 -10.5755 -10.0945 -10.476 -10.472 
-3.788 0 -1.7565 -3.1435 -4.7505 -2.4945 -4.6365 -2.5195 -1.4985 -4.686 -4.7045 -2.341 -3.748 -3.277 0 
-3.788 -1.7565 -4.124 -7.5465 -6.557 -5.8615 -4.8875 -3.1695 -5.404 -10.177 -6.7135 -5.0455 -5.8405 -3.277 
-5.3625 -4.124 -8.153001 -9.099501 -10.368 -6.0105 -5.375 -6.786 -11.497 -12.186 -10.5564 -7.465 -5.8405 
-7.1645 -8.153001 -9.7805 -12.9891 -10.4625 -6.5055 -10.1635 -13.2634 -13.506 -16.0289 -12.9759 -7.465 
-11.7197 -9.7805 -13.6701 -13.0836 -10.612 -11.5108 -16.6409 -15.2724 -17.3489 -18.4484 -12.9759 
-2.4265 -2.229 -3.788 0 -1.7565 -3.873 -4.1455 -2.186 -4.96 -1.7565 -2.341 -4.277 -3.277 -3.5905 -3.8845 -4.887 0 
-3.3415 -6.321 -3.788 -1.7565 -5.002 -6.34 -5.901 -5.5865 -5.1815 -4.4685 -5.4575 -6.336 -4.7035 -7.0645 -9.297501 -4.887 
-7.7335 -6.321 -5.3625 -5.002 -7.4775 -8.0525 -8.459001 -5.648 -7.5795 -7.005001 -7.752501 -7.210501 -8.902 -13.1127 -9.297501 
-7.7335 -8.2825 -9.092001 -7.4775 -9.7045 -10.4505 -8.538501 -8.006001 -10.3774 -9.801001 -8.612 -10.6465 -15.1958 -13.1127 
-9.059501 -12.2816 -11.6879 -9.7045 -12.1025 -10.4815 -10.9345 -10.8583 -13.1734 -10.6081 -12.0718 -16.9403 -15.1958 
