-4.759 
n/a 
n/a 
n/a 
n/a 
-4.759 
n/a 
n/a 
n/a 
n/a 
-4.759 
n/a 
n/a 
n/a 
n/a 
-4.759 
n/a 
n/a 
n/a 
n/a 
-3.8655 -2.8645 -3.535 -1.756 -3.535 -4.418 0 
-6.2115 -6.896 -5.054 -5.089 -7.501 -4.418 
-10.5135 -8.7285 -8.033 -9.127001 -7.501 
-12.346 -11.9317 -12.4856 -9.127001 
-15.5492 -16.3843 -12.4856 
-1.934 -9.089001 -3.535 -3.468 -3.074 -3.0365 
-10.907 -12.9056 -6.901 -6.508 -5.832 
-14.7236 -16.2716 -9.8335 -9.049001 
-18.0896 -19.2041 -12.3745 
-21.0221 -21.7451 

n/a 
n/a 
n/a 
n/a 
-3.8655 -2.674 -3.17 -1.7565 -3.535 -4.418 0 
-6.684501 -6.334 -4.179 -5.105 -7.501 -4.418 
-10.195 -6.7245 -7.4925 -8.5415 -7.501 
-10.3365 -10.4506 -12.2362 -8.5415 
-14.386 -15.1943 -12.2362 
