-4.759 
n/a 
n/a 
n/a 
n/a 
-4.759 
n/a 
n/a 
n/a 
n/a 
-4.759 
n/a 
n/a 
n/a 
n/a 
-4.759 
n/a 
n/a 
n/a 
n/a 
-3.956 -1.7695 -3.676 -2.229 -4.3645 -1.7695 -3.9515 -1.7565 -4.9605 -4.277 -4.702 0 
-4.324 -5.5605 -4.593 -6.6305 -6.62 -6.616001 -4.947 -6.468 -7.404 -8.018001 -4.702 
-10.4505 -6.135 -8.594001 -8.928 -12.1657 -7.258 -11.1175 -8.822001 -10.365 -8.018001 
-11.025 -10.6476 -11.9907 -14.7971 -12.8077 -13.9391 -12.4902 -10.6925 -9.6745 
-15.5376 -14.0443 -17.8598 -15.4391 -19.4888 -15.0716 -15.7597 -10.9485 
-4.3645 -4.3225 -2.3335 -4.5445 -4.448 -3.676 -2.229 -3.873 -4.654 -4.5445 -1.4985 -3.5085 -3.873 -3.4425 -1.7565 -2.5685 -1.4985 -3.468 -4.06 -4.869 -1.7695 -3.345 -2.8965 -1.7695 -2.489 -4.9605 -4.277 -4.702 
-8.998 -6.165 -6.05 -8.7155 -9.029001 -4.593 -5.8795 -8.239 -9.070001 -5.716001 -4.4755 -6.6845 -6.015 -4.5535 -3.938 -3.7015 -5.0815 -7.4405 -6.491501 -5.302001 -4.692 -4.4605 -5.735 -3.1405 -7.8905 -7.404 -8.018001 
-11.1705 -9.2335 -10.1 -13.6757 -9.054501 -8.1595 -10.5135 -12.7486 -10.3105 -8.538 -7.203501 -6.9535 -6.951 -7.290501 -4.8455 -6.76 -9.188001 -9.978001 -6.537001 -7.017001 -5.261 -6.001 -7.0785 -8.623 -10.2565 -10.365 
-14.239 -13.2973 -15.0602 -13.7012 -13.032 -13.4109 -15.0231 -13.9891 -13.1325 -11.3778 -7.3795 -7.4875 -9.01 -8.201501 -7.429 -11.2675 -11.7783 -9.997001 -8.396001 -7.169001 -6.9115 -7.464001 -12.7945 -9.506001 -12.0895 
-18.3028 -18.2575 -15.0857 -17.6787 -18.2834 -17.9205 -16.2636 -16.8111 -15.9723 -11.5538 -7.83 -9.574 -9.897 -10.028 -12.1329 -13.8578 -11.7973 -12.1226 -8.552001 -8.8555 -8.398001 -13.4324 -13.7395 -12.4531 

n/a 
n/a 
n/a 
n/a 
-1.4985 -4.3645 -3.9515 -1.7565 -3.676 -2.229 -5.101 -3.873 -3.519 -3.837 -2.3335 -1.4985 -3.5085 -3.873 -3.4425 -1.7565 -5.025 -3.4225 -4.39 -2.186 -2.7455 -4.9605 -4.277 -4.702 0 
-5.8055 -6.938 -4.947 -4.4345 -4.593 -6.824 -8.933001 -7.7735 -6.9525 -4.933 -3.3515 -4.4755 -6.6845 -6.015 -4.5535 -6.435501 -9.5765 -4.7525 -6.5775 -4.686 -7.1305 -7.404 -8.018001 -4.702 
-8.6855 -8.022 -8.7565 -5.472 -9.8505 -10.5535 -13.1811 -11.453 -8.6675 -5.5955 -6.152 -7.203501 -6.9535 -6.951 -10.096 -11.1976 -10.6485 -6.985 -9.0565 -8.932 -9.6905 -10.365 -8.018001 
-9.422001 -12.1803 -9.0825 -11.0831 -13.6288 -14.8016 -16.8606 -13.168 -9.181 -7.9255 -9.314 -7.3795 -7.4875 -13.1119 -15.0241 -12.2696 -12.881 -9.591001 -13.1731 -9.408 -11.1995 -9.6745 
-13.9025 -12.5063 -15.0514 -14.8614 -17.8769 -18.4811 -18.5756 -13.6815 -11.6048 -11.1365 -9.601501 -7.83 -13.762 -18.04 -16.0961 -14.5021 -15.487 -13.848 -14.3821 -13.1141 -11.4541 
