-4.759 
n/a 
n/a 
n/a 
n/a 
-4.759 
n/a 
n/a 
n/a 
n/a 
-4.759 
n/a 
n/a 
n/a 
n/a 
-4.759 
n/a 
n/a 
n/a 
n/a 
-3.7925 -4.4345 -1.7565 -1.4985 -3.1385 -2.4945 -3.6705 -1.934 -2.3615 -3.6215 -4.179 0 
-7.793501 -4.719 -2.4195 -4.2575 -4.588 -5.072001 -4.865 -3.539 -6.204 -7.704 -4.179 
-8.272 -5.549 -5.013 -6.0575 -6.899 -6.355 -6.5515 -6.8495 -10.4595 -7.704 
-9.967001 -7.857 -6.949501 -8.844501 -8.038 -8.007 -9.066001 -11.2638 -10.4595 
-12.3072 -9.4715 -9.533501 -9.9805 -9.487 -10.418 -13.5987 -11.2638 
-2.3615 -3.6215 -2.186 -4.174 -3.213 -1.7695 -3.1385 -2.0935 -3.7925 0 
-6.204 -5.5965 -7.718 -8.592501 -4.908 -5.0525 -5.396501 -6.3425 -3.7925 
-7.1725 -11.8779 -12.3203 -9.007001 -8.188001 -7.130001 -9.657001 -6.3425 
-13.9041 -16.4802 -12.7348 -10.598 -10.434 -11.8665 -9.657001 
-18.5064 -16.8947 -14.3258 -12.844 -15.1705 -11.8665 
-3.7925 0 -4.9225 -3.6705 -1.934 -2.3615 -3.6215 
-3.7925 -4.9225 -8.5035 -4.865 -3.539 -6.204 
-8.8035 -8.5035 -9.556 -6.5515 -6.8495 
-13.3033 -9.556 -11.2461 -9.066001 
-14.3558 -11.2461 -13.7606 
-3.7925 0 -3.499 -3.6705 -2.264 -2.3615 -3.6215 
-3.7925 -3.499 -6.8335 -4.6595 -3.8255 -6.204 
-7.393001 -6.8335 -7.803 -6.1295 -8.5325 
-10.622 -7.803 -9.096001 -10.434 
-11.5915 -9.096001 -13.7331 
