-4.759 
n/a 
n/a 
n/a 
n/a 
-4.759 
n/a 
n/a 
n/a 
n/a 
-4.759 
n/a 
n/a 
n/a 
n/a 
-4.759 
n/a 
n/a 
n/a 
n/a 
-2.645 -3.2295 0 -1.8085 -3.545 -1.7565 -5.3 -3.5035 -1.934 -3.7485 0 -4.83 -4.3905 -1.4985 -5.805 -3.4185 -4.02 0 
-6.2145 -3.2295 -1.8085 -5.12 -4.649 -5.9935 -8.8585 -5.214 -5.12 -3.7485 -4.83 -6.2825 -5.618 -6.995501 -9.495001 -8.087001 -4.02 
-6.2145 -4.564 -5.12 -6.342 -6.043 -8.989 -11.359 -8.018001 -5.12 -9.545501 -6.2825 -7.190501 -11.6736 -11.0029 -14.6805 -8.087001 
-7.887001 -8.1365 -6.342 -7.992 -8.991 -11.7603 -14.163 -8.018001 -10.1 -10.5875 -7.190501 -13.3777 -15.681 -16.1884 -14.6805 
-11.7263 -9.4785 -7.992 -11.5338 -11.7647 -14.5643 -14.163 -13.1396 -11.142 -11.4955 -13.3777 -17.3851 -20.8665 -16.1884 
-1.934 -3.994 -1.7695 -2.3615 -1.4985 -3.873 -4.3055 -3.685 -5.543 -3.7485 -4.3155 -3.539 -1.4985 -3.264 -1.7565 -5.1975 -1.934 -2.3615 -3.8495 0 
-4.095 -4.3645 -3.736 -4.913 -4.7405 -7.703 -9.038 -8.7615 -9.3195 -8.3055 -6.212501 -4.471 -4.0935 -3.6125 -7.111001 -6.9005 -3.539 -6.676001 -3.8495 
-4.418 -5.9735 -6.1655 -8.226 -8.259501 -12.5917 -14.4455 -13.196 -14.3573 -10.7495 -6.9285 -7.0445 -4.178 -7.996 -8.3955 -9.1435 -8.123501 -6.676001 
-6.0085 -7.096 -9.3015 -12.1866 -13.261 -17.9992 -18.88 -18.2338 -16.8013 -11.4655 -9.1805 -7.156001 -8.614 -9.095 -10.4265 -13.9076 -8.123501 
-7.097 -10.4425 -13.4421 -17.1881 -18.6685 -22.4337 -23.9178 -20.6778 -17.5173 -13.7175 -9.212001 -11.7864 -9.405001 -11.2936 -15.1906 -13.9076 
-3.074 0 -5.847 -6.249 -3.7485 0 -5.354 -3.499 -2.8645 -4.3905 -4.528 0 
-3.074 -5.847 -9.5155 -9.7095 -3.7485 -5.354 -9.0705 -6.7545 -6.193501 -7.0255 -4.528 
-9.323501 -9.5155 -13.1524 -9.7095 -9.4545 -9.0705 -13.315 -9.922501 -8.371 -7.0255 
-13.344 -13.1524 -13.1524 -15.6261 -13.7122 -13.315 -16.483 -12.0718 -8.371 
-16.9809 -13.1524 -19.069 -19.8838 -17.9567 -16.483 -18.6323 -12.0718 
-3.321 -3.074 -7.0125 -3.84 -3.7485 0 -4.449 -3.499 -4.1635 -2.186 -4.3195 -3.644 0 
-6.408 -10.468 -11.5967 -7.541 -3.7485 -4.449 -8.186501 -8.23 -5.935 -8.2635 -8.419001 -3.644 
-14.0266 -15.0522 -15.2977 -7.541 -8.7165 -8.186501 -13.6239 -10.76 -12.6745 -12.433 -8.419001 
-18.6108 -18.7532 -15.2977 -12.997 -12.652 -13.6239 -16.1539 -17.4995 -16.844 -12.433 
-22.3118 -18.7532 -20.7537 -16.9325 -18.0894 -16.1539 -22.8934 -21.669 -16.844 
