-4.759 
n/a 
n/a 
n/a 
n/a 
-4.759 
n/a 
n/a 
n/a 
n/a 
-4.759 
n/a 
n/a 
n/a 
n/a 
-4.759 
n/a 
n/a 
n/a 
n/a 
-3.17 -1.7565 -3.277 -3.152 -4.881 -3.433 -1.7565 -4.86 -1.934 -4.9795 -3.4005 -3.2 -2.229 
-4.179 -4.25 -5.6945 -6.496 -8.1955 -4.1845 -6.707 -6.251 -6.4465 -8.174001 -5.781 -5.4225 
-5.4445 -5.802001 -8.993501 -9.84 -8.8945 -10.0995 -8.085 -11.3353 -9.889501 -9.281 -8.262 
-6.686501 -9.018001 -12.1141 -10.3075 -14.9337 -11.7173 -13.4009 -14.7783 -11.0425 -11.8856 
-9.898001 -12.1522 -12.5816 -16.3467 -16.5515 -17.0332 -16.8439 -15.9313 -13.6471 
-3.3715 -1.7565 -1.4985 -3.1385 -2.4945 -4.164 -2.985 -5.891 -3.433 -1.7565 -3.4005 -1.7565 -5.171 -3.5435 
-4.3215 -2.4195 -4.2575 -4.588 -6.213 -5.965 -7.923 -9.151501 -4.1845 -4.473 -5.4705 -7.2335 -8.77 
-4.7025 -5.013 -6.0575 -8.7565 -9.363501 -11.826 -10.7025 -9.811001 -8.5015 -6.53 -11.9495 -10.304 
-6.522501 -6.949501 -10.1105 -12.2676 -15.3617 -14.6055 -11.362 -14.1436 -10.674 -13.3042 -15.02 
-8.464001 -10.4935 -13.6216 -18.2658 -18.1412 -15.265 -15.6946 -16.3161 -17.4482 -16.3747 
-3.9225 -3.1495 -3.17 -1.7565 -1.4985 -3.1385 -2.4945 -4.881 -1.7695 -2.8965 -4.2655 -3.433 -1.7565 -1.4985 -4.0415 -3.672 -2.3345 -1.4985 -4.1135 -4.9795 -3.5435 0 
-5.806 -6.884 -4.179 -2.4195 -4.2575 -4.588 -6.0815 -5.315 -4.497 -6.7665 -7.2535 -4.1845 -2.4195 -5.611501 -6.712501 -4.219 -3.233 -5.4345 -10.4675 -7.250501 -3.5435 
-9.019 -8.262501 -4.497 -5.013 -6.0575 -8.989 -6.3145 -7.545 -9.125501 -9.334001 -8.1435 -4.6515 -6.323 -7.470001 -7.1525 -4.9135 -7.107 -12.2873 -13.1017 -7.250501 
-10.223 -8.5885 -6.2035 -6.949501 -10.253 -9.538501 -8.887501 -10.335 -10.4115 -10.09 -8.5635 -8.917 -8.207001 -7.79 -7.48 -8.3125 -14.4896 -14.9215 -13.1017 
-10.4505 -10.575 -7.661 -11.2314 -10.8025 -12.2417 -11.7729 -11.621 -11.7063 -10.3295 -13.0422 -10.328 -8.547 -8.160501 -11.2072 -16.2611 -17.1238 -14.9215 
-2.9905 -1.7565 -3.277 0 -4.138 -3.1385 -3.251 -4.881 -2.985 -4.2655 -3.851 -1.7695 -3.5435 -4.1135 -1.756 -4.9795 -3.9075 0 
-3.6185 -4.25 -3.277 -4.138 -8.1505 -5.812 -7.234 -7.5845 -6.284 -8.393 -4.0015 -5.561501 -7.3055 -5.445 -6.628 -9.7705 -3.9075 
-6.205 -4.25 -8.068501 -8.1505 -11.2424 -9.820001 -9.008501 -10.513 -9.8585 -8.469501 -7.384 -9.284 -8.055 -10.7595 -11.8228 -9.7705 
-6.205 -9.43 -12.4052 -11.2424 -15.2504 -11.7061 -12.02 -14.0875 -9.902 -12.3252 -11.6517 -9.949 -14.2003 -15.9543 -11.8228 
-11.6694 -13.9363 -15.4971 -15.2504 -17.1365 -14.7176 -15.5945 -14.131 -13.7987 -16.5929 -12.3167 -16.1585 -19.3951 -15.9543 
