-4.759 
n/a 
n/a 
n/a 
n/a 
-4.759 
n/a 
n/a 
n/a 
n/a 
-4.759 
n/a 
n/a 
n/a 
n/a 
-4.759 
n/a 
n/a 
n/a 
n/a 
-3.1015 -3.333 -5.2565 -2.4945 -2.871 
-4.8695 -9.153501 -6.8465 -5.2405 
-11.1548 -10.6605 -9.97 
-12.6618 -13.784 
-15.7853 
-3.1015 0 -3.0365 -2.186 -3.098 -2.871 -3.545 0 
-3.1015 -3.0365 -3.66 -4.5535 -4.554 -6.581 -3.545 
-5.474 -3.66 -5.57 -5.568 -8.0495 -6.581 
-6.0325 -5.57 -5.7555 -9.075001 -8.0495 
-7.635 -5.7555 -9.1455 -9.075001 
-2.5045 -3.8825 -3.0365 -2.186 -3.098 -2.871 -3.545 
-5.282001 -6.326 -3.66 -4.5535 -4.554 -6.581 
-6.5295 -6.781 -5.57 -5.568 -8.0495 
-6.9015 -8.332001 -5.7555 -9.075001 
-8.385 -8.535001 -9.1455 
-5.235 -3.098 -3.545 -2.186 -3.0365 0 
-6.8665 -7.1555 -5.372 -4.5415 -3.0365 
-12.011 -9.703001 -7.926001 -4.5415 
-14.5585 -12.3322 -7.926001 
-17.1877 -12.3322 
