-4.759 
n/a 
n/a 
n/a 
n/a 
-4.759 
n/a 
n/a 
n/a 
n/a 
-4.759 
n/a 
n/a 
n/a 
n/a 
-4.759 
n/a 
n/a 
n/a 
n/a 
-8.137 -6.8485 
-15.5067 
n/a 
n/a 
n/a 
-1.4985 -3.777 -1.7565 -2.3615 -3.6515 -1.7695 -2.489 -6.249 -3.098 
-4.588 -4.411 -3.523 -6.393001 -3.9135 -3.1405 -9.750501 -9.308001 
-4.945 -5.6815 -7.6885 -6.699501 -4.621 -10.733 -13.1347 
-6.3295 -10.0995 -8.3455 -7.1235 -12.5607 -14.1172 
-10.9257 -10.8641 -9.3505 -15.593 -15.9449 
-2.4265 -3.335 -3.098 -1.4985 -5.673 
-6.222 -5.290501 -4.514 -7.3885 
-8.679501 -6.8215 -10.335 
-9.466001 -13.1713 
-15.9784 
-3.098 -1.4985 -4.7 -3.6185 -3.8755 -2.3345 -3.1435 0 
-4.514 -6.213 -10.007 -7.693501 -4.4955 -4.9865 -3.1435 
-10.01 -12.1152 -14.082 -8.224501 -7.513 -4.9865 
-15.994 -16.1902 -14.613 -11.5474 -7.513 
-20.069 -16.7212 -17.9359 -11.5474 
