-4.759 
n/a 
n/a 
n/a 
n/a 
-4.759 
n/a 
n/a 
n/a 
n/a 
-4.759 
n/a 
n/a 
n/a 
n/a 
-4.759 
n/a 
n/a 
n/a 
n/a 
-4.613 0 -12.16972 0 -5.943501 0 
-4.613 -12.16972 -12.16972 -5.943501 -5.943501 
-17.19452 -12.16972 -18.11322 -5.943501 
-17.19452 -18.11322 -18.11322 
-23.13802 -18.11322 
-4.613 0 -9.985001 
-4.613 -9.985001 
-15.0098 
n/a 
n/a 
-4.613 0 -9.985001 0 -5.943501 0 
-4.613 -9.985001 -9.985001 -5.943501 -5.943501 
-15.0098 -9.985001 -16.2505 -5.943501 
-15.0098 -16.2505 -16.2505 
-21.2753 -16.2505 
-4.613 0 -9.985001 0 -5.943501 0 
-4.613 -9.985001 -9.985001 -5.943501 -5.943501 
-15.0098 -9.985001 -16.2505 -5.943501 
-15.0098 -16.2505 -16.2505 
-21.2753 -16.2505 
