-4.759 
n/a 
n/a 
n/a 
n/a 
-4.759 
n/a 
n/a 
n/a 
n/a 
-4.759 
n/a 
n/a 
n/a 
n/a 
-4.759 
n/a 
n/a 
n/a 
n/a 
-2.0935 -3.3785 -4.0535 -1.756 -3.074 -4.4715 -3.2955 -5.9325 -3.535 -3.602 -2.7415 -3.436 -1.4985 -4.752 -4.153 -3.8405 
-5.2445 -5.451 -5.2895 -4.566 -7.5915 -6.646 -9.838 -10.2595 -6.246 -5.934501 -5.909 -4.213 -5.684 -5.6225 -7.8605 
-6.837501 -7.341001 -8.175 -9.164001 -9.6505 -13.6185 -14.1816 -12.9705 -7.698 -9.342001 -6.524 -8.151 -6.09 -8.758 
-8.444 -9.905001 -13.0086 -11.3206 -16.6218 -17.9621 -16.8926 -14.4225 -10.485 -9.825001 -10.6316 -8.507 -9.5795 
-11.2526 -14.9886 -15.1652 -18.2919 -20.9654 -20.6731 -18.3446 -17.2095 -12.1804 -14.2176 -10.9876 -12.1721 
-1.4985 -3.8825 -3.989 -2.9705 -2.4945 -3.2955 -2.0935 -3.3785 -2.9645 -1.756 -3.8225 -2.9645 -3.8755 -3.436 -4.752 -4.153 0 
-4.569 -7.09 -6.483 -4.302 -4.6305 -4.307 -5.2445 -6.1125 -4.5135 -5.6485 -6.280001 -7.622001 -6.609 -8.5425 -5.6225 -4.153 
-9.2335 -9.638 -7.4375 -6.081 -5.574501 -6.9715 -6.654 -7.4245 -8.443501 -7.859 -11.6509 -10.9039 -12.2855 -9.812 -5.6225 
-11.8831 -10.376 -9.6475 -6.9375 -8.314501 -9.533501 -7.751 -11.9091 -8.7025 -13.6603 -14.9328 -16.5804 -13.555 -9.812 
-12.6211 -12.586 -10.803 -9.509501 -10.9007 -10.5755 -12.5724 -12.1681 -15.7074 -16.9422 -20.6093 -17.8499 -13.555 
-1.934 -3.106 -4.153 -1.4985 -5.31 -5.2875 -4.0875 -3.519 -3.2295 -4.142 -3.8005 -1.756 -7.1315 -2.5195 -1.4985 -4.0905 -5.2875 0 -2.9705 -4.339 -3.1435 -3.9515 -1.7695 -5.9285 
-5.8225 -7.766001 -5.544001 -7.4455 -7.604501 -8.792001 -6.966001 -5.813 -6.993 -6.8745 -5.2495 -8.976 -9.938001 -3.1695 -5.042 -7.019001 -5.2875 -2.9705 -7.05 -6.8135 -6.321 -5.884 -7.613 
-8.727 -9.3935 -10.6465 -8.1485 -11.687 -9.938001 -9.295501 -9.9405 -9.005501 -7.973001 -10.7175 -10.75 -10.527 -7.0075 -7.4825 -7.019001 -7.5915 -7.05 -8.697001 -8.998501 -7.963 -10.243 
-10.5975 -14.5156 -10.7785 -12.3188 -12.833 -12.5017 -13.566 -10.455 -9.828501 -10.7575 -12.4915 -10.788 -14.365 -8.6785 -7.4825 -9.337501 -10.5325 -8.697001 -10.575 -9.284 -10.66 
-15.7196 -14.6476 -14.9488 -13.4648 -15.3967 -16.7722 -14.0805 -10.776 -10.7615 -12.5315 -12.5295 -14.626 -16.036 -8.6785 -9.566501 -12.3885 -10.766 -10.575 -10.7065 -10.661 
-3.3785 -4.1085 -1.756 -4.4755 -4.079 -1.7695 -4.571 -2.7455 -2.3335 -3.106 -4.153 0 
-8.198001 -6.1375 -5.784 -9.239 -5.261 -7.697001 -7.516 -4.9975 -6.58 -7.766001 -4.153 
-10.66 -10.316 -10.078 -10.7244 -12.1059 -11.5 -10.4528 -8.171 -11.722 -7.766001 
-14.8385 -14.8964 -11.6118 -17.5693 -15.9089 -14.4368 -13.6263 -13.8656 -11.722 
-19.4189 -16.4302 -18.4567 -21.3723 -18.8457 -17.6103 -19.3209 -13.8656 
