-4.759 
n/a 
n/a 
n/a 
n/a 
-4.759 
n/a 
n/a 
n/a 
n/a 
-4.759 
n/a 
n/a 
n/a 
n/a 
-4.759 
n/a 
n/a 
n/a 
n/a 
-3.321 -2.9805 -3.9535 0 -7.539001 -5.74 0 -3.852 -3.7285 -6.3495 -2.5045 -2.871 -3.6385 0 
-5.175 -5.607 -3.9535 -7.539001 -9.153001 -5.74 -3.852 -7.9635 -6.389 -8.6745 -4.7085 -5.371 -3.6385 
-7.248 -5.607 -12.6803 -9.153001 -9.153001 -11.0145 -7.9635 -10.243 -9.0435 -10.533 -7.3015 -5.371 
-7.248 -15.0268 -14.2943 -9.153001 -14.5717 -15.126 -10.243 -13.1181 -10.758 -13.126 -7.3015 
-16.7928 -16.6408 -14.2943 -14.5717 -18.6832 -17.4055 -13.1181 -14.8326 -13.351 -13.126 
-3.321 -2.9805 -3.9535 -1.8085 -3.688 -3.852 -3.849 -7.539001 -5.74 0 0 -3.9535 -1.7695 -5.344 -1.4985 -3.331 -2.0935 -4.2775 -3.1715 0 
-5.175 -5.607 -5.581 -5.1035 -7.3005 -6.898001 -10.1725 -9.153001 -5.74 0 -3.9535 -5.098001 -5.803 -5.890501 -4.514 -4.464 -6.4785 -7.104 -3.1715 
-7.248 -7.0505 -8.745501 -8.8835 -11.4033 -13.3631 -10.5205 -9.153001 -5.74 -3.9535 -5.098001 -9.038501 -6.337 -7.126 -4.776 -7.422 -8.8 -7.104 
-9.025001 -10.071 -12.6949 -13.1751 -17.8684 -13.7111 -10.5205 -9.153001 -9.9615 -5.098001 -9.038501 -9.493001 -7.747001 -7.349501 -7.5915 -10.264 -8.8 
-12.0807 -14.0204 -16.9865 -19.6402 -18.2164 -13.7111 -10.5205 -13.5187 -11.1932 -9.038501 -9.493001 -10.4125 -7.941501 -10.331 -10.4415 -10.264 
-1.4985 -2.9805 -3.9535 -7.539001 -5.74 -2.264 -3.091 -3.5205 0 -2.9705 -4.1635 -7.727 -4.1635 -1.7565 -7.539001 -5.74 
-6.2655 -5.607 -12.6803 -9.153001 -8.252001 -4.534 -4.613 -3.5205 -2.9705 -7.163501 -13.0549 -12.2945 -6.048 -9.3245 -9.153001 
-9.123501 -15.0268 -14.2943 -11.8092 -10.7335 -5.7345 -4.613 -6.7585 -7.163501 -16.5473 -17.6224 -14.179 -14.1114 -10.219 
-18.6991 -16.6408 -16.9505 -14.2907 -11.934 -5.7345 -7.5975 -11.3381 -16.5473 -21.1148 -19.5069 -22.2424 -15.0059 
-20.3131 -19.297 -19.432 -15.4912 -11.934 -8.441501 -12.3055 -20.7219 -21.1148 -22.9993 -27.5703 -23.1369 
-3.321 -2.9805 -3.251 -3.9535 -2.688 -4.378 -4.281 -9.982 0 -9.982 -2.8645 -3.1125 -3.9535 -1.7695 -5.6055 -1.4985 -4.2775 -3.59 0 
-5.175 -4.429 -6.0795 -6.884501 -7.7165 -8.4575 -14.5796 -9.982 -9.982 -13.1627 -3.5345 -6.375 -5.098001 -6.012001 -6.6405 -5.9045 -7.607 -3.59 
-6.9415 -7.24 -9.504001 -12.559 -12.1006 -18.9261 -14.5796 -20.2802 -13.1627 -13.8327 -6.69 -7.837501 -8.6315 -6.9585 -11.5015 -9.3465 -7.607 
-9.699 -10.8549 -15.2185 -16.9431 -22.5692 -18.9261 -24.8778 -23.4609 -13.8327 -16.9882 -8.0555 -11.7658 -9.5485 -11.8999 -14.9435 -9.3465 
-13.3697 -16.5694 -19.6026 -27.4117 -22.5692 -29.2243 -28.0585 -24.1309 -16.9882 -18.3537 -12.0428 -12.6828 -14.5253 -15.3419 -14.9435 
