-4.759 
n/a 
n/a 
n/a 
n/a 
-4.759 
n/a 
n/a 
n/a 
n/a 
-4.759 
n/a 
n/a 
n/a 
n/a 
-4.759 
n/a 
n/a 
n/a 
n/a 
-1.4985 -4.0275 -3.824 -2.7455 -1.4985 -6.4925 -9.3085 
-5.5935 -8.864 -6.3995 -3.637 -8.087001 -10.147 
-9.8085 -11.6875 -6.98 -10.5035 -12.0607 
-12.7196 -12.268 -14.0263 -14.4772 
-13.3001 -19.3143 -18 
-3.8805 -5.1995 -3.396 -2.5195 -3.3715 0 
-8.774 -9.488501 -5.931 -5.5385 -3.3715 
-14.2044 -12.1943 -9.655001 -5.5385 
-16.9102 -15.9183 -9.655001 
-20.6342 -15.9183 
-4.3925 -2.264 -6.4925 -5.1995 
-5.5835 -9.132501 -8.495501 
-12.718 -10.2095 
-13.795 
n/a 
-1.4985 -4.77 -5.035 -1.7565 -6.4925 -5.1995 0 
-6.573501 -10.1595 -6.591001 -8.237 -8.495501 -5.1995 
-12.9468 -11.8767 -13.4235 -9.5775 -8.495501 
-14.664 -18.7092 -14.764 -9.5775 
-21.4965 -20.0497 -14.764 
