-4.759 
n/a 
n/a 
n/a 
n/a 
-4.759 
n/a 
n/a 
n/a 
n/a 
-4.759 
n/a 
n/a 
n/a 
n/a 
-4.759 
n/a 
n/a 
n/a 
n/a 
-1.8085 -3.355 -1.7565 -5.1845 -4.02 -4.077 -1.934 -4.388 
-4.6195 -3.725 -6.580501 -8.144 -8.0295 -4.43 -5.8095 
-4.725 -9.0275 -9.854501 -12.4925 -8.2895 -7.673501 
-10.034 -12.7663 -14.2032 -12.7525 -9.424 
-13.4698 -17.115 -14.4632 -13.887 
-1.8085 -4.0005 -4.4345 -1.7565 -3.1385 -2.4945 -4.077 -4.196 -1.934 -4.388 0 
-4.751 -6.6525 -4.719 -4.388 -4.588 -5.416 -8.592001 -6.1155 -5.8095 -4.388 
-6.672 -6.788001 -6.56 -5.892 -7.118501 -9.636001 -9.030001 -10.7232 -5.8095 
-6.804 -8.385 -8.201 -8.0795 -11.4291 -9.809001 -13.8241 -10.7232 
-8.393001 -9.6625 -10.717 -12.4903 -11.6021 -14.6735 -13.8241 
-3.9225 -6.557 -2.229 -4.02 0 -4.926 -3.893 -1.7565 -3.1385 -3.152 -1.934 -4.388 0 
-11.7093 -9.0895 -5.6085 -4.02 -4.926 -6.212 -4.1785 -4.388 -5.219 -4.9115 -5.8095 -4.388 
-14.2418 -12.6766 -5.6085 -9.227501 -6.212 -6.2455 -6.656 -6.524001 -6.9215 -8.935 -5.8095 
-17.8289 -12.6766 -10.647 -10.6321 -6.2455 -9.06 -9.214001 -8.090501 -11.4384 -8.935 
-17.8289 -17.7151 -12.0516 -10.6656 -9.06 -11.6784 -10.635 -12.909 -11.4384 
-4.657 -2.4945 -1.934 -5.2875 -4.0145 -1.934 -6.557 -4.46 0 
-6.281 -4.2645 -8.475 -9.984001 -5.479 -7.536 -11.7064 -4.46 
-8.126 -11.5245 -13.2749 -11.6137 -11.639 -12.9332 -11.7064 
-15.763 -16.3244 -14.9046 -17.7737 -17.0362 -12.9332 
-20.5629 -17.9541 -21.0646 -23.1709 -17.0362 
