-4.759 
n/a 
n/a 
n/a 
n/a 
-4.759 
n/a 
n/a 
n/a 
n/a 
-4.759 
n/a 
n/a 
n/a 
n/a 
-4.759 
n/a 
n/a 
n/a 
n/a 
-6.648 -2.871 -1.7565 -1.4985 -12.16972 0 
-10.1595 -3.5385 -2.4195 -14.76202 -12.16972 
-10.3115 -3.7675 -15.87382 -14.76202 
-10.485 -18.03562 -15.87382 
-24.75312 -18.03562 
-6.648 -2.186 -2.871 -1.7565 -1.4985 -4.789 -3.8905 
-8.585501 -4.247 -3.5385 -2.4195 -5.956 -9.344 
-10.4425 -4.411 -3.7675 -6.8785 -9.887501 
-10.473 -4.5655 -8.806001 -10.66 
-10.6255 -10.1675 -12.7255 
-10.9655 -9.763 -2.5045 -3.54 -5.0715 
-20.7285 -12.3531 -6.0935 -7.644501 
-23.3186 -15.9421 -9.632501 
-26.9076 -19.4811 
-30.4466 
-2.871 -1.7565 -1.4985 -3.54 -5.0715 -2.186 -4.3055 -6.341 
-3.5385 -2.4195 -4.529 -7.644501 -7.2655 -6.631001 -7.64 
-3.7675 -5.1905 -8.4545 -9.6085 -11.9829 -9.6175 
-5.985 -9.041 -10.7175 -14.3911 -14.9694 
-9.6955 -11.3634 -15.5001 -17.3776 
