-4.759 
n/a 
n/a 
n/a 
n/a 
-4.759 
n/a 
n/a 
n/a 
n/a 
-4.759 
n/a 
n/a 
n/a 
n/a 
-4.759 
n/a 
n/a 
n/a 
n/a 
-3.4605 -3.509 -2.7455 -1.4985 -5.3885 -3.8145 
-6.952001 -5.192 -3.637 -7.283501 -8.8485 
-8.934 -5.7085 -9.8085 -9.8915 
-9.521501 -10.757 -12.4165 
-14.674 -13.365 
-3.4605 -2.0935 -5.3885 0 -3.5015 0 -3.8145 
-5.0435 -7.7675 -5.3885 -3.5015 -3.5015 -3.8145 
-11.3065 -7.7675 -9.5725 -3.5015 -7.855 
-11.3065 -12.3001 -9.5725 -7.855 
-15.8391 -12.3001 -14.3604 
-3.4605 -8.0695 -5.3885 -3.8145 
-10.862 -13.8912 -8.8485 
-16.6837 -17.3512 
-20.1437 
n/a 
-5.3885 -3.8145 -3.4605 
-8.8485 -6.835 
-10.329 
n/a 
n/a 
