-4.759 
n/a 
n/a 
n/a 
n/a 
-4.759 
n/a 
n/a 
n/a 
n/a 
-4.759 
n/a 
n/a 
n/a 
n/a 
-4.759 
n/a 
n/a 
n/a 
n/a 
-4.2815 -1.756 -3.691 -3.2615 -3.5085 -3.873 -3.676 -1.756 -3.8005 -3.183 -3.135 -3.299 -3.2495 -3.188 -3.859 -2.4285 -4.4145 -3.6135 -3.59 0 
-5.558001 -5.031 -7.095 -7.125 -6.6845 -7.918 -5.0365 -5.53 -7.428 -5.6955 -6.165501 -7.4045 -6.4605 -7.5115 -6.360001 -6.5725 -8.2885 -6.519 -3.59 
-7.876 -8.299 -11.3101 -11.069 -11.5755 -9.505 -7.6055 -8.746 -10.553 -8.973001 -10.9894 -10.9931 -12.0006 -10.76 -6.6565 -10.31 -11.604 -6.519 
-10.6095 -12.6637 -15.2541 -15.96 -13.1625 -12.1446 -10.1035 -12.0142 -13.8305 -14.0381 -14.578 -16.5332 -15.2491 -11.0565 -10.328 -13.9673 -11.604 
-14.9742 -16.6077 -20.1451 -17.547 -15.8021 -14.6426 -13.9951 -15.2917 -18.8956 -17.6267 -20.1181 -19.7817 -15.5456 -14.728 -14.0089 -13.9673 
-3.2615 -4.2815 -1.756 -3.691 0 -1.934 -3.275 -1.7565 -3.5085 -3.873 -3.4425 0 -1.4985 -2.791 -2.186 -3.183 -3.7515 -2.4285 -3.6845 -3.8005 0 -4.138 -3.4625 -1.4985 -3.859 -1.7565 -4.4145 -4.1735 -1.934 -1.4985 -3.188 
-7.399 -5.558001 -5.031 -3.691 -1.934 -4.519 -3.5505 -5.016 -6.6845 -6.015 -3.4425 -1.4985 -4.3645 -5.4535 -4.533 -6 -5.687 -5.6635 -8.203501 -3.8005 -4.138 -7.017 -4.914 -4.4795 -5.23 -6.534 -6.417 -6.0375 -2.6125 -3.619 
-8.183001 -7.876 -5.031 -5.816501 -4.519 -4.531 -6.9795 -7.631501 -6.9535 -6.015 -5.1395 -4.3645 -6.0495 -7.573501 -7.4595 -8.186001 -6.37 -10.0475 -8.203501 -7.981501 -7.017 -8.320001 -7.4085 -6.573 -8.666 -9.508 -7.7145 -6.2825 -4.377 
-8.514001 -7.876 -6.954 -8.140501 -4.531 -6.983 -9.5175 -7.815501 -6.9535 -7.7665 -8.4645 -6.0495 -8.287001 -10.8006 -9.706 -8.4315 -10.1675 -10.0475 -12.6869 -11.0147 -8.320001 -10.4945 -9.150001 -9.074501 -11.7618 -11.1941 -7.928 -6.665 
-8.514001 -9.532001 -9.197001 -8.1435 -6.983 -9.5165 -9.6785 -7.815501 -8.511001 -10.4855 -9.882501 -8.287001 -11.8195 -13.0471 -10.192 -10.2085 -10.1675 -15.0087 -15.7201 -12.3177 -10.4945 -12.236 -11.8505 -12.2897 -13.4479 -11.4076 -8.2755 
-2.356 -4.693 -4.686 -1.756 -4.4315 -4.9625 0 -1.4985 -4.7575 -2.674 -3.849 -3.6885 -3.9075 -5.6565 -2.3335 -5.029 -1.4985 -5.5025 -1.4985 -4.1735 -3.9075 -4.807 -1.934 -3.502 -3.676 -2.186 -2.3335 -1.7565 -1.4985 -3.982 0 -2.9705 -2.8645 -1.4985 -4.1925 -3.957 -4.1705 -1.7565 -2.9995 -3.9075 -2.264 -3.995 0 
-7.1855 -7.4705 -5.7295 -5.904 -8.168001 -4.9625 -1.4985 -5.355 -7.894 -5.656 -6.3475 -7.1305 -6.540501 -7.615001 -7.149501 -6.3215 -6.737 -7.058 -4.445 -7.443501 -5.594501 -6.498 -4.8155 -4.945 -5.5015 -3.9765 -4.618 -2.4195 -5.661 -3.982 -2.9705 -4.6335 -4.3545 -4.4615 -7.1425 -7.132501 -5.2045 -4.063 -7.5235 -6.301001 -4.972 -3.995 
-9.943001 -8.335001 -9.420501 -9.818001 -8.168001 -6.868 -5.355 -7.962501 -10.609 -8.226501 -9.2845 -8.2395 -8.611 -9.210001 -7.865001 -10.7025 -8.176001 -9.603001 -7.8345 -8.7535 -7.1715 -8.312 -6.049 -7.305 -7.499001 -5.726 -5.106 -6.385 -5.661 -7.5465 -4.6335 -5.946001 -6.156 -7.4055 -10.4425 -8.463501 -8.118 -8.113501 -9.639501 -8.059501 -4.972 
-10.579 -10.564 -10.587 -9.818001 -9.257501 -10.7025 -7.962501 -10.688 -13.1795 -11.2651 -9.476501 -10.118 -9.955501 -10.2435 -12.6468 -12.1415 -10.8636 -12.9925 -9.2165 -9.0905 -9.038501 -8.905001 -7.949 -9.291 -8.7155 -6.323 -8.986 -6.385 -8.480501 -8.6685 -5.946001 -7.528 -9.032001 -10.485 -11.7735 -10.597 -9.194 -10.0475 -10.1965 -8.059501 
-10.7825 -10.778 -10.587 -10.65 -10.75 -13.31 -10.688 -13.2585 -16.2181 -11.4571 -10.7515 -10.7555 -10.6255 -15.0253 -14.0858 -14.8291 -14.2531 -14.3745 -9.415501 -10.404 -9.530001 -9.995001 -9.740001 -10.139 -9.542001 -10.5325 -8.986 -9.096001 -9.684001 -9.84 -7.528 -10.1675 -12.5055 -11.816 -13.907 -10.7785 -12.0772 -10.6525 -10.1965 
-3.2615 -4.2815 -1.756 -3.691 0 -3.676 -2.8645 -1.8085 -3.5085 -3.873 -3.4425 -3.183 -2.645 -3.1575 -2.4285 -3.689 -3.1575 -3.8005 -1.756 -2.4265 -2.186 -1.4985 -3.188 -2.229 -3.859 -2.4285 -4.4145 -4.1735 -4.1265 0 
-7.399 -5.558001 -5.031 -3.691 -3.676 -5.929501 -3.9785 -4.6755 -6.6845 -6.015 -6.4785 -6.162 -3.72 -5.620501 -4.762 -4.168 -7.2 -5.2495 -3.949 -3.292 -3.339 -3.619 -4.279 -5.6585 -6.360001 -6.5725 -6.417 -7.84 -4.1265 
-8.183001 -7.876 -5.031 -7.554 -5.929501 -7.13 -6.3585 -7.7375 -6.9535 -9.561501 -9.85 -7.1465 -7.5085 -7.4535 -5.9455 -9.0385 -8.167001 -7.562 -4.7355 -4.5995 -4.9385 -4.3695 -6.789001 -8.503 -6.6565 -8.7235 -9.243501 -7.84 
-8.514001 -7.876 -9.352 -10.0405 -7.13 -9.983001 -8.269501 -7.8125 -10.5035 -13.1254 -10.546 -11.3018 -8.306001 -7.4635 -11.1658 -10.017 -10.0855 -8.154 -6.074 -6.988 -4.97 -6.8415 -9.4855 -8.686 -8.735001 -10.038 -9.243501 
-8.514001 -12.5734 -10.362 -11.4464 -9.983001 -11.8344 -8.323 -12.5959 -14.0674 -13.8214 -14.7013 -12.0993 -8.33 -13.031 -12.1443 -12.0151 -10.604 -9.285501 -8.58 -7.114501 -7.534 -9.489501 -9.506001 -9.426001 -10.0375 -10.038 
