-4.759 
n/a 
n/a 
n/a 
n/a 
-4.759 
n/a 
n/a 
n/a 
n/a 
-4.759 
n/a 
n/a 
n/a 
n/a 
-4.759 
n/a 
n/a 
n/a 
n/a 
-1.4985 -4.344 -5.825 -2.4945 -5.605 0 -6.0475 0 -4.351 -5.825 0 -5.1585 0 -6.8005 0 -6.209 -1.756 -5.247 
-4.9795 -9.9645 -7.469 -8.558001 -5.605 -6.0475 -6.0475 -4.351 -6.9505 -5.825 -5.1585 -5.1585 -6.8005 -6.8005 -6.209 -7.467 -6.6105 
-10.2135 -10.591 -10.5035 -8.558001 -7.748001 -6.0475 -8.922501 -6.9505 -6.9505 -9.773001 -5.1585 -8.8695 -6.8005 -9.6745 -7.467 -9.031 
-10.6055 -10.6215 -10.5035 -9.8085 -7.748001 -8.922501 -10.0575 -6.9505 -9.9615 -9.773001 -8.8695 -8.8695 -9.6745 -10.006 -9.031 
-10.637 -10.6215 -10.5905 -9.8085 -9.614 -10.0575 -10.0575 -9.9615 -9.9615 -10.0475 -8.8695 -9.845 -10.006 -10.288 
-3.9225 -3.277 -3.699 -5.825 -2.4945 -5.605 0 -6.0475 0 -4.986 0 -6.8005 0 -6.209 -1.756 -5.247 0 
-5.4525 -7.448 -9.9355 -7.469 -8.558001 -5.605 -6.0475 -6.0475 -4.986 -4.986 -6.8005 -6.8005 -6.209 -7.467 -6.6105 -5.247 
-9.6075 -13.9821 -11.6275 -10.5035 -8.558001 -7.748001 -6.0475 -9.096001 -4.986 -10.3225 -6.8005 -9.6745 -7.467 -9.031 -6.6105 
-16.1416 -15.6741 -14.662 -10.5035 -9.8085 -7.748001 -9.096001 -9.096001 -10.3225 -10.3225 -9.6745 -10.006 -9.031 -9.031 
-17.8336 -18.7086 -14.662 -10.5905 -9.8085 -9.8745 -9.096001 -15.0525 -10.3225 -13.1965 -10.006 -10.288 -9.031 
-2.3615 -3.711 -3.0835 -5.825 -5.605 0 -6.0475 0 -4.351 -5.1245 0 -4.986 0 -6.8005 0 -6.209 -3.321 -5.247 
-7.2665 -7.160501 -10.419 -9.116501 -5.605 -6.0475 -6.0475 -4.351 -6.518001 -5.1245 -4.986 -4.986 -6.8005 -6.8005 -6.209 -9.790501 -9.186501 
-10.3675 -14.9922 -13.7105 -9.116501 -7.748001 -6.0475 -8.922501 -6.518001 -6.518001 -7.9395 -4.986 -10.3225 -6.8005 -9.6745 -9.790501 -15.726 
-18.1992 -18.2837 -13.7105 -10.452 -7.748001 -8.922501 -9.6555 -6.518001 -9.336 -7.9395 -10.3225 -10.3225 -9.6745 -13.814 -15.726 
-21.4907 -18.2837 -15.046 -10.452 -9.614 -9.6555 -9.6555 -9.336 -9.336 -14.2672 -10.3225 -13.1965 -13.814 -19.7495 
-2.5195 -3.1495 -1.4985 -3.17 -3.699 -5.825 -2.4945 -5.605 0 -6.0475 0 -4.351 -5.1245 0 -4.986 0 -5.4015 0 -5.3575 -1.756 -5.247 0 
-5.0805 -5.949 -3.7115 -4.663 -9.9355 -7.469 -8.558001 -5.605 -6.0475 -6.0475 -4.351 -6.518001 -5.1245 -4.986 -4.986 -5.4015 -5.4015 -5.3575 -6.6675 -6.6105 -5.247 
-7.605 -7.409501 -4.8395 -10.5035 -11.6275 -10.5035 -8.558001 -7.748001 -6.0475 -8.922501 -6.518001 -6.518001 -7.9395 -4.986 -6.6925 -5.4015 -7.402 -6.6675 -10.6875 -6.6105 
-9.5635 -8.219501 -10.7595 -12.1955 -14.662 -10.5035 -9.8085 -7.748001 -8.922501 -9.6555 -6.518001 -9.336 -7.9395 -6.6925 -6.6925 -7.402 -7.997001 -10.6875 -10.6875 
-10.461 -14.6321 -12.4515 -15.23 -14.662 -10.5905 -9.8085 -9.614 -9.6555 -9.6555 -9.336 -9.336 -10.0645 -6.6925 -7.938 -7.997001 -12.6522 -10.6875 
