-4.759 
n/a 
n/a 
n/a 
n/a 
-4.759 
n/a 
n/a 
n/a 
n/a 
-4.759 
n/a 
n/a 
n/a 
n/a 
-4.759 
n/a 
n/a 
n/a 
n/a 
-3.524 -3.143 0 -8.894501 -3.6505 
-5.45 -3.143 -8.894501 -13.1288 
-5.45 -12.5371 -13.1288 
-15.9625 -16.7714 
-20.1968 
-3.524 -3.143 -8.894501 -4.1985 
-5.45 -12.5371 -13.6768 
-15.9625 -17.3194 
-20.7448 
n/a 
-3.524 -3.143 0 -8.894501 -3.6505 0 
-5.45 -3.143 -8.894501 -13.1288 -3.6505 
-5.45 -12.5371 -13.1288 -13.1288 
-15.9625 -16.7714 -13.1288 
-20.1968 -16.7714 
-3.524 -3.143 0 -3.772 -1.7565 -8.894501 
-5.45 -3.143 -3.772 -5.153 -11.1415 
-5.45 -8.166 -5.153 -15.1084 
-11.5914 -9.329 -15.1084 
-12.7544 -19.4926 
