-4.759 
n/a 
n/a 
n/a 
n/a 
-4.759 
n/a 
n/a 
n/a 
n/a 
-4.759 
n/a 
n/a 
n/a 
n/a 
-4.759 
n/a 
n/a 
n/a 
n/a 
-9.684 0 -7.513 0 -6.8 -2.4945 -3.091 -3.54 -3.5385 0 
-9.684 -7.513 -7.513 -6.8 -10.0965 -6.025001 -6.1375 -5.8695 -3.5385 
-17.4034 -7.513 -15.0906 -10.0965 -13.627 -8.684501 -7.278 -5.8695 
-17.4034 -15.0906 -18.3871 -13.627 -16.2865 -9.687 -7.278 
-24.981 -18.3871 -21.9176 -16.2865 -17.289 -9.687 
-2.8645 -2.461 -3.5385 -3.098 -2.186 -9.467 0 -6.683 0 -6.5785 
-5.996 -5.971001 -7.131001 -4.7005 -12.8634 -9.467 -6.683 -6.683 -6.5785 
-7.967 -9.699 -9.956 -15.4331 -12.8634 -16.2092 -6.683 -10.523 
-11.7824 -12.524 -20.9906 -15.4331 -19.6056 -16.2092 -10.523 
-14.6074 -23.5586 -20.9906 -22.1753 -19.6056 -20.0492 
-2.9805 -2.8645 -3.54 -3.5385 -9.635501 0 -7.917 -1.756 -4.1365 0 
-4.3245 -5.672 -5.8695 -14.253 -9.635501 -7.917 -9.631001 -6.7705 -4.1365 
-7.179 -7.1325 -16.9092 -14.253 -17.7539 -9.631001 -14.7993 -6.7705 
-8.021501 -18.4314 -16.9092 -22.3714 -19.4679 -14.7993 -14.7993 
-19.4342 -18.4314 -25.0276 -24.0854 -24.6362 -14.7993 
-2.9805 -2.674 -3.54 -5.1475 -3.098 -2.5045 -9.635501 0 -8.697001 0 -4.1365 
-5.96 -5.6905 -9.1785 -8.7585 -5.4315 -13.0574 -9.635501 -8.697001 -8.697001 -4.1365 
-8.979 -10.564 -12.8507 -11.5552 -16.487 -13.0574 -18.5339 -8.697001 -13.1667 
-14.2399 -14.2362 -15.6474 -22.6107 -16.487 -21.9558 -18.5339 -13.1667 
-17.9121 -17.0329 -26.7029 -22.6107 -25.3854 -21.9558 -23.0036 
