-4.759 
n/a 
n/a 
n/a 
n/a 
-4.759 
n/a 
n/a 
n/a 
n/a 
-4.759 
n/a 
n/a 
n/a 
n/a 
-4.759 
n/a 
n/a 
n/a 
n/a 
-1.4985 -4.8035 -1.7565 -1.4985 -3.7805 -4.6985 -2.186 -4.2875 -3.1575 -3.9875 0 
-6.035 -5.676 -2.4195 -4.8195 -8.3135 -6.187 -6.3995 -7.846001 -7.355501 -3.9875 
-6.437 -6.0855 -5.859 -9.2425 -10.298 -9.495501 -9.7635 -12.4784 -7.355501 
-6.7725 -9.856501 -10.4675 -10.758 -13.6065 -13.1163 -14.6813 -12.4784 
-10.0465 -14.5766 -11.983 -14.0665 -17.2273 -18.0341 -14.6813 
-4.1625 -4.445 -2.229 -4.7885 -4.35 -2.186 -5.0405 -3.1575 -4.622 -4.35 
-9.17 -7.285 -6.6485 -6.498 -5.8735 -6.972501 -6.349 -8.144001 -6.8645 
-12.171 -12.1171 -8.272 -7.781001 -10.27 -7.3855 -11.8689 -10.6215 
-17.0031 -13.7406 -9.408501 -12.3899 -10.5625 -13.1706 -14.3464 
-18.6266 -14.8771 -14.1354 -12.6824 -17.0468 -15.6481 
-3.7805 -3.7345 -4.7885 -4.35 -4.2875 -2.5045 -4.622 -4.35 
-7.5835 -7.621 -6.498 -8.9455 -6.547 -7.411 -6.8645 
-11.9376 -10.7175 -10.76 -11.4572 -12.1501 -9.627001 
-15.0341 -14.9795 -13.2717 -17.0603 -14.3661 
-19.2961 -17.4912 -18.8748 -19.2763 
-4.7885 -4.983 -2.4945 -3.383 -4.13 
-9.383 -6.5395 -4.732 -5.659 
-10.689 -8.5155 -7.423 
-12.665 -11.7403 
-15.8898 
