-4.759 
n/a 
n/a 
n/a 
n/a 
-4.759 
n/a 
n/a 
n/a 
n/a 
-4.759 
n/a 
n/a 
n/a 
n/a 
-4.759 
n/a 
n/a 
n/a 
n/a 
-3.402 -2.264 -1.4985 -4.7125 -1.7565 -1.4985 -3.664 -6.5825 -1.756 -4.5195 -4.3435 -1.7565 -2.985 -4.1645 0 -1.4985 -4.4965 -4.401 -2.742 -3.4625 0 
-3.793 -2.9195 -5.7005 -5.316 -2.4195 -5.285501 -10.4945 -7.762001 -6.0725 -8.661 -5.325 -3.9355 -6.473001 -4.1645 -1.4985 -5.4095 -9.9305 -6.76 -5.367001 -3.4625 
-4.34 -7.015501 -5.847 -6.1115 -6.114501 -12.8016 -11.674 -12.5243 -10.1425 -9.3475 -7.739 -7.274001 -6.473001 -5.9415 -5.4095 -11.7665 -12.4157 -9.631001 -5.367001 
-8.935 -7.1035 -6.7105 -10.4873 -13.8842 -13.9811 -16.4363 -16.5943 -10.466 -12.0577 -11.4011 -7.274001 -7.817 -10.2485 -11.7665 -14.2517 -15.2867 -9.631001 
-9.354501 -7.969501 -11.1243 -18.257 -15.0637 -18.7434 -20.5063 -16.9178 -13.906 -15.7198 -11.4011 -8.4735 -12.3436 -16.6611 -14.2517 -17.1227 -15.2867 
-4.4985 -3.893 -1.4985 -3.974 -2.264 -2.8965 -4.1145 -3.664 0 -1.4985 -5.2175 -4.667 -2.742 -2.489 -3.0365 -1.756 -4.4985 -3.893 -3.043 -2.985 -2.9825 -2.186 -3.864 0 -1.4985 -4.667 -1.7565 -1.4985 -6.603 -2.742 -2.489 -3.0365 0 
-5.606 -4.573 -4.772 -4.8545 -5.068501 -7.2895 -7.5 -3.664 -1.4985 -6.697001 -10.9075 -7.1855 -3.301 -5.1315 -4.927 -6.285 -5.606 -6.509501 -5.815001 -5.7355 -4.449 -5.646501 -3.864 -1.4985 -5.8725 -5.531 -2.4195 -7.849501 -9.205501 -3.301 -5.1315 -3.0365 
-5.874001 -8.182 -6.115 -6.989 -9.208501 -9.2325 -7.5 -5.5385 -6.697001 -12.8414 -13.426 -7.666501 -5.8575 -6.4915 -8.8625 -7.405 -6.870501 -8.962 -8.494 -7.286 -8.172501 -5.646501 -6.251 -5.8725 -5.9155 -6.2115 -9.137 -10.494 -9.817 -5.8575 -5.1315 
-9.415001 -9.797501 -8.283001 -11.593 -11.5275 -9.2325 -9.623501 -11.319 -12.8414 -15.3599 -13.907 -10.7175 -7.274 -10.7025 -10.575 -8.784 -9.679501 -11.7088 -9.184 -11.3671 -8.172501 -7.052001 -10.4265 -5.9155 -6.601 -13.4706 -11.8119 -11.1055 -12.3735 -5.8575 
-10.9703 -11.9673 -13.0124 -13.912 -11.5275 -11.6804 -15.7348 -17.4634 -15.3599 -15.8409 -16.958 -12.134 -11.7018 -12.1742 -11.954 -11.3606 -12.4263 -12.3988 -13.5481 -11.3671 -9.696501 -11.4841 -10.577 -6.601 -13.9463 -16.1455 -12.4234 -13.662 -12.3735 
-4.1145 -3.664 -3.383 -3.301 -4.8775 -3.9015 -1.756 -3.1575 -3.664 
-7.5 -7.564501 -4.6415 -8.886 -9.472 -5.345 -6.4885 -7.406001 
-12.0195 -9.031501 -10.513 -13.5923 -10.4205 -10.2335 -11.0242 
-13.4865 -15.362 -15.2193 -14.5408 -15.7746 -15.2552 
-19.817 -20.0683 -16.1678 -19.8949 -20.7963 
-2.8965 -4.1145 -4.936 -5.545 -3.7895 0 -5.18 -6.5825 0 -5.56 -4.2735 -1.4985 -3.213 -1.7565 -5.545 -4.955 -3.402 -2.264 -2.3615 
-7.2895 -9.938 -11.72 -10.2235 -3.7895 -5.18 -12.7655 -6.5825 -5.56 -10.5535 -6.036 -4.3955 -4.766 -6.4905 -11.3254 -10.1635 -3.793 -3.8255 
-14.0808 -17.0836 -16.3985 -10.2235 -9.6945 -12.7655 -12.7655 -12.9663 -10.5535 -12.316 -8.997 -5.009 -9.0865 -12.3793 -16.5339 -10.2015 -5.686501 
-21.2264 -21.7621 -16.3985 -16.1285 -17.3498 -12.7655 -19.1493 -17.9598 -12.316 -15.277 -10.045 -10.5035 -15.0847 -17.5878 -16.5719 -12.095 
-25.9049 -21.7621 -22.3035 -23.7838 -17.3498 -19.1493 -24.1428 -19.7223 -15.277 -16.325 -15.5365 -16.5017 -20.2932 -17.6258 -18.4654 
