-4.759 
n/a 
n/a 
n/a 
n/a 
-4.759 
n/a 
n/a 
n/a 
n/a 
-4.759 
n/a 
n/a 
n/a 
n/a 
-4.759 
n/a 
n/a 
n/a 
n/a 
-9.178 -3.452 -3.4625 -1.4985 -8.981001 -3.2795 
-12.831 -7.5265 -4.474 -10.5035 -12.5355 
-16.9055 -8.573 -14.1982 -14.058 
-17.952 -18.8718 -17.7527 
-28.2508 -22.4263 
-1.934 -5.091 -2.0935 -3.135 -1.7565 -1.4985 -3.17 -4.0845 -3.8125 -1.934 -5.1845 -8.852 0 
-7.823 -6.4505 -4.4665 -3.9195 -2.4195 -3.7115 -6.319 -6.612 -5.148 -6.564 -10.1385 -8.852 
-10.316 -8.9565 -5.5575 -4.168 -4.4355 -6.6165 -9.225 -8.169001 -9.455001 -12.1302 -10.1385 
-12.822 -9.7725 -5.818501 -5.283 -7.085001 -9.738501 -10.26 -12.8682 -14.8602 -12.1302 
-13.638 -9.967 -6.9525 -7.500501 -10.028 -10.9773 -14.9592 -18.2734 -14.8602 
-3.3715 -3.594 -3.115 -9.178 -2.4945 -4.881 -3.222 -8.981001 0 
-6.183001 -6.5335 -13.0686 -11.8735 -6.0815 -5.6785 -13.2558 -8.981001 
-8.937 -16.7521 -15.7641 -15.4605 -6.7205 -16.1413 -13.2558 
-19.3376 -19.4476 -19.3511 -16.0995 -17.3295 -16.1413 
-22.0331 -23.0346 -19.9901 -26.7085 -17.3295 
-8.852 -2.186 -1.8085 -3.452 -2.3335 -2.186 -3.43 -2.3345 -2.3615 -3.6835 0 
-10.7335 -3.164 -4.787 -5.541 -3.7085 -4.64 -4.5865 -4.499 -5.962 -3.6835 
-11.7115 -6.188 -6.045 -6.5555 -6.29 -5.856 -6.403 -8.599001 -5.962 
-14.7355 -6.852 -7.038 -9.455501 -7.3875 -8.304501 -10.316 -8.599001 
-15.3995 -7.923501 -9.833 -10.8128 -9.772 -12.3745 -10.316 
