-4.759 
n/a 
n/a 
n/a 
n/a 
-4.759 
n/a 
n/a 
n/a 
n/a 
-4.759 
n/a 
n/a 
n/a 
n/a 
-4.759 
n/a 
n/a 
n/a 
n/a 
-4.5255 -12.16972 -12.16972 0 -5.943501 0 
-17.08302 -24.33944 -12.16972 -5.943501 -5.943501 
-29.25274 -24.33944 -18.11322 -5.943501 
-29.25274 -30.28294 -18.11322 
-35.19624 -30.28294 
-4.5255 0 -8.2235 -10.5785 0 -5.943501 0 
-4.5255 -8.2235 -10.862 -10.5785 -5.943501 -5.943501 
-10.647 -10.862 -10.862 -17.1252 -5.943501 
-13.9963 -10.862 -17.4087 -17.1252 
-13.9963 -17.4087 -17.4087 
-12.3255 -12.16972 0 -5.943501 0 
-25.48942 -12.16972 -5.943501 -5.943501 
-25.48942 -18.11322 -5.943501 
-31.43292 -18.11322 
-31.43292 
-8.504001 -3.7075 -5.029 0 -5.943501 0 
-14.0885 -6.884501 -5.029 -5.943501 -5.943501 
-17.6411 -6.884501 -11.8851 -5.943501 
-17.6411 -14.2606 -11.8851 
-25.0172 -14.2606 
