-4.759 
n/a 
n/a 
n/a 
n/a 
-4.759 
n/a 
n/a 
n/a 
n/a 
-4.759 
n/a 
n/a 
n/a 
n/a 
-4.759 
n/a 
n/a 
n/a 
n/a 
-3.433 -1.7565 -1.4985 -4.416 -4.1665 -1.7565 -1.4985 -4.257 0 -1.4985 -4.257 -3.251 -6.0835 -1.4985 -5.5475 -3.115 0 -9.841001 0 0 -6.6455 -5.907 0 -2.5195 -1.4985 -9.145 -2.3345 -1.4985 -4.628 -6.739501 
-4.1845 -2.4195 -8.047501 -9.569 -5.517 -2.4195 -5.0245 -4.257 -1.4985 -5.0245 -6.75 -7.448 -6.967 -7.0225 -9.577 -3.115 -9.841001 -9.841001 0 -6.6455 -13.2649 -5.907 -2.5195 -3.1695 -11.7373 -12.0397 -3.233 -6.298 -10.6215 
-4.6515 -9.281 -13.0557 -11.1451 -6.04 -5.709001 -5.0245 -6.1835 -5.0245 -7.157001 -10.1465 -8.3805 -13.129 -11.5884 -9.577 -13.7316 -9.841001 -9.841001 -6.6455 -13.2649 -13.2649 -8.947001 -3.1695 -13.6417 -14.632 -12.9382 -7.4645 -12.6721 
-9.9975 -14.3328 -14.6318 -11.6681 -9.1385 -5.709001 -6.769001 -7.712 -7.157001 -10.553 -11.3074 -14.5835 -17.6949 -11.5884 -20.2128 -13.7316 -9.841001 -16.5513 -13.2649 -13.2649 -16.3049 -9.8035 -13.6417 -16.5364 -15.5305 -17.1697 -14.4398 
-15.1929 -15.9089 -15.1548 -14.7666 -9.1385 -7.310501 -8.1 -9.63 -10.553 -11.9891 -17.5104 -19.1494 -17.6949 -22.2242 -20.2128 -13.7316 -16.5513 -23.1707 -13.2649 -16.3049 -17.1614 -20.5377 -16.5364 -17.4349 -19.762 -24.145 
-3.2615 -2.3615 -3.433 -1.7565 -1.4985 -4.6165 -4.1665 -1.4985 -6.899 -4.257 -4.9385 -1.4985 -3.699 -10.707 -3.2875 -1.756 -7.0735 -5.74 -2.5195 -1.4985 -4.891 0 
-5.276 -5.613 -4.1845 -2.4195 -5.7985 -8.526501 -5.97 -8.336 -9.082001 -8.1695 -5.916501 -5.264 -15.7494 -13.9945 -4.9375 -8.951 -11.136 -8.657001 -3.1695 -5.891001 -4.891 
-8.4785 -6.768 -4.6515 -6.773001 -9.7515 -10.0545 -13.1319 -9.617001 -13.0857 -8.825 -9.084001 -17.8534 -19.0369 -15.6445 -13.0473 -13.3517 -14.053 -9.462 -7.964 -5.891001 
-9.585 -7.1645 -8.12 -10.757 -11.4577 -17.2164 -14.4129 -13.7005 -13.7412 -12.2079 -21.812 -21.1409 -20.6869 -23.7543 -17.448 -16.2687 -14.858 -14.2789 -7.964 
-10.09 -10.726 -12.2548 -12.4632 -18.6196 -18.4974 -18.4964 -14.356 -17.1241 -24.9359 -25.0995 -22.7909 -28.7967 -28.155 -20.365 -17.0737 -19.6749 -14.2789 
-3.2615 -2.3615 -4.688 -1.4985 -3.5435 -3.251 -4.622 -4.967 -4.563 -3.7015 -4.891 -1.756 -4.9385 -3.2495 -3.699 -4.088 -1.7565 -10.2665 -1.756 -4.682 -4.418 0 
-5.276 -6.132 -6.3045 -4.2755 -6.0535 -7.033501 -8.721001 -8.4125 -6.3655 -8.288 -6.593 -6.501 -7.518001 -6.0885 -7.144 -5.4975 -12.9722 -12.1909 -6.5155 -8.214001 -4.418 
-7.5505 -7.509501 -8.7115 -6.363501 -8.693501 -10.7025 -12.4943 -10.7392 -11.4408 -10.0005 -12.0262 -8.4785 -10.238 -9.3655 -8.106501 -17.8284 -14.8966 -16.9504 -8.6215 -8.214001 
-8.439501 -9.747001 -10.281 -8.986 -12.6307 -14.4758 -14.821 -15.8145 -13.1533 -15.4337 -14.0037 -11.3711 -13.515 -10.3425 -20.6608 -19.7528 -19.6561 -19.0564 -8.6215 
-10.609 -11.3573 -12.9035 -12.9094 -16.404 -16.8025 -19.8963 -17.527 -18.5865 -17.4112 -16.8963 -14.6481 -14.492 -22.8968 -22.5852 -24.5123 -21.7621 -19.0564 
-2.5195 -2.3615 0 -3.135 -1.7565 -1.4985 -6.721 -4.1665 -2.4945 -3.9595 -2.3345 -6.899 -4.257 -3.851 -1.7695 -2.3615 -9.841001 -1.756 -7.0735 -5.74 -2.7415 -4.9385 -2.3345 -4.257 -2.5195 -4.891 
-4.4095 -2.3615 -3.135 -3.9195 -2.4195 -8.0225 -10.7335 -5.728 -5.425 -5.1685 -8.9195 -9.082001 -8.447001 -4.0015 -3.736 -13.4907 -10.7335 -8.951 -11.136 -8.463 -6.226501 -5.823501 -6.820001 -6.821 -8.022 
-4.4095 -6.285501 -3.9195 -4.168 -9.083 -12.1284 -12.295 -7.0485 -6.861 -12.4207 -9.953501 -13.3632 -8.48 -6.14 -15.1912 -14.3832 -17.9285 -13.3517 -13.859 -12.0438 -6.8015 -9.826 -10.031 -12.7349 
-8.388 -7.1585 -4.168 -11.5305 -13.2583 -13.6899 -13.6155 -8.224 -14.3662 -13.4547 -14.2347 -13.3962 -10.4945 -17.7008 -16.0837 -21.5782 -22.3292 -16.0747 -17.4398 -12.6188 -10.757 -13.4854 -15.9685 
-9.264501 -7.5625 -11.5305 -15.7058 -14.8198 -15.0104 -14.791 -16.1502 -15.4002 -17.7359 -14.2677 -15.4107 -22.0553 -18.5933 -23.2787 -25.9789 -25.0522 -19.6555 -18.0148 -16.5743 -14.4164 -19.4229 
