-4.759 
n/a 
n/a 
n/a 
n/a 
-4.759 
n/a 
n/a 
n/a 
n/a 
-4.759 
n/a 
n/a 
n/a 
n/a 
-4.759 
n/a 
n/a 
n/a 
n/a 
-5.1845 -5.5495 -2.9905 -1.7565 -2.5195 -4.658 -4.7315 0 
-12.0284 -9.4905 -3.6185 -5.9175 -6.7545 -9.0235 -4.7315 
-15.9694 -9.993501 -7.987 -10.749 -11.7376 -9.0235 
-16.4724 -14.4 -13.2153 -15.7321 -11.7376 
-20.8789 -19.6283 -18.1984 -15.7321 
-9.6365 -2.4945 -4.226 -2.5195 -5.7465 -5.6315 
-10.9575 -5.734 -4.796 -7.593 -9.828501 
-14.197 -6.2855 -10.9809 -10.2235 
-14.7485 -12.7236 -13.6114 
-21.1866 -15.3541 
-10.0425 -4.4765 -1.7565 -8.1485 -2.5195 -6.899 -5.3995 
-14.7756 -5.1035 -9.760501 -9.885 -9.127501 -13.3089 
-15.4026 -13.8189 -11.497 -16.7336 -15.7792 
-24.118 -15.5554 -18.3456 -23.3853 
-25.8545 -22.404 -24.9973 
-6.019 -3.1385 -4.8555 -4.7265 -2.5045 -9.534 -3.7645 
-10.2285 -8.756001 -10.598 -6.8565 -12.7335 -13.5061 
-15.846 -14.7555 -12.728 -17.6267 -16.7056 
-21.8455 -16.8855 -23.4982 -21.5988 
-23.9755 -27.6557 -27.4703 
