-4.759 
n/a 
n/a 
n/a 
n/a 
-4.759 
n/a 
n/a 
n/a 
n/a 
-4.759 
n/a 
n/a 
n/a 
n/a 
-4.759 
n/a 
n/a 
n/a 
n/a 
-4.0155 -1.7565 -1.4985 -4.191 -4.2085 -5.204 -2.9645 -3.4635 -2.5045 -1.8085 -4.0165 -5.052 -3.1495 -3.5795 -2.5685 -3.7825 -3.8235 -5.204 0 -2.688 -4.9605 0 -4.793 -5.0625 0 -4.4485 0 -1.756 -4.713 0 -2.5045 -3.3235 -2.5045 -1.4985 -4.623 -4.5685 0 -4.5055 -4.4635 -3.8375 0 -1.756 -4.734 -3.098 -4.887 -1.7565 -4.4485 -2.4945 -4.707 0 -2.8965 -4.957 -3.5795 -4.7315 0 -3.8145 -5.2925 0 -4.6915 -5.2925 0 -1.756 -4.0165 -5.2925 -1.4985 -3.486 -2.186 -1.4985 -4.2605 -2.356 -4.734 0 -3.3155 -2.9905 -1.7565 -3.1435 -3.8285 -5.052 -4.6945 0 -3.589 -2.4945 -4.3215 -2.5045 -1.8085 -3.4635 0 -2.3345 -1.4985 -3.498 -1.7565 -2.7405 0 0 -1.756 -2.8965 -4.957 -3.5795 -4.554 -4.7315 0 -4.8275 -5.2925 0 -3.4865 -3.8195 0 -4.0165 -5.2925 -1.756 -4.293 -4.7315 -5.057 0 -5.1635 -1.756 -5.3135 -1.756 -5.0525 -2.9645 -4.46 -4.957 -4.064 -1.7565 -4.707 0 -1.756 -4.065 -4.1985 -4.078 -4.0165 -4.7315 -3.4635 -2.7765 -2.489 -5.6915 -2.5045 -3.858 -3.4165 -2.4285 -6.0925 0 
-5.764 -2.4195 -5.432 -8.142 -6.5 -8.76 -7.809 -6.2415 -3.3625 -5.437 -8.675501 -8.534 -5.3495 -5.4375 -5.4565 -7.333 -8.910501 -5.204 -2.688 -5.158 -4.9605 -4.793 -5.0905 -5.0625 -4.4485 -4.4485 -1.756 -6.5815 -4.713 -2.5045 -3.7105 -3.8485 -3.583 -5.1705 -8.5255 -4.5685 -4.5055 -5.352 -5.4215 -3.8375 -1.756 -6.746 -8.422001 -7.3265 -5.0995 -5.758501 -7.271 -7.9015 -4.707 -2.8965 -6.7605 -7.638 -8.675501 -4.7315 -3.8145 -7.9395 -5.2925 -4.6915 -8.2735 -5.2925 -1.756 -5.184 -7.9505 -6.8855 -3.5655 -5.8735 -3.339 -4.8355 -6.002501 -7.421 -4.734 -3.3155 -7.454 -3.6185 -4.124 -7.711 -8.949501 -9.666 -4.6945 -3.589 -7.131001 -5.609 -5.2675 -3.3625 -5.6055 -3.4635 -2.3345 -3.233 -4.0295 -4.005 -4.954 -2.7405 0 -1.756 -3.751 -6.7605 -7.638 -7.8555 -7.718501 -4.7315 -4.8275 -8.745501 -5.2925 -3.4865 -6.7165 -3.8195 -4.0165 -7.9505 -6.1835 -5.7905 -7.1235 -9.9865 -5.057 -5.1635 -5.654 -5.666 -7.137501 -6.949 -9.3475 -7.9355 -7.432 -8.561501 -4.3045 -6.319 -4.707 -1.756 -5.8995 -4.864 -8.409 -8.476501 -7.59 -7.5325 -6.938001 -3.495 -7.059 -6.786 -5.837501 -7.890501 -6.6975 -9.060501 -6.0925 
-6.1 -6.104001 -9.121 -8.8735 -9.705001 -10.76 -10.281 -6.9665 -6.647 -9.2805 -12.6579 -10.228 -7.7205 -8.1665 -8.4895 -9.439001 -8.910501 -7.975501 -5.158 -5.158 -6.754 -5.0905 -5.0905 -6.240001 -4.4485 -6.121 -6.5815 -6.5815 -7.4045 -3.7105 -3.8545 -4.654 -7.051001 -8.990001 -8.5255 -8.442 -5.352 -5.4225 -5.4215 -5.325 -6.746 -9.6595 -12.8093 -7.357 -9.358 -8.316501 -12.9652 -7.9015 -7.690001 -6.7605 -8.882 -13.089 -8.675501 -7.224 -7.9395 -7.9395 -9.277 -8.2735 -8.2735 -6.1835 -5.184 -9.044001 -9.6745 -9.3905 -5.91 -7.3545 -6.688 -6.5185 -11.4351 -7.421 -7.5935 -7.454 -7.8265 -6.0655 -8.5445 -13.4474 -14.1101 -9.666 -8.823 -7.131001 -10.3415 -6.4755 -6.076 -7.227 -5.6055 -6.1525 -3.233 -5.098 -4.188 -6.294 -4.954 -2.7405 -1.756 -3.751 -7.8175 -8.882 -12.269 -11.4408 -7.718501 -9.3095 -8.745501 -8.745501 -8.499001 -6.7165 -6.7165 -7.3655 -7.9505 -8.7115 -9.9835 -8.692 -12.6929 -9.9865 -7.323 -5.654 -5.674 -7.6145 -9.264001 -10.0095 -14.4877 -11.5411 -10.7175 -8.6665 -9.123 -6.319 -5.834001 -5.8995 -6.691 -9.2255 -13.4243 -12.2292 -10.6868 -12.007 -7.7145 -7.586501 -7.7315 -9.461 -9.431001 -9.085501 -13.8127 -9.060501 
-7.826 -9.430501 -9.222501 -10.76 -10.7625 -10.7655 -10.631 -9.642 -10.6735 -13.9061 -14.3519 -12.7476 -10.368 -10.647 -11.0577 -9.439001 -11.9742 -8.460001 -5.158 -6.7555 -6.7545 -5.0905 -6.2405 -6.240001 -6.121 -7.0305 -6.5815 -8.5635 -8.1225 -3.8545 -4.6565 -8.6385 -10.404 -8.990001 -12.6994 -8.6035 -5.4225 -5.4225 -7.4305 -9.547 -9.6595 -14.131 -12.8398 -12.1435 -12.1212 -14.1681 -12.9652 -10.6095 -12.1754 -8.882 -14.521 -13.089 -11.6042 -10.4345 -7.9395 -10.688 -10.362 -8.2735 -9.399501 -8.1355 -9.044001 -10.238 -12.1795 -10.544 -7.4645 -9.432 -8.005501 -11.9377 -11.4351 -10.504 -12.0198 -7.8265 -10.757 -10.3675 -14.3645 -18.608 -14.1101 -13.8451 -12.5028 -10.3415 -10.685 -7.821 -9.974501 -7.227 -7.559 -7.2355 -5.098 -5.1255 -6.335001 -6.294 -4.954 -5.1965 -3.751 -7.8175 -10.1622 -13.701 -15.8543 -11.4408 -9.589001 -9.589001 -8.745501 -12.6772 -10.2925 -6.7165 -10.674 -11.9879 -8.7115 -13.0395 -10.19 -14.4502 -12.6929 -12.2525 -8.205 -5.674 -7.633 -9.316 -12.5739 -15.1909 -18.0933 -14.8266 -10.8225 -13.787 -9.123 -7.4505 -10.4765 -6.691 -10.7175 -14.4574 -17.177 -15.326 -15.1613 -12.7835 -12.1754 -8.2045 -10.702 -13.3059 -10.7072 -16.3603 -13.8127 
-10.5525 -9.533001 -10.7605 -10.7655 -10.768 -10.771 -10.79 -10.7615 -15.2991 -15.6001 -16.8715 -15.3951 -12.8485 -13.2152 -11.0577 -12.5933 -12.4587 -8.460001 -6.7555 -6.756001 -6.7545 -6.2405 -6.2405 -8.755001 -7.0305 -7.0305 -8.5635 -8.885 -8.1815 -4.6565 -8.647 -12.2119 -10.404 -13.2637 -12.8609 -8.606501 -5.4225 -7.4325 -9.697001 -12.5245 -14.131 -14.1615 -17.6263 -14.9067 -17.9728 -14.1681 -15.6732 -15.7313 -14.2969 -14.521 -14.521 -16.0177 -14.8147 -10.4345 -10.688 -11.773 -10.362 -9.399501 -11.4185 -10.504 -10.238 -12.743 -13.333 -12.1285 -9.6645 -9.847 -13.5041 -11.9377 -14.5181 -14.9303 -12.3923 -10.757 -15.059 -16.1875 -19.5251 -18.608 -18.2892 -17.5249 -15.7133 -10.685 -12.0305 -11.9927 -9.974501 -9.731001 -8.2285 -8.736501 -5.1255 -6.7445 -6.335001 -6.294 -6.400001 -7.743501 -7.8175 -10.1622 -14.9812 -17.2863 -15.8543 -13.3113 -9.592001 -9.589001 -12.6772 -14.4707 -10.2925 -10.674 -15.2964 -12.7489 -13.0395 -13.246 -15.9482 -14.4502 -14.9589 -13.1345 -8.2255 -7.633 -9.318001 -12.6619 -17.7553 -18.7965 -21.3788 -14.9316 -15.943 -13.787 -9.9205 -12.4978 -11.268 -10.7175 -15.9494 -18.2101 -20.2738 -19.8005 -15.9378 -17.2444 -12.7934 -11.3722 -14.5469 -14.5821 -17.982 -16.3603 
-3.4975 -4.02 -4.6805 -1.7565 -3.1385 -2.5195 -3.6065 -4.9845 -1.756 -9.72 -6.4185 -3.711 -2.4945 -3.8245 -1.934 -1.4985 -3.59 -8.4445 -2.871 -3.748 -3.1385 0 -3.582 -4.3665 -2.4945 -1.4985 -4.4665 -3.711 -1.934 -7.856 -4.3665 0 -4.065 -4.3665 0 -4.5495 -4.3665 -2.4945 -3.074 -1.4985 -4.6365 -7.9235 -4.3665 -2.4945 -4.4665 -4.761 -4.3665 -1.756 -5.814 -3.859 -7.807 -6.4185 -5.2095 -3.6115 -4.4665 -4.761 -4.3665 -2.4945 -4.317 -5.865001 -3.2495 -4.4665 -6.4185 -3.4975 -3.711 -2.4945 -4.1125 -1.756 -6.5835 0 
-6.4725 -7.5065 -4.722 -4.388 -5.074 -5.35 -7.1295 -6.107 -10.899 -17.7319 -11.0061 -5.525001 -5.751 -4.7245 -2.6125 -4.268 -13.1731 -12.8557 -5.5815 -5.326 -3.1385 -3.582 -6.8505 -5.6425 -3.9315 -4.729 -8.246 -5.1995 -9.623 -11.301 -4.3665 -4.065 -8.291 -4.3665 -4.5495 -7.3515 -5.6425 -4.4205 -4.6505 -5.3015 -12.3535 -8.727501 -5.6425 -7.5995 -8.6365 -8.101501 -5.698501 -7.2665 -9.4515 -10.907 -14.7625 -12.8256 -8.113001 -6.555501 -8.6365 -8.101501 -5.6425 -7.028501 -7.594501 -8.861501 -6.73 -12.2312 -10.6095 -7.2565 -5.525001 -7.131001 -5.9005 -8.819 -6.5835 
-10.0315 -7.5575 -7.5985 -6.2 -6.642 -8.1355 -8.1555 -14.5992 -19.0801 -22.3195 -12.8201 -9.1005 -6.158 -5.4215 -4.955501 -14.1875 -17.5843 -15.5662 -6.7675 -5.326 -6.909 -6.8505 -8.106501 -7.3925 -6.488 -8.3915 -9.118501 -13.489 -13.6462 -11.7492 -8.144501 -8.291 -8.291 -8.486 -7.3515 -8.9235 -7.895 -6.229 -7.857 -12.912 -13.1515 -9.546 -11.5667 -12.4311 -12.4288 -9.352 -12.2274 -10.6735 -17.0795 -17.8625 -21.1696 -15.2221 -10.6795 -10.396 -12.4288 -9.403501 -10.218 -11.088 -10.8495 -11.597 -15.0059 -16.4222 -14.3685 -8.682 -9.394501 -8.158001 -14.0645 -8.819 
-10.063 -9.062 -8.628 -7.527 -9.462501 -8.9895 -15.2204 -22.4673 -23.6677 -24.1335 -16.3956 -9.5465 -6.855 -7.2795 -14.9118 -18.5987 -20.2948 -16.7522 -6.7675 -10.151 -10.1305 -8.106501 -9.392 -9.168501 -10.172 -9.241 -17.7744 -17.6122 -13.7132 -15.8284 -10.3345 -8.291 -12.6763 -8.798 -8.9235 -11.4104 -9.413501 -9.042001 -15.8053 -13.5564 -14.5525 -15.7224 -16.3983 -16.2234 -13.6793 -16.1091 -15.6344 -18.3015 -24.035 -24.2696 -23.5661 -18.2652 -14.7576 -14.1883 -13.7308 -14.1042 -13.5785 -12.808 -12.299 -18.9231 -19.1969 -20.1812 -15.794 -12.7519 -10.2345 -16.5546 -14.0645 
-11.5675 -10.1185 -9.765 -10.1715 -10.1195 -16.1184 -23.0313 -27.0549 -25.4817 -27.709 -16.8416 -10.2835 -9.029 -17.4288 -19.323 -21.3092 -21.4808 -16.7522 -11.8427 -13.5059 -11.3865 -9.392 -11.3262 -13.0007 -11.0215 -17.8821 -21.6536 -17.6122 -17.7924 -18.0184 -10.3345 -12.6763 -12.9883 -10.147 -11.4104 -12.9289 -12.5975 -17.0739 -16.2913 -14.9574 -21.1599 -20.852 -20.1906 -17.4739 -20.4364 -19.5161 -23.2624 -25.257 -30.4421 -26.6661 -26.6092 -22.0527 -18.5499 -15.4903 -18.4315 -17.4647 -15.9975 -14.532 -20.6361 -23.1141 -22.9559 -21.6067 -19.8639 -13.5919 -18.6311 -16.5546 
-3.676 -2.8645 -8.319 -4.02 -3.2795 -2.1715 -3.748 -3.1385 -5.0075 -1.7695 -4.5735 -3.711 -3.582 -4.3665 -2.4945 -1.4985 -3.177 -3.9225 -3.277 -4.176 -4.3665 0 -4.5495 -4.3665 0 -1.756 -4.065 -4.3665 -4.132 -1.4985 -3.177 -3.54 -4.6365 -4.5735 -3.711 -3.9225 -1.4985 -3.177 -2.543 -3.2775 -3.711 -4.2125 -4.3665 -1.4985 -4.4665 -4.761 -3.2795 -1.756 -3.859 -4.6365 -3.2795 -4.317 -4.3665 -2.4945 -3.6115 -4.4665 -4.761 -3.2795 0 -4.1125 -1.756 -4.5275 -2.4945 -3.6115 -4.6365 -3.4975 -3.2795 0 
-5.929501 -9.610001 -10.228 -6.851 -5.55 -4.922501 -5.326 -8.8325 -5.113 -6.528501 -8.8985 -7.561501 -6.8505 -5.6425 -3.9315 -4.0915 -7.67 -5.4525 -8.1665 -7.54 -4.3665 -4.5495 -7.3515 -4.3665 -1.756 -5.8995 -8.291 -7.7095 -5.071 -4.0915 -5.84 -7.944 -9.001 -8.8985 -7.1835 -4.463 -4.0915 -5.968 -6.8615 -6.582 -7.526 -5.414 -6.1685 -4.729 -8.6365 -6.536 -4.9795 -5.337 -7.496 -7.974 -7.686001 -5.7925 -5.6425 -6.4645 -6.555501 -8.6365 -6.536 -3.2795 -4.1125 -5.9005 -7.255 -7.3295 -6.4645 -6.856501 -7.772 -6.926001 -3.2795 
-13.3712 -12.171 -11.6597 -9.08 -9.259501 -6.620501 -10.396 -8.933001 -9.472 -10.7175 -13.139 -10.0925 -8.106501 -7.3925 -6.0635 -8.179001 -8.956 -9.611 -11.7837 -7.54 -8.486 -7.3515 -7.3515 -5.698501 -5.8995 -10.096 -11.8998 -8.958501 -7.611 -6.059 -10.7175 -12.7233 -13.618 -12.761 -7.7445 -6.006001 -6.7285 -10.757 -10.0185 -11.1324 -8.012 -7.2 -9.123501 -8.778501 -9.408 -7.834001 -8.675 -9.041 -11.4803 -12.7949 -9.279501 -7.769001 -9.669001 -10.316 -10.396 -9.408 -6.536 -7.785001 -5.9005 -10.523 -9.039001 -11.5383 -10.757 -9.810501 -11.7951 -6.926001 
-15.7554 -15.5272 -14.0315 -12.9425 -10.75 -11.9101 -10.423 -13.5402 -13.7136 -14.958 -15.67 -11.5955 -9.392 -10.0745 -10.264 -9.875501 -13.3723 -13.2576 -11.7837 -9.206 -8.798 -7.3515 -8.5 -7.953001 -10.096 -13.7048 -13.1488 -11.6791 -9.1805 -10.733 -15.4968 -17.3403 -17.4805 -13.322 -10.089 -8.638 -12.0037 -13.914 -14.6449 -11.6184 -10.0995 -10.759 -13.28 -9.507501 -10.611 -11.9311 -12.857 -13.4643 -16.3012 -14.3884 -10.19 -12.1237 -13.5717 -14.1565 -11.1675 -9.408 -10.1145 -9.989 -10.523 -12.307 -13.3164 -15.8308 -13.711 -13.973 -11.7951 
-19.0374 -17.7562 -17.894 -14.433 -16.0396 -11.9371 -15.0302 -17.7818 -17.9541 -17.489 -17.173 -12.881 -12.2322 -14.4418 -12.3175 -14.3828 -17.0189 -13.2576 -13.4497 -9.209001 -8.798 -8.5 -11.0715 -12.5713 -13.7048 -14.9538 -15.8694 -13.2486 -14.5439 -15.5123 -20.1138 -21.2028 -18.0415 -15.6665 -12.721 -14.1544 -15.1607 -18.5404 -15.1309 -13.7059 -13.9431 -14.9155 -14.009 -10.7915 -14.7081 -16.1131 -17.2803 -18.2852 -17.8947 -15.2989 -14.5447 -16.0264 -17.4122 -14.928 -11.1675 -13.2469 -12.3185 -14.6115 -12.307 -16.5844 -17.6089 -18.7848 -17.8735 -13.973 
-3.676 -2.186 -2.664 -4.431 -3.1385 -4.02 -3.8475 0 -4.8425 -4.6365 -4.0805 -2.871 -3.748 -3.499 -2.645 -2.925 -4.3465 -3.582 -4.3665 -2.4945 -4.4665 -3.8475 0 -4.176 -4.3665 0 -4.5495 -3.4975 0 -1.756 -3.6085 -4.3665 -3.45 -3.7825 -3.9755 -1.7565 -4.3665 -2.8645 -4.6365 -8.18 -4.3665 -2.4945 -4.761 -1.756 -3.859 -8.783501 -4.3665 -3.959 -4.4665 -3.6115 -4.761 -3.711 0 -4.4665 -2.4945 -4.1125 -1.756 -6.5835 -3.2795 -4.761 0 
-5.5015 -3.8555 -8.6925 -7.677 -7.271 -8.2465 -3.8475 -4.8425 -10.6095 -8.693501 -7.3085 -5.5815 -6.1815 -6.5305 -5.973001 -5.7895 -8.436001 -6.8505 -5.6425 -7.5995 -9.0775 -3.8475 -4.176 -7.54 -4.3665 -4.5495 -6.697 -3.4975 -1.756 -5.505 -8.413501 -7.781001 -6.5585 -6.331 -4.312 -5.4475 -7.237 -9.2685 -11.6565 -8.066 -5.6425 -7.574 -6.212 -5.337 -10.6995 -9.622001 -9.271501 -8.463501 -8.815001 -8.828501 -6.2285 -3.711 -4.4665 -8.2995 -7.131001 -5.9005 -8.819 -10.5435 -8.1765 -4.761 
-7.218 -9.662001 -11.9775 -12.2617 -12.0799 -8.2465 -8.836 -10.6095 -14.6665 -12.5777 -9.946 -7.8415 -8.814501 -10.7175 -8.903501 -10.31 -10.348 -8.106501 -11.5667 -12.8721 -9.0775 -7.771 -7.54 -7.54 -8.486 -6.697 -6.697 -5.486 -5.505 -9.878 -12.0872 -11.3053 -9.245501 -6.3915 -9.019 -8.001 -14.007 -16.9065 -13.7983 -10.1295 -10.4765 -8.7115 -9.540501 -12.8594 -13.4528 -16.0962 -13.9304 -13.1708 -14.636 -10.5938 -6.2285 -8.815001 -8.2995 -13.073 -8.158001 -14.0645 -13.0012 -15.4405 -8.1765 
-13.5849 -13.1438 -16.5622 -17.0706 -12.0799 -13.4828 -15.0828 -14.6665 -18.5507 -15.2152 -12.6674 -10.485 -13.3871 -13.648 -13.4306 -12.222 -12.0582 -14.2811 -16.8393 -12.8721 -13.4592 -11.9008 -7.54 -9.206 -10.2485 -6.697 -8.3305 -7.517 -9.878 -13.7727 -15.6115 -13.9923 -9.465 -11.2119 -11.6805 -15.0068 -21.645 -18.6375 -15.7888 -15.8052 -11.9144 -12.0868 -18.3213 -15.3207 -19.3296 -20.7551 -18.6377 -18.9918 -16.4013 -10.5938 -11.9929 -13.186 -13.073 -14.1 -16.5546 -18.2467 -17.8982 -15.4405 
-17.0667 -17.7285 -21.3711 -17.0706 -17.3162 -19.7296 -19.1398 -18.5507 -21.1882 -17.9366 -15.3109 -15.0576 -16.3176 -18.1751 -15.3426 -13.9322 -18.2328 -19.5537 -16.8393 -17.2538 -17.589 -11.9008 -9.206 -12.8141 -10.2485 -8.3305 -10.146 -12.2662 -13.7727 -17.297 -18.2985 -14.2118 -14.3184 -13.8734 -18.6863 -22.6448 -23.376 -20.628 -21.008 -17.2431 -15.2897 -20.8676 -20.3942 -21.1975 -23.9885 -25.4624 -24.4587 -20.7571 -16.4013 -16.3582 -16.3639 -17.9595 -14.1 -22.4966 -20.7368 -23.1437 -17.8982 
