-4.759 
n/a 
n/a 
n/a 
n/a 
-4.759 
n/a 
n/a 
n/a 
n/a 
-4.759 
n/a 
n/a 
n/a 
n/a 
-4.759 
n/a 
n/a 
n/a 
n/a 
-3.4765 -3.881 -1.934 -5.5335 -3.3755 0 
-7.255501 -5.05 -7.843 -7.5705 -3.3755 
-8.4805 -10.0575 -9.9835 -7.5705 
-13.6852 -12.198 -9.9835 
-15.8257 -12.198 
-2.3615 -2.7765 -3.074 -2.489 -3.881 -2.0935 -4.953 
-4.876 -4.359 -4.381 -5.4125 -5.5525 -8 
-6.4445 -4.9485 -7.1585 -7.038 -12.0524 
-6.712 -7.41 -9.022 -13.8655 
-8.621 -9.2665 -15.8887 
-4.0385 -2.3345 -4.447 -5.1375 
-7.0165 -7.445001 -10.6905 
-12.6586 -14.5033 
-19.7169 
n/a 
-2.3615 -4.0385 -5.7055 -4.447 
-8.2255 -10.2235 -10.4185 
-14.5383 -14.9365 
-19.2513 
n/a 
