-4.759 
n/a 
n/a 
n/a 
n/a 
-4.759 
n/a 
n/a 
n/a 
n/a 
-4.759 
n/a 
n/a 
n/a 
n/a 
-4.759 
n/a 
n/a 
n/a 
n/a 
-3.147 0 -2.5195 -10.6285 -3.7805 -2.0935 -1.4985 -3.5385 -3.152 -5.367 -3.321 -3.5065 -10.218 -3.7555 -3.1435 -3.098 -4.164 -1.7695 0 -4.649 -7.2185 -8.328501 0 -1.756 -3.3365 -3.949 -3.7805 -2.4945 -5.367 0 
-3.147 -2.5195 -12.872 -14.519 -6.09 -2.9725 -4.694 -5.624 -6.731 -8.849501 -6.8475 -12.8015 -13.988 -6.325 -5.4265 -6.175 -5.3235 -1.7695 -4.649 -11.0145 -9.995501 -8.328501 -1.756 -5.2405 -5.2335 -6.542 -6.093 -6.4615 -5.367 
-5.738 -13.2135 -17.8406 -17.7324 -7.141 -5.8355 -6.368 -8.554 -10.434 -12.495 -16.3225 -17.5586 -16.7788 -6.9795 -6.4585 -7.106 -5.3235 -6.7605 -11.0145 -13.7915 -9.995501 -10.5135 -5.2405 -7.058001 -6.557 -9.0085 -8.959001 -6.4615 
-17.7666 -18.5104 -21.2877 -18.7834 -9.826 -8.708501 -9.812 -12.2848 -14.0795 -23.2526 -22.6669 -21.4607 -17.5565 -9.975 -8.294001 -7.106 -10.243 -13.413 -13.7915 -13.7915 -12.2757 -13.998 -7.058001 -8.1495 -9.065001 -12.1743 -8.959001 
-22.3937 -21.2877 -22.3387 -21.4684 -12.7162 -12.2489 -13.6816 -15.9303 -24.8371 -28.3144 -25.3546 -22.1152 -20.552 -10.455 -8.294001 -12.0893 -16.8955 -16.19 -13.7915 -16.0717 -15.7602 -15.8155 -8.1495 -10.459 -12.2722 -12.1743 
-2.5195 -10.995 0 -3.736 -3.8195 -2.7415 -4.987 -1.756 -2.5195 -11.0825 -2.4265 -2.7415 -4.281 -2.5045 -4.649 -9.8815 -1.756 -2.8645 -3.1125 -4.987 -3.3365 -3.949 -3.8195 
-12.6575 -9.893 -3.736 -8.335001 -5.97 -6.893001 -7.132001 -4.774 -12.938 -12.161 -3.681 -5.383 -5.893 -7.328501 -15.1525 -11.8327 -4.3855 -3.5345 -7.287 -7.917001 -5.2335 -7.06 
-13.4625 -14.2203 -8.335001 -10.4425 -8.948501 -8.689501 -10.3745 -15.3385 -15.7163 -12.6033 -6.729 -6.785501 -10.199 -18.0632 -17.1037 -14.4622 -5.1605 -7.6925 -11.1518 -10.361 -7.6405 
-18.2522 -18.9371 -10.4425 -13.9284 -10.8432 -12.1092 -21.844 -19.1784 -16.9704 -15.0909 -8.3365 -11.5855 -21.1547 -20.0144 -19.7332 -15.2372 -9.3915 -11.7127 -13.5958 -13.2302 
-22.969 -21.0446 -13.9284 -15.8231 -14.2629 -23.5787 -24.7789 -19.7489 -19.3604 -16.6984 -13.0801 -22.5412 -23.1059 -22.6439 -20.5082 -19.4682 -13.8541 -14.1567 -16.465 
-3.5385 -2.229 -3.8195 -3.152 -4.0925 -3.147 -2.5195 -10.6285 -1.756 -3.2615 -10.218 -4.281 -2.5045 0 -4.649 -7.2185 -8.328501 0 -1.756 -2.5685 -3.9755 -1.7565 -3.3365 -3.949 -3.7805 -3.152 -4.0925 0 
-4.2445 -5.928 -7.1755 -5.9985 -7.141 -5.738 -12.872 -11.788 -4.788 -12.576 -13.935 -5.893 -2.5045 -4.649 -11.0145 -9.995501 -8.328501 -1.756 -4.2335 -5.1585 -4.312 -5.3655 -5.2335 -6.542 -6.8285 -5.9985 -4.0925 
-7.138 -9.325001 -9.356001 -8.976001 -10.204 -17.024 -15.13 -14.7025 -14.5115 -17.8146 -15.2676 -5.893 -7.328501 -11.0145 -13.7915 -9.995501 -10.5135 -4.2335 -6.8325 -5.353 -8.360001 -6.7965 -6.557 -9.752001 -8.5635 -5.9985 
-11.2788 -11.5993 -12.4429 -12.132 -22.2326 -19.6831 -18.5146 -25.6116 -20.3355 -19.8489 -15.3908 -10.199 -13.9252 -13.7915 -13.7915 -12.2757 -12.991 -6.8325 -6.853001 -9.325001 -10.2435 -7.6095 -9.9945 -11.5768 -8.5635 
-13.5531 -14.6862 -15.5989 -24.1606 -24.1491 -22.3979 -29.1669 -30.6204 -21.565 -19.8489 -20.3988 -17.0167 -16.7022 -13.7915 -16.0717 -14.7532 -15.59 -6.853001 -11.0282 -11.5001 -11.0565 -11.6766 -11.9007 -11.5768 
-2.5195 -10.6285 -3.5385 -3.8195 -3.152 -4.0645 -3.2615 -10.218 -5.9175 -4.3225 -3.152 -4.0645 
-12.872 -13.7435 -7.659 -7.1755 -6.191 -6.9805 -12.576 -15.6265 -8.470501 -6.605 -6.191 
-17.0651 -18.8521 -11.7298 -9.2095 -9.0315 -16.63 -19.5061 -18.2826 -10.2595 -8.184501 
-22.4074 -22.9229 -13.7638 -12.2158 -19.3078 -23.9309 -22.8639 -20.1948 -11.839 
-26.4782 -24.9569 -16.7701 -22.4921 -26.0081 -26.4839 -24.6529 -21.7743 
