-4.759 
n/a 
n/a 
n/a 
n/a 
-4.759 
n/a 
n/a 
n/a 
n/a 
-4.759 
n/a 
n/a 
n/a 
n/a 
-4.759 
n/a 
n/a 
n/a 
n/a 
-7.190001 -3.7455 -2.186 -5.1805 -3.7825 -3.4795 0 
-10.335 -5.2335 -6.3525 -8.0525 -5.665 -3.4795 
-12.0212 -10.2535 -9.978001 -10.1725 -5.665 
-17.0412 -13.879 -10.738 -10.1725 
-20.6667 -14.639 -10.738 
-7.190001 -4.179 -9.022 -2.3345 -3.7825 -3.4795 0 
-8.514001 -11.08 -10.177 -5.919 -5.665 -3.4795 
-15.7718 -12.235 -13.7615 -8.228001 -5.665 
-16.9268 -15.8195 -16.0705 -8.228001 
-20.5113 -18.1285 -16.0705 
-7.190001 -2.186 -1.4985 -3.7825 -3.4795 -4.179 -4.759 
-8.7165 -3.339 -4.8035 -5.665 -7.201 -7.691 
-9.622001 -7.215 -7.1845 -9.015 -11.1198 
-13.784 -10.328 -10.5425 -13.8576 
-16.897 -13.686 -15.3851 
-7.190001 -4.179 -4.7425 -1.934 -2.7275 -3.4795 
-8.514001 -7.973001 -6.7545 -5.262 -7.651 
-12.6648 -10.3475 -10.8043 -10.586 
-15.0393 -14.3973 -16.1283 
-19.0891 -19.7213 
