-4.759 
n/a 
n/a 
n/a 
n/a 
-4.759 
n/a 
n/a 
n/a 
n/a 
-4.759 
n/a 
n/a 
n/a 
n/a 
-4.759 
n/a 
n/a 
n/a 
n/a 
-3.16 -3.609 -3.602 -2.264 -7.0795 
-4.601 -7.3005 -5.077 -6.734 
-8.1945 -9.151501 -10.907 
-10.025 -14.7207 
-15.5942 
-3.0365 -2.186 -2.664 -5.112 -4.867 -3.3255 -7.0795 
-3.66 -3.8555 -6.0195 -7.22 -8.6405 -8.6195 
-4.9795 -7.0485 -7.657001 -11.5595 -15.172 
-8.512001 -9.4005 -12.3829 -18.091 
-9.795001 -14.2444 -18.9144 
-1.4985 -4.1035 -1.7565 -1.4985 -3.522 -2.7455 -3.5025 -1.934 -10.6915 
-5.0955 -5.0635 -2.4195 -4.7705 -5.4435 -5.8365 -5.7415 -13.608 
-5.2255 -5.735001 -5.6785 -6.885 -8.613 -8.947001 -17.12 
-5.8725 -8.994 -8.258 -10.476 -12.1153 -20.2814 
-9.2165 -11.7583 -11.9014 -13.9783 -23.9895 
-10.6915 -5.1465 -4.1035 -4.584 
-15.5845 -9.1885 -8.078001 
-20.9116 -13.2734 
-25.0186 
n/a 
