-4.759 
n/a 
n/a 
n/a 
n/a 
-4.759 
n/a 
n/a 
n/a 
n/a 
-4.759 
n/a 
n/a 
n/a 
n/a 
-4.759 
n/a 
n/a 
n/a 
n/a 
-3.3435 -3.5125 -1.934 -3.4975 -4.698 -3.4605 
-6.0675 -5.445 -5.3805 -8.073 -7.592501 
-7.836 -8.290501 -10.8468 -11.3693 
-11.0611 -14.139 -14.1431 
-16.9096 -17.4353 
-4.3665 -3.8495 -3.4605 -3.3435 -3.718 
-9.231001 -6.634501 -7.775001 -5.99 
-12.3668 -11.4166 -10.2755 
-17.1489 -13.9171 
-19.6494 
-3.3435 -3.5125 -1.934 -3.4975 -4.698 -3.4605 
-6.0675 -5.445 -5.3805 -8.073 -7.592501 
-7.836 -8.290501 -10.8468 -11.3693 
-11.0611 -14.139 -14.1431 
-16.9096 -17.4353 
-4.4725 -1.934 -3.4975 -4.304 0 
-6.6485 -5.3805 -7.46 -4.304 
-9.4905 -10.3745 -7.46 
-15.2005 -10.3745 
-15.2005 
