-4.759 
n/a 
n/a 
n/a 
n/a 
-4.759 
n/a 
n/a 
n/a 
n/a 
-4.759 
n/a 
n/a 
n/a 
n/a 
-4.759 
n/a 
n/a 
n/a 
n/a 
-3.999 0 -5.1845 -3.8195 -5.275 
-3.999 -5.1845 -6.896501 -9.0845 
-9.9755 -6.896501 -13.1783 
-11.9427 -13.1783 
-18.2245 
-3.74 0 -5.1845 -3.8195 -3.941 -5.275 
-3.74 -5.1845 -6.896501 -8.018001 -7.855 
-9.783001 -6.896501 -12.1118 -12.5328 
-11.849 -12.1118 -16.6266 
-17.0643 -16.6266 
-3.74 0 -5.1845 -3.8195 -2.229 -3.6675 -3.251 -5.275 
-3.74 -5.1845 -6.896501 -5.743 -5.6825 -6.282001 -9.261001 
-9.783001 -6.896501 -10.259 -9.7325 -9.0935 -9.5725 
-11.849 -10.259 -14.2485 -13.4827 -12.6208 
-15.2115 -14.2485 -17.9987 -17.01 
-4.4675 0 -3.6675 -3.251 -5.275 
-4.4675 -3.6675 -6.282001 -9.261001 
-9.469501 -6.282001 -9.5725 
-12.2716 -9.5725 
-15.5621 
