-4.759 
n/a 
n/a 
n/a 
n/a 
-4.759 
n/a 
n/a 
n/a 
n/a 
-4.759 
n/a 
n/a 
n/a 
n/a 
-4.759 
n/a 
n/a 
n/a 
n/a 
-3.2615 -4.207 -4.153 0 -4.5275 -3.7555 -4.248 0 -2.872 -5.453 -4.6085 0 -4.8535 -4.416 -2.5045 -1.8085 -3.355 -1.7565 -3.676 
-7.7395 -6.342501 -4.153 -4.5275 -8.6695 -8.1975 -4.248 -2.872 -8.862501 -7.042 -4.6085 -4.8535 -9.7405 -6.327001 -3.3625 -4.6195 -3.725 -4.4345 
-9.0985 -6.342501 -8.784 -8.6695 -13.5439 -8.1975 -6.6695 -8.862501 -10.9025 -7.042 -7.273 -9.7405 -12.1731 -7.23 -5.6285 -4.725 -7.094 
-9.0985 -11.7329 -13.2582 -13.5439 -13.5439 -10.281 -12.9248 -10.9025 -10.9025 -10.4185 -13.5838 -12.1731 -13.0761 -9.4315 -5.6725 -7.9185 
-15.3383 -16.2071 -18.1326 -13.5439 -15.6274 -16.5363 -14.9648 -10.9025 -14.279 -16.9931 -16.0164 -13.0761 -15.2776 -9.608001 -9.281501 
-3.2615 -3.957 -1.8085 -4.153 -4.5275 -3.7555 -3.1435 -4.248 0 -2.872 -9.644501 -4.6085 -1.756 -10.445 -4.416 -1.7695 -2.489 -1.8085 -3.355 -1.7565 -3.676 
-6.9165 -5.259501 -5.4815 -8.784 -8.6695 -6.325 -7.125 -4.248 -2.872 -13.8135 -14.4736 -6.1935 -13.2096 -14.9584 -4.687 -3.1405 -3.799 -4.6195 -3.725 -4.4345 
-7.454 -6.2065 -10.9397 -13.2582 -10.31 -9.5935 -7.125 -6.6695 -13.8135 -18.6426 -16.0586 -18.6711 -17.723 -15.2294 -5.375 -4.2615 -5.4845 -4.725 -7.094 
-7.9545 -11.7503 -15.4139 -14.8987 -13.8109 -9.5935 -9.040501 -17.8758 -18.6426 -20.2276 -28.5362 -23.1845 -17.994 -15.9174 -6.195001 -5.7535 -5.498 -7.9185 
-14.0469 -16.2245 -17.0544 -18.3996 -13.8109 -11.5842 -20.4268 -22.7049 -20.2276 -32.7052 -33.0496 -23.4555 -18.682 -16.7374 -8.524 -5.764 -8.793 
-3.2615 -3.957 -1.8085 -4.153 -4.5275 -4.3195 -8.550001 -4.6085 -1.756 -9.2095 -4.289 -2.5045 -3.4975 -5.204 0 
-6.9165 -5.259501 -5.4815 -8.784 -8.4715 -12.395 -9.455001 -6.1935 -11.9741 -13.8101 -6.458 -6.2325 -8.366 -5.204 
-7.454 -6.2065 -10.9397 -13.0602 -16.0998 -13.4028 -11.0425 -17.4356 -16.5747 -15.9791 -9.793501 -11.6132 -8.366 
-7.9545 -11.7503 -15.2159 -20.7547 -16.275 -15.123 -22.6798 -22.0362 -18.7437 -19.3146 -15.4996 -11.6132 
-14.0469 -16.0265 -22.9104 -20.8637 -17.9952 -26.6291 -27.2804 -24.2052 -22.0792 -25.0207 -15.4996 
-3.2615 -3.957 -4.153 0 -4.5275 -3.7555 -4.712 0 -3.4985 -4.535 -4.6085 -1.756 -5.9205 -2.4945 -3.5725 -3.325 -1.4985 -3.4985 -1.7565 -3.676 0 
-6.9165 -6.181001 -4.153 -4.5275 -8.6695 -8.482 -4.712 -3.4985 -8.7045 -4.6455 -6.1935 -7.345 -10.2755 -4.6825 -5.944 -3.898 -4.798 -4.622 -4.4345 -3.676 
-9.373 -6.181001 -8.784 -8.6695 -13.8284 -8.482 -7.4145 -8.7045 -9.038 -6.2345 -12.8065 -13.5882 -12.4635 -6.794001 -7.042 -5.8625 -5.425 -8.0155 -4.4345 
-9.373 -11.5658 -13.2582 -13.8284 -13.8284 -11.5597 -12.9011 -9.038 -10.16 -13.1115 -19.0497 -15.7762 -14.575 -7.820001 -8.3385 -5.8915 -9.557501 -8.0155 
-14.9824 -16.04 -18.4171 -13.8284 -16.9061 -17.0463 -13.2346 -10.16 -17.2218 -19.3547 -21.2377 -17.8877 -15.601 -9.045 -8.352 -10.1265 -9.557501 
