-4.759 
n/a 
n/a 
n/a 
n/a 
-4.759 
n/a 
n/a 
n/a 
n/a 
-4.759 
n/a 
n/a 
n/a 
n/a 
-4.759 
n/a 
n/a 
n/a 
n/a 
-3.688 -8.5465 -2.186 -2.871 -1.7565 -1.4985 -4.7605 -5.1845 -4.378 -1.934 -6.557 
-8.748001 -10.5975 -4.247 -3.5385 -2.4195 -5.7045 -11.2598 -8.7615 -5.913 -7.536 
-10.6215 -12.6585 -4.411 -3.7675 -6.599 -12.5158 -14.8368 -10.082 -12.5022 
-12.6825 -12.8225 -4.5655 -8.517 -13.5629 -16.0928 -16.1573 -16.6712 
-12.8465 -12.977 -9.524 -15.7177 -17.1399 -17.4133 -22.7465 
-9.4425 -2.186 -2.871 -1.7565 -1.4985 -4.4695 -5.1845 -4.378 
-11.7375 -4.247 -3.5385 -2.4195 -5.252501 -9.029501 -8.7615 
-13.7985 -4.411 -3.7675 -6.027 -9.48 -12.7023 
-13.9625 -4.5655 -7.2125 -10.2135 -13.205 
-14.117 -7.827 -11.658 -13.9385 
-9.168 -2.186 -1.4985 -5.0185 -5.1845 -3.7425 -2.9705 -2.186 -8.3385 -2.5195 -6.557 
-12.1558 -3.339 -6.902 -10.151 -9.383501 -6.335 -3.89 -9.0165 -11.502 -8.5205 
-13.3088 -7.3925 -10.906 -14.4705 -12.1628 -7.127 -11.1423 -13.277 -17.503 
-16.8448 -11.623 -15.2937 -17.18 -12.9548 -14.6793 -15.4028 -19.278 
-21.9912 -16.7296 -18.073 -17.972 -20.5071 -18.9398 -21.4038 
-7.13 -7.274 -2.186 -1.4985 -4.0885 -5.1845 -8.8205 -1.934 -6.557 
-14.7512 -9.419001 -3.339 -4.856 -8.9555 -15.2994 -10.5135 -7.536 
-16.8962 -10.524 -5.4915 -9.666 -19.2158 -16.9924 -16.1155 
-18.0012 -12.6765 -10.434 -19.9687 -20.9088 -22.5944 
-20.1537 -17.619 -21.0601 -21.6617 -26.5108 
