-4.759 
n/a 
n/a 
n/a 
n/a 
-4.759 
n/a 
n/a 
n/a 
n/a 
-4.759 
n/a 
n/a 
n/a 
n/a 
-4.759 
n/a 
n/a 
n/a 
n/a 
-1.4985 -3.7825 -4.764 -2.3335 -2.4945 -3.989 -1.7695 -2.489 -5.5605 -2.3345 -6.102 -2.4945 -6.4155 0 -4.1585 0 0 -8.869 0 -9.125501 0 0 -8.941 0 -4.361 -4.609 0 0 -1.756 -7.7935 0 -5.5435 0 0 
-4.8035 -8.1835 -7.5585 -3.947 -5.235001 -4.551 -3.1405 -6.4425 -6.6235 -7.76 -7.5675 -9.6555 -6.4155 -4.1585 -4.1585 0 -8.869 -8.869 -9.125501 -9.125501 0 -8.941 -8.941 -4.361 -7.1505 -4.609 0 -1.756 -10.4855 -7.7935 -5.5435 -5.5435 0 
-8.5745 -10.155 -8.411 -6.309 -5.682 -5.597 -7.1515 -7.175 -12.6094 -9.964001 -14.9905 -9.6555 -11.2338 -4.1585 -4.1585 -8.869 -8.869 -18.1395 -9.125501 -9.125501 -8.941 -8.941 -13.413 -7.1505 -7.1505 -4.609 -1.756 -10.4855 -10.4855 -13.8108 -5.5435 -5.5435 
-10.5325 -11.0075 -10.9622 -6.6875 -7.462 -9.991501 -7.8935 -13.3069 -14.8134 -17.387 -14.9905 -14.7894 -11.2338 -4.1585 -14.1761 -8.869 -18.1395 -18.1395 -9.125501 -18.4285 -8.941 -13.413 -16.2025 -7.1505 -7.1505 -5.7865 -10.4855 -10.4855 -16.5028 -13.8108 -5.5435 
-11.385 -13.5587 -11.3407 -8.216001 -12.2099 -10.7335 -14.3362 -15.5109 -22.2364 -17.387 -20.1244 -14.7894 -11.2338 -14.1761 -14.1761 -18.1395 -18.1395 -18.1395 -18.4285 -18.4285 -13.413 -16.2025 -16.2025 -7.1505 -8.2045 -15.57 -10.4855 -16.5028 -16.5028 -13.8108 
-5.1875 -4.9225 -2.674 -5.33 -3.7825 -2.186 -3.681 0 -3.8905 0 -4.065 0 -3.545 -2.186 -4.1205 0 
-9.42 -6.985 -9.8505 -8.121 -6.670501 -7.247001 -3.681 -3.8905 -3.8905 -4.065 -4.065 -3.545 -5.372 -5.007 -4.1205 
-11.5795 -14.6061 -12.6331 -11.8072 -11.9957 -7.247001 -7.0315 -3.8905 -7.918 -4.065 -7.2925 -5.372 -8.284 -5.007 
-19.2006 -17.3887 -16.3193 -17.1324 -11.9957 -10.115 -7.0315 -7.918 -7.918 -7.2925 -9.325001 -8.284 -8.284 
-21.9832 -21.0749 -21.6445 -17.1324 -14.8637 -10.115 -11.8514 -7.918 -11.4785 -9.325001 -12.3982 -8.284 
-2.5045 -3.543 -4.2655 -5.1875 -3.3875 -3.8185 -1.4985 -3.7825 -4.2665 -2.9705 -2.4945 -3.301 -3.89 0 -3.681 0 -4.9505 -1.756 -4.8715 0 
-5.323 -9.488501 -7.415 -9.191501 -5.922 -4.662 -4.8035 -8.1145 -6.5395 -4.302 -5.269 -5.219 -3.89 -3.681 -3.681 -4.9505 -5.9715 -6.24 -4.8715 
-10.3475 -12.7196 -12.229 -11.7188 -6.363 -8.0305 -9.275001 -9.972501 -7.4285 -7.277 -8.874001 -5.219 -7.7355 -3.681 -8.950001 -5.9715 -11.4731 -6.24 
-13.5786 -17.5336 -14.7563 -12.1598 -9.726001 -12.988 -11.1212 -10.5795 -10.6465 -11.1468 -8.874001 -9.101501 -7.7355 -8.950001 -9.97 -11.4731 -11.4731 
-18.3926 -20.0609 -15.1973 -15.5228 -14.7313 -14.8342 -11.7282 -14.2023 -14.5163 -11.1468 -12.9373 -9.101501 -13.4395 -9.97 -15.4716 -11.4731 
-10.4795 -2.8645 -1.4985 -3.7825 -4.2665 -3.115 -6.4155 0 -2.8195 0 -10.526 -1.756 -8.869 
-13.344 -4.3545 -4.8035 -6.6435 -7.2615 -9.3935 -6.4155 -2.8195 -2.8195 -10.526 -12.282 -11.046 
-14.834 -8.1855 -7.921 -10.2085 -13.7792 -9.3935 -9.8505 -2.8195 -14.5315 -12.282 -21.572 
-18.665 -11.4314 -11.611 -17.1072 -13.7792 -12.9717 -9.8505 -14.5315 -16.2875 -21.572 
-21.9109 -15.1214 -18.5097 -17.1072 -17.3574 -12.9717 -21.7847 -16.2875 -25.5775 
