-4.759 
n/a 
n/a 
n/a 
n/a 
-4.759 
n/a 
n/a 
n/a 
n/a 
-4.759 
n/a 
n/a 
n/a 
n/a 
-4.759 
n/a 
n/a 
n/a 
n/a 
-4.244 -3.7965 -4.7175 -4.641 -3.893 -1.4985 -4.8085 -1.7565 -1.4985 -3.486 0 
-7.507501 -7.883501 -7.587 -5.812 -4.573 -5.83 -6.021501 -2.4195 -3.5655 -3.486 
-11.9855 -11.0484 -8.880501 -6.193 -8.7075 -6.3155 -6.8595 -4.824501 -3.5655 
-15.1504 -12.3419 -9.161501 -10.1855 -9.304501 -7.2275 -9.915501 -4.824501 
-16.4439 -12.6229 -13.1836 -10.7825 -9.8155 -10.574 -9.915501 
-3.3035 -4.4715 -2.8645 -4.8085 -4.7715 -2.4265 -2.8645 0 
-7.8825 -7.835501 -8.800501 -9.557001 -6.2455 -4.1435 -2.8645 
-11.5021 -14.0235 -13.819 -10.2295 -8.144501 -4.1435 
-17.6901 -19.042 -14.4915 -12.9345 -8.144501 
-22.7086 -19.7145 -17.1965 -12.9345 
-4.244 -2.7415 -4.4715 -3.402 -2.264 -4.8085 0 
-7.048 -6.1835 -7.102 -3.793 -7.25 -4.8085 
-10.9668 -8.448 -7.179 -8.688001 -7.25 
-13.2313 -8.507 -12.1114 -8.688001 
-13.2903 -13.537 -12.1114 
-12.16972 -4.4715 -3.9005 -1.7565 -4.385 0 
-16.64122 -8.4975 -6.763 -6.061501 -4.385 
-20.66722 -11.5554 -9.406 -6.061501 
-23.72512 -14.1984 -9.406 
-26.36812 -14.1984 
