-4.759 
n/a 
n/a 
n/a 
n/a 
-4.759 
n/a 
n/a 
n/a 
n/a 
-4.759 
n/a 
n/a 
n/a 
n/a 
-4.759 
n/a 
n/a 
n/a 
n/a 
-2.871 -2.186 -1.934 -3.7515 -4.1575 0 0 
-4.751 -4.0835 -6.292 -7.51 -4.1575 0 
-6.5055 -8.991 -10.7099 -7.51 -4.1575 
-11.5458 -13.8787 -10.7099 -7.51 
-16.4335 -13.8787 -10.7099 
-2.871 -3.7515 -1.4985 -4.1575 0 0 
-6.42 -4.6795 -5.455 -4.1575 0 
-7.1095 -9.007501 -5.455 -4.1575 
-12.0539 -9.007501 -5.455 
-12.0539 -9.007501 
-2.871 -2.186 -12.16972 0 
-4.751 -15.56612 -12.16972 
-18.28292 -15.56612 
-18.28292 
n/a 
-2.871 -2.186 -12.16972 0 0 
-4.751 -15.56612 -12.16972 0 
-18.28292 -15.56612 -12.16972 
-18.28292 -15.56612 
-18.28292 
