-4.759 
n/a 
n/a 
n/a 
n/a 
-4.759 
n/a 
n/a 
n/a 
n/a 
-4.759 
n/a 
n/a 
n/a 
n/a 
-4.759 
n/a 
n/a 
n/a 
n/a 
-6.341 -5.2915 -3.251 -3.1125 -4.673 -1.934 -12.16972 0 
-9.863 -8.245501 -4.28 -6.8605 -5.05 -15.11012 -12.16972 
-13.176 -8.660501 -7.403 -7.387001 -19.75572 -15.11012 
-13.591 -11.9669 -7.844501 -21.80292 -19.75572 
-16.8974 -12.4084 -22.42582 -21.80292 
-4.3055 -6.341 -6.463 -2.8645 -3.1125 -5.3075 -2.3345 -12.16972 -8.349 -4.4525 0 
-7.64 -9.710501 -9.2285 -3.5345 -6.757 -6.2735 -14.83482 -20.51872 -13.2269 -4.4525 
-11.4605 -13.0178 -9.8745 -7.5435 -7.664001 -19.37162 -23.18382 -25.39662 -13.2269 
-14.7678 -13.6638 -13.8835 -8.387501 -20.97812 -27.72062 -28.06172 -25.39662 
-15.4138 -17.6728 -14.7275 -21.81982 -29.32712 -32.59852 -28.06172 
-9.919001 -12.16972 -4.4525 -1.934 -12.16972 -5.183 0 -2.3615 -3.3755 -3.584 -6.648 -5.4435 
-22.30332 -16.62222 -6.329 -15.11012 -17.35272 -5.183 -2.3615 -4.8525 -7.403501 -11.3064 -12.8837 
-26.75582 -18.49872 -20.15972 -20.29312 -17.35272 -7.919 -4.8525 -8.8225 -15.6981 -17.5421 
-28.63232 -32.32944 -25.34272 -20.29312 -20.08872 -10.7508 -8.8225 -17.1831 -21.9338 
-42.46304 -37.51244 -25.34272 -23.02912 -22.92052 -14.7208 -17.1831 -23.4188 
-4.975 -2.0935 -4.3055 -5.923 -3.3255 -4.4525 -1.7565 -10.6255 -3.9595 -2.5195 -12.16972 0 
-5.4935 -6.824501 -7.0665 -9.384501 -8.573501 -5.591001 -13.3312 -14.585 -5.087 -15.36282 -12.16972 
-9.690001 -8.991001 -10.2485 -14.8759 -10.76 -17.9655 -17.2907 -15.7125 -18.38552 -15.36282 
-11.9855 -12.2508 -15.7399 -17.0624 -23.1345 -21.925 -18.4182 -29.01102 -18.38552 
-15.2453 -17.7422 -17.9264 -29.4369 -27.094 -23.0525 -31.71672 -29.01102 
