-4.759 
n/a 
n/a 
n/a 
n/a 
-4.759 
n/a 
n/a 
n/a 
n/a 
-4.759 
n/a 
n/a 
n/a 
n/a 
-4.759 
n/a 
n/a 
n/a 
n/a 
-3.1385 -4.4225 -2.688 -4.421 -1.756 -3.8055 -2.4265 -5.673 -2.0935 -4.9505 0 
-7.0585 -6.9905 -6.894001 -5.918 -5.035501 -4.9605 -8.5845 -7.622001 -6.6355 -4.9505 
-9.502501 -10.4945 -8.196501 -8.524 -5.822001 -11.8781 -10.688 -12.6614 -6.6355 
-13.7245 -11.797 -11.0689 -8.9135 -13.9812 -13.9816 -15.7274 -12.6614 
-15.027 -14.6694 -11.4584 -17.8059 -16.0847 -19.021 -15.7274 
-3.1385 -4.4225 -2.688 -4.7385 -1.756 -3.898 -5.673 -1.756 -4.118 
-7.0585 -6.9905 -7.3325 -6.07 -5.447001 -7.772501 -6.7255 -4.9615 
-9.502501 -10.041 -8.626 -10.7854 -8.965 -8.728001 -9.622001 
-13.271 -10.652 -13.5614 -14.3034 -10.19 -11.7209 
-13.882 -15.5874 -17.0794 -15.5284 -13.1829 
-2.742 -4.4225 -2.688 -4.6525 -1.756 -3.898 -5.673 
-6.436 -6.9905 -6.3765 -5.7015 -5.447001 -7.772501 
-9.299001 -8.290501 -7.456501 -9.274 -8.965 
-10.293 -9.1995 -11.2606 -13.2896 
-10.543 -13.1352 -15.2762 
-3.1385 -5.12 -2.3345 -4.795 -2.688 -4.7385 -1.756 -5.462 -4.9795 0 
-7.7925 -7.975501 -6.529 -7.8125 -7.3325 -6.07 -6.872 -10.688 -4.9795 
-11.9944 -10.0925 -9.6315 -10.168 -8.626 -12.2104 -12.4038 -10.688 
-14.1114 -13.7626 -12.196 -10.5505 -14.9864 -17.7422 -12.4038 
-17.7815 -16.3271 -12.5785 -16.9109 -20.5182 -17.7422 
