-4.759 
n/a 
n/a 
n/a 
n/a 
-4.759 
n/a 
n/a 
n/a 
n/a 
-4.759 
n/a 
n/a 
n/a 
n/a 
-4.759 
n/a 
n/a 
n/a 
n/a 
-5.744 -8.007501 -2.7455 -4.4175 0 -3.291 -4.2705 0 -10.488 
-13.3775 -10.1465 -7.8625 -4.4175 -3.291 -7.705 -4.2705 -10.488 
-15.3458 -15.28 -7.8625 -8.328501 -7.705 -7.705 -15.9713 
-21.1098 -15.392 -12.1707 -13.1325 -7.705 -19.9606 
-21.1098 -19.7002 -16.9747 -13.1325 -19.9606 
-1.934 -5.744 -3.355 -2.7455 -6.7285 0 -3.291 -4.2705 -1.756 -4.6085 0 
-7.4595 -8.514001 -6.113 -10.7175 -6.7285 -3.291 -7.705 -5.7145 -6.0095 -4.6085 
-11.1849 -11.8308 -14.42 -10.7175 -11.1881 -7.705 -9.173 -10.757 -6.0095 
-14.5017 -20.1378 -14.42 -15.1771 -15.6021 -9.173 -14.4399 -10.757 
-22.8087 -20.1378 -18.8796 -19.5911 -17.0701 -14.4399 -14.4399 
-2.846 -4.184 0 -4.126 -3.644 -4.4175 0 -3.291 -4.2085 0 -4.938 
-5.9665 -4.184 -4.126 -7.955001 -8.8295 -4.4175 -3.291 -4.9475 -4.2085 -4.938 
-5.9665 -7.836 -7.955001 -13.1435 -8.8295 -8.328501 -4.9475 -4.9475 -10.459 
-9.8675 -11.9022 -13.1435 -13.1435 -13.4073 -10.647 -4.9475 -11.8514 
-14.0335 -17.0907 -13.1435 -17.7213 -15.7258 -10.647 -11.8514 
-5.1905 -5.213 -4.6525 -3.709 0 -3.291 -4.2705 -1.756 -7.6175 
-10.647 -10.168 -10.2385 -3.709 -3.291 -7.705 -5.7145 -9.723001 
-15.602 -15.8486 -10.2385 -7.454 -7.705 -9.173 -14.6993 
-21.2826 -15.8486 -14.1269 -12.8558 -9.173 -18.3822 
-21.2826 -19.737 -19.5287 -14.3238 -18.3822 
