-4.759 
n/a 
n/a 
n/a 
n/a 
-4.759 
n/a 
n/a 
n/a 
n/a 
-4.759 
n/a 
n/a 
n/a 
n/a 
-4.759 
n/a 
n/a 
n/a 
n/a 
-2.8645 -3.7555 -3.469 -4.1115 -4.1355 
-5.647 -7.5895 -7.415 -7.4615 
-9.215 -11.8875 -10.4185 
-13.687 -14.891 
-16.6905 
-2.4265 -2.8645 -5.1495 -4.693 -6.0205 
-4.1435 -8.581 -9.5235 -9.9925 
-10.3885 -13.3578 -14.9782 
-15.1653 -18.8125 
-20.62 
-2.4265 -2.8645 -1.4985 -5.1495 -4.1115 -4.887 0 
-4.1435 -4.3545 -5.3835 -8.551001 -7.97 -4.887 
-5.63 -7.227 -9.038 -13.2229 -7.97 
-8.324 -10.717 -13.5121 -13.2229 
-11.9564 -15.1911 -13.5121 
-2.4265 -2.8645 -1.4985 -5.1495 -4.1115 -4.887 0 
-4.1435 -4.3545 -5.3835 -8.551001 -7.97 -4.887 
-5.63 -7.227 -9.038 -13.2229 -7.97 
-8.324 -10.717 -13.5121 -13.2229 
-11.9564 -15.1911 -13.5121 
