-4.759 
n/a 
n/a 
n/a 
n/a 
-4.759 
n/a 
n/a 
n/a 
n/a 
-4.759 
n/a 
n/a 
n/a 
n/a 
-4.759 
n/a 
n/a 
n/a 
n/a 
-3.36 -3.682 -5.2695 -1.7695 -3.046 -4.3285 -1.7565 -3.2895 0 -3.668 -3.737 -4.3845 -1.7565 -3.682 -8.333 -2.3345 -4.247 0 -3.999 -1.7565 -3.979 -1.7695 -3.586 0 
-6.023 -10.674 -5.785 -5.247 -5.4795 -6.2225 -5.3275 -3.2895 -3.668 -7.3485 -8.774 -4.873 -5.3635 -13.399 -11.2775 -5.601501 -4.247 -3.999 -4.5785 -5.7485 -6.34 -4.7105 -3.586 
-13.8308 -11.1895 -9.3135 -6.6755 -7.764501 -10.4793 -5.3275 -8.316501 -7.3485 -12.6783 -9.169001 -8.4305 -15.8715 -15.5831 -11.5056 -5.601501 -8.172001 -4.5785 -8.969501 -9.219501 -9.696 -4.7105 
-14.3463 -14.718 -10.8476 -9.0725 -12.5291 -10.4793 -10.054 -12.37 -12.6783 -13.0733 -12.6791 -19.3309 -17.5246 -15.6646 -11.5056 -9.595501 -9.338 -8.969501 -13.2381 -12.6287 -9.696 
-17.8748 -16.2521 -13.2446 -14.2051 -12.5291 -15.2058 -14.1075 -17.6998 -13.0733 -16.5834 -23.5795 -20.984 -17.6061 -15.6646 -16.4844 -11.2793 -13.9072 -13.2381 -16.6473 -12.6287 
-2.4265 -7.201 -1.934 -4.0835 -3.682 -4.9385 -3.2895 
-8.6215 -9.4125 -6.345 -8.108001 -8.3 -10.647 
-10.733 -14.1011 -10.6465 -13.3068 -14.6475 
-15.4216 -18.4026 -15.8453 -19.6543 
-19.7231 -23.6014 -22.1928 
-3.046 -4.3285 -3.2895 -4.5875 -1.4985 -3.36 -3.682 0 -3.668 -4.0845 -4.3445 0 -4.082 -2.3345 -4.247 0 -2.4945 -4.7925 -1.934 -1.4985 -3.9785 -2.3345 -3.6885 -7.762001 0 
-5.4795 -6.885 -8.5965 -5.3415 -4.598001 -6.023 -3.682 -3.668 -8.4245 -4.6495 -4.3445 -4.082 -5.5885 -5.601501 -4.247 -2.4945 -5.941501 -6.33 -2.6125 -4.496 -7.1775 -5.9545 -12.6529 -7.762001 
-6.991 -13.095 -9.01 -9.275001 -7.5105 -6.023 -7.271501 -8.4245 -9.462001 -4.6495 -7.4275 -5.5885 -5.670001 -5.601501 -7.559 -5.941501 -7.33 -7.394 -4.783 -7.264501 -11.2751 -15.9397 -12.6529 
-13.3924 -13.5085 -13.2699 -12.6221 -7.5105 -10.3345 -12.4716 -9.462001 -9.462001 -7.4395 -7.6635 -5.670001 -5.670001 -9.463 -10.757 -7.33 -8.398001 -8.6085 -7.407001 -11.3865 -21.2603 -15.9397 
-13.8059 -17.7684 -16.617 -12.6221 -12.4782 -15.5346 -13.5091 -9.462001 -12.2352 -7.666501 -7.711 -5.670001 -9.686501 -12.7958 -12.1455 -8.398001 -10.016 -9.089 -11.6944 -21.3717 -21.2603 
-3.135 -5.711 -3.047 -3.2895 -1.934 -3.098 -2.871 -4.1645 -3.4985 -3.769 -4.2675 -2.3335 -3.5155 -5.312 -2.674 -1.8085 -4.3395 -1.7565 -5.0355 -3.0365 -2.8645 -3.1125 -4.926 -5.294 -4.422 -2.7455 -3.1495 -5.312 -4.173 -3.5125 0 
-8.150001 -8.549001 -7.976501 -5.2095 -5.595 -4.554 -6.617001 -7.372001 -5.473 -7.8935 -5.7275 -5.3005 -7.5045 -7.891001 -3.63 -5.4165 -5.152 -6.3455 -8.134001 -4.989 -3.5345 -6.8265 -9.030001 -7.591001 -5.8665 -5.259501 -7.712 -9.054001 -6.237 -3.5125 
-10.0445 -13.6369 -9.894 -9.526501 -6.3335 -8.5395 -9.14 -9.017501 -8.867001 -9.101001 -8.656501 -9.709001 -10.5035 -9.252501 -7.761 -5.554501 -8.904501 -9.241 -10.0225 -5.1195 -6.9595 -10.151 -10.3165 -8.52 -8.201 -10.411 -11.7444 -10.6345 -6.237 
-15.4858 -15.5544 -14.4042 -10.201 -9.288001 -11.1819 -11.1633 -12.6111 -10.3545 -12.1572 -13.2026 -12.7644 -11.865 -13.4029 -7.884 -9.264 -11.934 -11.3095 -10.191 -7.01 -10.172 -11.8803 -11.2455 -10.341 -13.7603 -14.4434 -13.3249 -10.6345 
-17.4033 -20.0646 -15.0787 -13.1555 -12.025 -13.2052 -14.7569 -14.0986 -13.4107 -16.7033 -16.258 -14.1259 -16.0154 -13.5259 -10.2975 -12.3559 -14.0025 -11.478 -12.0275 -10.1715 -11.9499 -12.8093 -13.0665 -16.2343 -17.7927 -16.0239 -13.3249 
