-4.759 
n/a 
n/a 
n/a 
n/a 
-4.759 
n/a 
n/a 
n/a 
n/a 
-4.759 
n/a 
n/a 
n/a 
n/a 
-4.759 
n/a 
n/a 
n/a 
n/a 
-2.5195 -1.4985 -3.9785 -1.7565 -4.602 -4.153 -3.995 -4.1455 0 -4.1115 -2.186 -1.4985 -3.784 -4.237 -2.95 
-3.1695 -4.496 -4.924 -6.552001 -5.112 -7.973001 -6.749001 -4.1455 -4.1115 -6.279 -3.339 -4.6165 -7.665 -7.9595 
-6.0535 -4.959 -9.1715 -6.637001 -8.6335 -10.9782 -6.749001 -7.849501 -6.279 -7.386 -6.113 -8.256001 -10.209 
-6.6455 -9.262501 -9.215501 -9.4545 -11.7181 -10.9782 -10.411 -11.0104 -7.386 -10.5056 -9.722501 -10.4505 
-10.5035 -9.31 -12.132 -12.7879 -11.7181 -14.6402 -13.5719 -12.1174 -10.5056 -14.1151 -11.9582 
-5.716 -3.741 -3.4515 -3.3435 -2.742 -2.489 -3.0465 -3.966 -3.383 -3.9555 0 -4.5085 -3.6615 -2.4945 -1.4985 -4.1315 -3.9515 
-9.838501 -8.005001 -8.0065 -5.998 -3.301 -6.916 -5.8835 -7.828 -5.706 -3.9555 -4.5085 -8.512 -5.3425 -3.9315 -5.2375 -7.537001 
-14.2825 -13.265 -11.1326 -6.479 -7.725 -9.757 -8.878 -9.838 -5.706 -9.717001 -8.512 -10.2385 -7.2825 -7.467 -7.8025 
-19.5425 -16.3911 -11.6136 -11.3564 -10.6735 -12.7501 -10.6215 -9.838 -11.8905 -14.0789 -10.2385 -12.1785 -10.5525 -9.559 
-22.6686 -16.8721 -16.491 -14.3049 -13.6666 -14.4936 -10.6215 -16.0225 -16.2524 -15.8054 -12.1785 -15.4485 -12.6445 
-3.135 -1.7565 -1.4985 -4.1315 -4.896 -2.4945 -3.299 -4.656 -1.7565 -5.3745 -5.473 -3.6615 0 -4.496 -5.7015 -1.7565 -3.8245 -3.681 0 -3.6615 -1.934 -4.388 -5.327 0 
-3.9195 -2.4195 -5.2375 -8.6435 -6.527501 -5.663 -7.576001 -4.96 -6.707 -9.948 -6.1595 -3.6615 -4.496 -9.796 -6.0185 -5.058 -6.1385 -3.681 -3.6615 -4.437 -5.8095 -8.8095 -5.327 
-4.168 -6.3135 -9.205501 -10.1595 -10.2135 -10.575 -7.951501 -9.68 -11.7139 -10.8673 -6.1595 -7.935 -9.796 -9.907001 -9.953501 -6.927 -6.1385 -7.850501 -4.437 -8.006001 -10.0605 -8.8095 
-8.109501 -10.2925 -10.703 -14.0149 -15.1255 -10.9505 -12.8009 -14.8703 -12.6332 -10.8673 -11.517 -13.6986 -9.907001 -13.8508 -11.9393 -6.927 -9.8335 -8.283501 -8.006001 -12.5372 -10.0605 
-12.3611 -11.9196 -14.5584 -18.9269 -15.501 -15.7999 -17.9912 -15.7896 -12.6332 -16.2248 -17.2806 -13.8096 -13.8508 -15.8366 -11.9393 -10.5855 -10.3775 -12.3481 -12.5372 -12.5372 
-4.879 -3.402 -2.264 -4.2485 -1.756 -5.015 -2.4945 -3.699 -1.7695 -4.388 0 -1.756 -4.122 -1.7695 -5.1215 -3.5445 -4.9705 -4.0565 -4.2485 -4.879 -2.4945 -3.2955 -2.3345 -4.3515 -3.7495 -1.7695 -4.5435 -4.1635 -3.2295 -4.0225 -3.4795 0 
-7.5235 -3.793 -6.807 -5.4505 -6.245 -7.479501 -5.304 -4.585 -6.3665 -4.388 -1.756 -4.816 -5.974 -7.006501 -8.5635 -8.905001 -6.276501 -9.723 -8.055 -6.3725 -4.6305 -4.534 -7.0775 -6.391 -5.201 -5.390501 -8.229501 -7.070001 -7.29 -6.4055 -3.4795 
-7.5525 -7.778 -7.4655 -6.8385 -7.898001 -9.557001 -5.9445 -8.396 -6.3665 -5.273 -4.816 -6.786 -11.9546 -10.2035 -14.2176 -10.1855 -12.8996 -10.384 -9.3585 -8.356501 -5.836 -8.6805 -7.958 -7.5615 -8.559001 -8.4805 -10.2485 -9.7605 -8.8415 -6.4055 
-10.3035 -8.459001 -8.805 -8.666 -9.877501 -10.1825 -9.354 -8.396 -7.1095 -8.7475 -6.786 -12.757 -15.1516 -15.7448 -15.4981 -16.8086 -13.5606 -10.396 -10.282 -9.18 -9.681001 -9.023001 -9.0915 -10.3215 -10.298 -10.2695 -10.3905 -10.3775 -8.8415 
-10.357 -9.527 -10.228 -10.0185 -10.319 -10.398 -9.354 -9.1425 -10.0815 -10.1305 -12.757 -15.954 -20.6929 -17.0253 -22.1212 -17.4696 -13.5726 -10.408 -10.392 -10.368 -9.934501 -9.5605 -10.3745 -10.3915 -10.3915 -10.3905 -10.4025 -10.3775 
