-4.759 
n/a 
n/a 
n/a 
n/a 
-4.759 
n/a 
n/a 
n/a 
n/a 
-4.759 
n/a 
n/a 
n/a 
n/a 
-4.759 
n/a 
n/a 
n/a 
n/a 
-5.3885 -7.7105 -1.756 -3.769 -2.4945 -3.2955 -2.3345 -6.557 -3.2875 -4.985 
-8.4645 -9.601 -4.496 -5.245 -4.6305 -4.534 -9.171 -9.625 -7.9495 
-10.228 -12.3892 -6.0925 -7.721001 -5.836 -12.1317 -12.4402 -14.5296 
-13.0162 -13.9857 -8.428 -8.958 -13.8625 -15.4009 -17.3448 
-14.6127 -16.3212 -9.611501 -17.0797 -17.1317 -20.3055 
-5.3885 -7.7105 -2.186 -3.2955 -2.3345 -1.4985 -4.985 -2.9705 -5.6495 -1.7695 -2.8965 -4.167 -1.934 -6.557 
-8.4645 -10.0315 -4.348001 -4.534 -3.233 -6.4005 -7.4515 -8.172501 -6.244 -4.497 -5.3735 -5.437 -7.536 
-10.4765 -12.4303 -5.5695 -5.117 -8.59 -8.519501 -10.575 -8.7185 -8.726501 -7.0255 -6.654 -10.025 
-13.2739 -13.6518 -6.103 -9.791 -10.3675 -11.741 -11.121 -11.3194 -10.0445 -7.773001 -11.7382 
-14.4954 -14.1853 -11.0448 -11.7713 -13.589 -12.287 -13.7219 -12.6374 -10.792 -13.1022 
-5.3885 -7.7105 -2.186 -3.2955 -2.3345 -1.4985 -4.985 -2.5195 -1.756 -1.7695 -2.8965 -4.167 -1.7565 -1.4985 -6.557 0 
-8.4645 -10.0315 -4.348001 -4.534 -3.233 -6.4005 -6.631 -5 -3.963 -4.497 -5.3735 -5.5915 -2.4195 -8.1955 -6.557 
-10.4765 -12.4303 -5.5695 -5.117 -8.59 -8.317 -9.482 -6.318501 -6.496 -7.0255 -7.326 -6.3205 -8.9665 -8.1955 
-13.2739 -13.6518 -6.103 -9.791 -10.717 -11.3196 -9.5315 -8.3405 -9.059501 -8.653501 -8.041 -14.0339 -8.9665 
-14.4954 -14.1853 -11.0448 -12.1208 -13.7196 -11.3691 -11.5405 -11.2602 -10.31 -9.234 -16.1058 -14.0339 
-5.3885 -7.7105 -4.905 -4.0465 -2.186 -3.2955 -2.3345 -3.948 -4.985 -3.958 -1.7695 -3.6065 -4.622 -4.167 -1.934 -6.557 0 
-8.4645 -9.0485 -5.8205 -5.764 -4.348001 -4.534 -5.4345 -8.6505 -7.33 -6.0725 -5.3625 -7.7715 -6.8225 -5.437 -7.536 -6.557 
-10.204 -9.091001 -7.271 -8.0135 -5.5695 -7.196 -10.3815 -10.7495 -8.8035 -9.2775 -10.022 -10.7175 -8.298 -10.025 -7.536 
-10.278 -10.576 -10.3155 -9.062 -8.196501 -12.3048 -12.4805 -12.223 -12.2013 -14.1366 -12.968 -12.193 -13.1962 -10.025 
-11.763 -13.6205 -10.631 -11.8114 -13.5335 -14.4038 -13.954 -15.6208 -17.0604 -17.0826 -14.4435 -17.0912 -13.1962 
