-4.759 
n/a 
n/a 
n/a 
n/a 
-4.759 
n/a 
n/a 
n/a 
n/a 
-4.759 
n/a 
n/a 
n/a 
n/a 
-4.759 
n/a 
n/a 
n/a 
n/a 
-3.091 -4.284 -3.098 -2.186 -3.83 0 
-4.863 -7.997001 -4.7005 -6.688001 -3.83 
-8.939 -9.287001 -8.76 -6.688001 
-9.9385 -13.3465 -8.76 
-13.998 -13.3465 
-3.098 -1.7565 -3.091 -4.284 -2.186 -7.486001 
-4.3615 -4.0655 -4.863 -5.940001 -9.9645 
-6.6955 -6.2565 -6.6625 -14.2445 
-8.0675 -8.441501 -15.0646 
-9.196501 -16.998 
-1.4985 -3.098 -1.7565 -3.091 -4.284 -2.186 -7.486001 0 
-4.3095 -4.3615 -4.0655 -4.863 -5.940001 -9.9645 -7.486001 
-4.5915 -6.6955 -6.2565 -6.6625 -14.2445 -9.9645 
-6.732 -8.0675 -8.441501 -15.0646 -14.2445 
-8.177501 -9.196501 -16.998 -15.0646 
-3.091 -4.284 -3.098 -2.186 -7.486001 
-4.863 -7.997001 -4.7005 -9.9645 
-8.939 -9.287001 -12.5342 
-9.9385 -17.1207 
-17.7722 
