-4.759 
n/a 
n/a 
n/a 
n/a 
-4.759 
n/a 
n/a 
n/a 
n/a 
-4.759 
n/a 
n/a 
n/a 
n/a 
-4.759 
n/a 
n/a 
n/a 
n/a 
-1.934 -3.9415 -3.158 -3.188 -4.2195 -4.1495 -1.7565 -1.4985 -4.1105 -3.3195 -3.926 -3.074 0 
-5.2535 -7.053 -7.0325 -7.560501 -8.1885 -7.023001 -2.4195 -5.1575 -8.0445 -7.338 -7.854 -3.074 
-9.135501 -11.9161 -12.099 -11.9941 -11.4818 -7.64 -6.271 -9.821501 -12.453 -12.0838 -7.854 
-13.853 -16.9826 -16.5326 -15.2874 -12.0988 -11.8833 -10.733 -14.3972 -17.1988 -12.0838 
-18.9195 -21.4162 -19.8259 -15.9044 -16.3421 -16.3453 -15.3087 -19.143 -17.1988 
-2.9805 -3.5745 -3.3715 -4.405 -3.645 -1.934 -3.9415 -8.748 -3.324 0 
-4.8665 -6.837501 -7.235001 -7.849501 -5.122 -5.2535 -10.354 -10.2215 -3.324 
-8.045 -11.138 -9.920501 -9.1075 -8.4565 -11.503 -13.8975 -10.375 
-12.4601 -13.8235 -11.2513 -12.6516 -14.755 -15.6683 -13.9893 
-15.1456 -15.1543 -14.7954 -18.9501 -18.9203 -15.6683 
-2.9805 -4.96 -3.3195 -1.7695 -3.948 -3.645 -1.934 -3.9415 -4.2195 -4.5285 -5.2215 0 
-6.9405 -7.348 -5.492001 -5.414001 -6.5565 -5.122 -5.2535 -8.272 -6.3015 -10.2045 -5.2215 
-8.514501 -8.8875 -9.014501 -8.134001 -7.939001 -8.4565 -9.951 -9.824 -13.0315 -10.2045 
-9.908001 -12.5798 -11.8787 -9.4755 -11.5491 -13.203 -11.503 -16.6458 -13.0315 
-13.7261 -15.444 -13.2202 -13.2012 -16.2956 -14.755 -18.3248 -16.6458 
-2.9805 -4.96 -3.3195 -3.948 -3.645 -2.5045 -4.2195 -4.5285 -5.2215 -1.934 -3.9415 0 
-6.9405 -7.348 -7.110001 -6.5565 -5.6925 -7.047 -6.3015 -10.2045 -6.936501 -5.2535 -3.9415 
-8.514501 -11.9075 -10.6179 -8.4165 -10.7712 -8.293 -13.0315 -12.1705 -10.6944 -5.2535 
-13.5578 -15.4154 -12.4779 -13.6376 -12.0172 -15.2028 -14.9975 -15.9284 -10.6944 
-17.0657 -17.2754 -17.699 -14.8836 -18.927 -17.1688 -18.7554 -15.9284 
