-4.759 
n/a 
n/a 
n/a 
n/a 
-4.759 
n/a 
n/a 
n/a 
n/a 
-4.759 
n/a 
n/a 
n/a 
n/a 
-4.759 
n/a 
n/a 
n/a 
n/a 
-2.3615 -3.2345 -1.4985 -5.473 -3.6615 -3.034 -3.5455 -4.918 -4.33 -3.7075 -2.4265 -2.186 -3.9655 -3.852 -1.756 -3.034 -2.4265 -2.186 -4.339 -3.8515 -2.5195 -2.4265 -2.186 -4.152 -3.852 
-6.0675 -4.328 -6.811501 -6.1595 -6.3665 -7.448 -5.943501 -8.802 -8.580501 -6.613 -3.292 -7.054 -6.291 -5.3415 -4.5815 -4.3295 -3.292 -5.9745 -6.284 -4.4615 -5.0885 -3.292 -7.136001 -6.307501 
-7.4215 -10.4185 -8.205 -9.975 -10.688 -10.2135 -9.479501 -13.4991 -11.8326 -7.311 -7.563001 -9.7355 -7.56 -7.845 -5.733 -5.1635 -6.985 -7.892 -6.503 -6.141 -6.7085 -7.627501 -9.729501 
-13.5798 -11.812 -12.6511 -14.3127 -14.2457 -13.7495 -14.446 -16.7512 -12.5306 -9.88 -10.213 -11.1007 -10.1185 -8.981501 -6.418 -8.085501 -9.443001 -7.9725 -8.3975 -8.2065 -11.2656 -10.064 
-14.9733 -16.2581 -16.9888 -17.8704 -17.7817 -18.716 -17.6981 -17.4492 -15.0996 -12.7566 -11.7056 -13.6592 -11.3698 -9.8465 -9.734001 -10.3285 -9.5825 -10.1145 -10.702 -13.0692 -13.7021 
-6.8225 -4.461 -2.7765 -4.474 -3.851 -1.7695 -1.4985 -3.7075 -4.6545 -2.5045 -2.9995 -4.015 -4.398 0 -2.9705 -5.069 -2.3345 -4.9865 -2.5195 -1.4985 -5.598 -1.4985 -4.0205 -4.2485 -4.633 -3.458 -4.989 -1.756 -4.7 -3.599 -4.174 -4.3855 -1.7695 -1.4985 -4.7215 -4.2465 -3.741 -3.517 -1.934 -1.4985 -10.3365 
-9.8265 -6.741001 -5.497001 -6.552 -4.0015 -2.7955 -4.6235 -7.448 -6.785 -4.488 -5.3395 -7.355 -4.398 -2.9705 -6.737 -6.134501 -7.5935 -7.8625 -3.1695 -6.121 -7.342 -5.418 -8.029501 -8.174001 -6.243001 -8.097 -6.8225 -6.1905 -7.856501 -8.167001 -6.1615 -5.225 -2.7955 -5.969 -6.487 -8.5175 -6.889 -5.1655 -2.6125 -8.0755 
-12.1481 -8.658501 -7.498501 -6.5555 -4.5775 -5.974 -8.3395 -9.279501 -8.709001 -6.817 -8.532001 -7.355 -7.0195 -6.737 -7.788001 -9.455 -9.371 -8.436001 -7.4945 -7.436501 -10.2925 -8.763 -9.724501 -8.750501 -9.975 -8.601001 -8.939501 -9.204 -10.168 -9.805 -6.180501 -5.821001 -7.485001 -7.1895 -9.479501 -10.259 -8.445001 -5.8735 -8.2735 
-14.0656 -9.920501 -7.503001 -7.0755 -8.0675 -9.709001 -9.6285 -10.1775 -10.204 -9.469501 -8.532001 -9.4685 -10.159 -7.788001 -10.259 -10.1775 -10.0545 -10.1765 -9.110001 -10.298 -10.5135 -9.956 -9.991501 -10.1345 -10.0895 -9.625001 -9.52 -10.1815 -10.184 -9.817501 -6.8885 -9.684001 -9.004001 -10.1945 -10.39 -10.4515 -8.788 -11.43 
-15.3276 -9.9245 -8.357 -10.2425 -10.034 -10.2665 -10.2405 -10.3185 -10.318 -9.469501 -10.2865 -10.3115 -10.305 -10.259 -10.319 -10.3185 -10.316 -10.53 -10.5235 -10.523 -10.5485 -10.0455 -10.1835 -10.1575 -10.153 -9.73 -10.182 -10.189 -10.1915 -10.095 -10.1375 -9.932001 -10.451 -10.434 -10.4555 -10.4735 -11.579 
-2.3615 -4.6205 -5.473 -3.6615 -4.4985 -3.893 -3.135 -6.8745 -3.5455 -4.918 -2.186 -2.7455 -1.4985 -3.7075 0 -1.4985 -3.9655 -2.95 -1.7565 -3.5455 -4.989 -1.756 -4.152 -2.186 -4.4825 -3.074 -3.034 -1.4985 -3.486 -2.186 -3.8515 -2.5195 -1.4985 -3.7075 
-6.0985 -10.533 -6.1595 -7.136001 -5.606 -6.6675 -8.9375 -10.415 -5.943501 -6.8395 -4.686 -3.637 -4.6235 -3.7075 -1.4985 -4.8585 -6.1405 -4.3785 -4.8635 -7.264 -6.8225 -5.8515 -6.3015 -7.837001 -7.552 -5.972 -3.947 -3.5655 -5.8735 -6.433001 -4.4615 -3.1695 -4.6235 
-12.6594 -11.2195 -10.6095 -8.362 -9.187 -13.1205 -13.137 -12.592 -7.688 -9.064501 -5.6835 -6.891 -4.6235 -5.487 -4.8585 -7.0825 -8.882 -9.353001 -8.842501 -9.7775 -11.7488 -7.8495 -12.6207 -10.718 -9.1565 -6.895 -6.5945 -5.91 -11.0089 -6.949 -4.964 -5.905 
-13.3459 -15.6695 -11.8773 -12.2168 -15.638 -17.1416 -16.1049 -14.3433 -9.821501 -10.6745 -9.461 -6.891 -6.1435 -9.263 -7.0825 -9.34 -14.0071 -13.3164 -11.5684 -15.1046 -13.7468 -14.2207 -15.5017 -12.3225 -9.678 -9.401501 -8.203501 -11.144 -11.5249 -7.3345 -7.193501 
-17.7959 -16.9373 -15.7321 -18.6678 -19.6591 -19.9139 -17.8494 -16.4768 -11.7149 -14.452 -9.461 -8.318501 -9.4615 -11.618 -9.34 -14.4981 -17.9705 -16.0423 -16.8955 -17.1026 -20.118 -17.1017 -17.1062 -12.844 -12.9107 -10.759 -13.3957 -11.66 -11.9104 -9.587501 
-3.851 -1.7695 -3.469 -2.95 -3.6615 -1.934 -1.4985 -3.793 -5.6235 -2.186 -3.4625 -1.934 -5.473 -3.618 -3.034 -3.5455 -4.918 -4.6365 -1.4985 -3.7075 -2.4265 -2.186 -3.9655 -1.756 -3.034 -2.186 -3.8515 -2.5195 -3.7075 -2.4265 -2.186 -4.152 -3.852 
-4.0015 -5.617 -4.7535 -6.585 -4.437 -2.6125 -4.582 -10.2335 -7.132 -6.367001 -4.565 -7.5435 -6.473 -6.422501 -7.448 -5.943501 -8.224501 -6.025001 -4.6235 -6.613 -3.292 -7.054 -5.535 -4.5815 -5.494 -6.433001 -4.4615 -6.1755 -6.613 -3.292 -7.136001 -6.307501 
-7.1815 -7.3785 -9.221001 -7.469 -5.0245 -5.827001 -11.4547 -11.742 -12.016 -7.742001 -8.787001 -8.075001 -9.0505 -11.0151 -10.2135 -9.83 -9.360001 -8.4285 -6.865001 -7.311 -7.563001 -8.166 -8.1495 -6.958 -10.281 -6.949 -8.378 -8.712501 -7.311 -7.627501 -9.729501 
-8.985001 -12.0072 -9.629001 -8.0015 -7.054 -12.9833 -12.9632 -16.626 -13.391 -12.1196 -9.035 -10.7825 -13.7983 -13.7806 -14.1 -10.2315 -9.911501 -9.935501 -7.5035 -9.88 -8.3505 -10.598 -10.7596 -12.2242 -10.4205 -11.3075 -10.7575 -9.519501 -10.2585 -10.064 
-13.7699 -12.4152 -9.9805 -10.138 -14.5185 -14.4918 -17.8472 -18.001 -17.7686 -12.3676 -11.8225 -15.5303 -16.5638 -17.6671 -14.5015 -10.471 -11.5847 -10.5175 -9.9075 -10.8941 -10.9449 -13.2081 -16.0258 -12.3637 -14.779 -13.687 -11.5645 -12.5634 -12.8916 
