-4.759 
n/a 
n/a 
n/a 
n/a 
-4.759 
n/a 
n/a 
n/a 
n/a 
-4.759 
n/a 
n/a 
n/a 
n/a 
-4.759 
n/a 
n/a 
n/a 
n/a 
-3.961 -2.186 -12.16972 
-6.6815 -15.56612 
-20.56382 
n/a 
n/a 
0 -4.721 -3.6905 -11.0555 -4.13 0 -3.3155 -9.1975 
-4.721 -9.7605 -15.7222 -15.1855 -4.13 -3.3155 -13.4808 
-9.7605 -21.7922 -19.8522 -15.1855 -7.1565 -13.4808 
-21.7922 -25.9222 -19.8522 -18.212 -17.534 
-25.9222 -25.9222 -22.8787 -28.5895 
-12.16972 -9.045501 -11.0555 -6.5605 -2.186 -9.1975 
-21.21522 -20.3606 -17.616 -8.805 -12.5939 
-32.53032 -26.9211 -19.8605 -19.4241 
-39.09082 -29.1656 -30.4796 
-41.33532 -39.7847 
-12.16972 -11.0555 -5.3525 -3.644 -9.1975 
-23.22522 -16.408 -8.730501 -13.5459 
-28.57772 -19.786 -18.773 
-31.95572 -29.8285 
-41.99822 
