-4.759 
n/a 
n/a 
n/a 
n/a 
-4.759 
n/a 
n/a 
n/a 
n/a 
-4.759 
n/a 
n/a 
n/a 
n/a 
-4.759 
n/a 
n/a 
n/a 
n/a 
-4.566 0 -2.3085 -3.0805 -5.132 -3.4945 -4.121 
-4.566 -2.3085 -3.7245 -7.844 -7.7165 -8.123501 
-7.12 -3.7245 -7.936501 -10.4765 -12.8555 
-8.605 -7.936501 -10.494 -16.0759 
-12.992 -10.494 -16.076 
-4.566 0 -12.16972 -5.175 -7.9795 0 
-4.566 -12.16972 -17.34472 -10.7025 -7.9795 
-17.14952 -17.34472 -22.87222 -10.7025 
-22.32452 -22.87222 -22.87222 
-27.85202 -22.87222 
-4.566 0 -10.651 -5.175 -7.9795 
-4.566 -10.651 -16.096 -10.7025 
-15.6308 -16.096 -21.6235 
-21.0758 -21.6235 
-26.6033 
-15.217 -6.3965 -7.9795 
-22.2973 -9.579 
-25.4798 
n/a 
n/a 
