-4.759 
n/a 
n/a 
n/a 
n/a 
-4.759 
n/a 
n/a 
n/a 
n/a 
-4.759 
n/a 
n/a 
n/a 
n/a 
-4.759 
n/a 
n/a 
n/a 
n/a 
-1.934 -1.4985 -3.277 -8.847 -3.264 -7.009 -2.186 -4.19 -2.264 -4.7815 -2.882 -2.7405 0 
-2.6125 -4.64 -13.1726 -10.451 -9.457001 -8.5275 -5.4405 -6.0785 -6.692 -6.783501 -4.3745 -2.7405 
-5.715 -15.2512 -14.7766 -16.644 -10.7585 -9.4375 -7.081 -10.6735 -8 -7.724 -4.3745 
-16.41 -16.8552 -20.9696 -17.9455 -11.6685 -11.1978 -12.0398 -11.9815 -8.971001 -7.724 
-18.014 -23.0482 -22.2711 -18.8555 -13.4288 -16.1566 -13.3478 -12.9525 -8.971001 
-8.847 -4.8165 -2.3335 -2.264 -2.882 -3.1205 -2.7405 -7.009 -2.7415 -4.424 
-13.9673 -5.8995 -5.2485 -4.774 -5.2485 -4.687 -9.712501 -8.623 -8.262 
-15.0503 -8.656501 -7.485001 -6.396 -6.196001 -12.0482 -11.5055 -14.3799 
-17.8073 -10.494 -9.083 -7.1945 -13.9746 -13.8412 -17.2624 
-19.6448 -12.092 -9.999901 -15.3095 -15.7676 -19.5981 
-12.16972 -4.0925 -3.091 -3.277 -2.3335 -7.699501 -4.424 -2.264 -4.7815 -2.882 -2.7405 0 
-16.26222 -6.42 -6.297 -5.326 -9.4455 -11.117 -5.6385 -6.692 -6.783501 -4.3745 -2.7405 
-18.58972 -8.6195 -7.747 -12.698 -13.0872 -12.3315 -8.9005 -8 -7.724 -4.3745 
-20.78922 -10.634 -15.3276 -16.3397 -14.3017 -15.5935 -10.1345 -8.971001 -7.724 
-22.80372 -18.2146 -18.9693 -17.5542 -17.5637 -16.8275 -11.3761 -8.971001 
-3.8275 -4.9665 -2.264 -4.7815 -1.7565 -2.882 -2.7405 
-9.84 -6.147 -6.692 -6.6635 -5.351 -4.3745 
-11.0205 -10.19 -8.2555 -7.7895 -6.8035 
-15.0635 -11.7535 -9.3955 -9.083501 
-16.627 -12.8935 -10.486 
