-4.759 
n/a 
n/a 
n/a 
n/a 
-4.759 
n/a 
n/a 
n/a 
n/a 
-4.759 
n/a 
n/a 
n/a 
n/a 
-4.759 
n/a 
n/a 
n/a 
n/a 
-4.685 -2.5195 -1.4985 -5.226 -3.772 -1.7565 -4.559 0 -1.4985 -3.2275 -1.7565 -4.065 -4.225 -2.186 -2.3335 -4.559 -3.2645 -2.6165 -4.319 -4.3075 -2.872 -3.2645 -5.72 -1.934 -4.1665 -3.9485 -2.356 -1.4985 -5.248 0 
-5.093 -3.1695 -7.121 -8.262001 -5.153 -5.683 -4.559 -1.4985 -4.925 -5.2895 -5.305501 -7.778 -6.043 -3.9765 -6.672 -7.3815 -4.457 -6.7095 -7.594501 -6.162001 -5.6995 -8.265 -6.035501 -6.7115 -7.9085 -4.311 -3.1615 -6.229 -5.248 
-5.585001 -9.0115 -9.598001 -9.673 -9.764 -5.683 -6.1915 -4.925 -5.918 -9.0155 -9.349001 -10.474 -6.8715 -8.200001 -8.155001 -8.586 -8.2375 -9.113501 -9.2145 -8.602 -11.0008 -8.611501 -10.27 -10.298 -8.137 -4.981 -7.6955 -6.229 
-11.7218 -11.5641 -9.955001 -14.3226 -9.764 -7.2405 -9.4355 -5.918 -9.509501 -13.1584 -12.3072 -11.3025 -12.197 -9.8105 -9.2285 -12.3551 -10.7783 -10.4195 -11.8919 -14.1491 -11.3473 -12.8678 -13.9891 -10.7311 -8.683001 -9.958 -7.6955 
-14.2744 -11.9211 -14.7172 -14.3226 -11.7133 -10.7323 -10.079 -9.509501 -13.7338 -16.1166 -13.1357 -16.628 -13.8075 -10.8668 -12.9656 -14.8959 -12.0843 -13.0969 -17.439 -14.4956 -15.6036 -16.5869 -14.4222 -11.2771 -13.7296 -9.958 
-4.1715 -1.4985 -4.559 -2.229 -4.7055 0 -1.4985 -3.8825 -3.441 -4.703 -2.186 0 -2.4265 -3.2645 -2.6165 -2.489 -4.37 -1.934 -4.7035 -4.9425 0 -2.4265 -3.2645 -3.429 -3.355 -1.934 -4.8025 -3.772 -2.356 -5.4005 -3.959 0 
-4.693 -7.208 -5.3525 -6.6465 -4.7055 -1.4985 -4.569 -7.7675 -8.167001 -6.058 -2.186 -2.4265 -4.563 -4.457 -3.82 -8.439 -4.568501 -6.013 -11.0145 -4.9425 -2.4265 -4.563 -5.275001 -5.2945 -4.8475 -6.7485 -7.328 -5.8645 -6.851501 -6.517 -3.959 
-11.0371 -7.673 -10.264 -6.6465 -6.375 -4.569 -8.585501 -13.0371 -9.481001 -6.058 -4.2875 -4.563 -5.7365 -4.7245 -10.1905 -8.587 -8.503 -12.9772 -11.0145 -7.5075 -4.563 -6.67 -7.651 -5.3915 -9.232 -8.581501 -8.333 -9.463 -7.744 -6.517 
-11.5021 -13.1039 -10.264 -8.401501 -9.4545 -8.585501 -14.2153 -14.3511 -9.481001 -8.535 -7.2435 -5.7365 -5.91 -11.4024 -10.324 -12.7445 -15.5942 -12.9772 -13.5795 -9.158501 -6.67 -9.77 -7.757501 -9.519501 -10.3965 -9.427001 -12.2703 -10.4865 -7.744 
-16.933 -13.1039 -12.076 -11.7048 -13.6654 -14.2153 -15.5293 -14.3511 -12.146 -11.8432 -8.2705 -5.91 -12.9363 -11.5359 -14.3979 -19.8357 -15.5942 -15.5422 -15.2305 -11.8421 -9.77 -9.896501 -12.0005 -10.5875 -11.242 -13.5263 -13.2938 -10.4865 
-1.4985 -3.634 -4.579 -2.186 -6.134501 0 -6.8035 -2.4265 -2.8645 -2.5685 -4.547 -2.985 -3.634 -3.441 -3.6205 -2.186 -2.3335 -2.4265 -3.2645 -4.319 -3.9485 -2.356 -4.094 -3.959 
-4.943501 -6.557 -5.9845 -7.893001 -6.134501 -6.8035 -7.7295 -4.1435 -5.509501 -7.2725 -8.092001 -6.322001 -7.229 -6.492001 -5.2355 -3.9765 -3.913 -4.563 -7.1265 -7.822001 -4.311 -6.624001 -7.484 
-7.1565 -7.8305 -12.3705 -7.893001 -13.2688 -7.7295 -8.905001 -6.419 -8.462 -11.2635 -11.5716 -9.767 -11.3556 -8.058001 -7.09 -5.069 -5.849 -9.3365 -11.1327 -8.131001 -8.265 -8.846001 
-8.026 -14.9821 -12.3705 -15.3149 -14.1948 -8.905001 -11.5075 -10.403 -13.7062 -14.7431 -15.0166 -14.0064 -12.9216 -10.13 -7.87 -7.0985 -10.159 -13.4181 -11.4417 -12.5394 -10.907 
-15.532 -14.9821 -19.7924 -16.2409 -15.3703 -11.5075 -15.4915 -15.9142 -17.1858 -18.1881 -19.256 -15.5724 -14.9936 -10.6275 -9.644501 -11.6335 -14.3642 -13.7271 -15.8501 -15.1814 
-4.559 -3.3785 -4.273 -2.186 -2.0935 -3.441 -4.339 0 -4.064 -1.7565 -4.563 -10.078 0 -2.4265 -3.613 -2.356 -5.0265 -3.959 -1.756 -3.429 -1.934 -4.267 -4.299 0 
-7.5125 -6.934 -5.6225 -4.4495 -5.3855 -7.4735 -4.339 -4.064 -4.3045 -5.954 -11.4125 -6.389 -2.4265 -6.653 -6.174 -7.176001 -7.6085 -5.173 -4.86 -5.593 -6.221 -8.236501 -4.299 
-11.8932 -8.367001 -7.616 -7.5245 -10.7575 -7.4735 -8.022 -4.3045 -6.620501 -11.802 -10.2 -8.934 -6.653 -9.23 -10.2865 -9.385 -8.813001 -8.4825 -6.692 -10.5864 -10.3475 -8.236501 
-13.3262 -10.0005 -10.757 -13.6967 -10.7575 -11.3867 -8.194 -6.620501 -12.5057 -10.768 -13.0344 -13.5467 -9.23 -13.5933 -12.7071 -10.1735 -12.2577 -10.6465 -12.3188 -14.7129 -10.3475 
-14.9597 -13.1527 -16.9292 -13.6967 -14.6707 -11.5587 -10.6926 -12.5057 -12.5057 -14.6144 -17.6471 -16.1237 -13.5933 -16.0139 -13.4956 -13.6182 -14.4217 -16.2733 -16.4453 -14.7129 
