-4.759 
n/a 
n/a 
n/a 
n/a 
-4.759 
n/a 
n/a 
n/a 
n/a 
-4.759 
n/a 
n/a 
n/a 
n/a 
-4.759 
n/a 
n/a 
n/a 
n/a 
-7.781 -4.245 0 -4.4175 -4.0375 0 -4.0305 -3.7825 0 
-12.9092 -4.245 -4.4175 -8.299 -4.0375 -4.0305 -8.163 -3.7825 
-12.9092 -9.633501 -8.299 -8.299 -7.936001 -8.163 -8.163 
-18.2977 -13.7108 -8.299 -12.5123 -10.6875 -8.163 
-22.375 -13.7108 -12.5123 -15.2638 -10.6875 
-4.245 -1.7565 -3.5035 
-6.1035 -4.6725 
-9.469001 
n/a 
n/a 
-4.1585 -5.87 0 -4.747 -8.7845 -3.7825 0 
-11.046 -5.87 -4.546 -13.7855 -12.854 -3.7825 
-11.046 -11.2739 -12.0185 -14.7285 -10.823 
-16.4499 -17.1734 -13.3521 -13.3521 
-21.9639 -19.8027 -13.0748 
-4.245 -1.7565 -3.5035 0 -17.6485 0 
-6.1035 -4.6725 -3.5035 -19.3365 -19.3365 
-9.469001 -4.6725 -24.7342 -20.0967 
-9.469001 -26.1332 -24.7342 
-31.1177 -26.1332 
