-4.759 
n/a 
n/a 
n/a 
n/a 
-4.759 
n/a 
n/a 
n/a 
n/a 
-4.759 
n/a 
n/a 
n/a 
n/a 
-4.759 
n/a 
n/a 
n/a 
n/a 
-3.8755 -4.54 -4.328 0 -4.719 -4.676 -1.756 -4.1135 -4.328 -5.119 -4.0675 -4.277 -4.3515 
-8.403 -8.701 -4.328 -4.719 -8.725 -5.715 -5.259 -5.746 -9.616501 -9.693001 -7.138 -5.847001 
-12.9258 -8.701 -10.032 -8.725 -9.8675 -8.429001 -6.650001 -11.4443 -14.2573 -12.8521 -9.2205 
-12.9258 -14.5232 -14.0972 -9.8675 -12.7251 -8.595 -12.6155 -16.0851 -17.4164 -14.9346 
-18.748 -18.5884 -15.2397 -12.7251 -12.8911 -14.8683 -17.2563 -19.2442 -19.4989 
-1.934 -4.633 0 -3.672 -4.7165 -4.1685 -2.3345 -4.3665 -2.186 -4.596 -5.12 -2.5045 0 -4.0675 -4.277 0 
-5.1045 -4.633 -3.672 -8.739 -8.3605 -6.972501 -6.674001 -6.699 -5.6075 -7.9565 -7.3675 -2.5045 -4.0675 -7.138 -4.277 
-5.1045 -8.3485 -8.739 -10.068 -9.984001 -9.529001 -8.5345 -9.758501 -9.1905 -10.4765 -7.3675 -7.591001 -7.138 -7.138 
-8.578501 -10.254 -10.068 -10.1525 -10.2045 -10.1355 -10.2535 -10.2565 -11.9847 -10.4765 -12.98 -10.181 -7.138 
-10.254 -10.263 -10.1525 -10.256 -10.2265 -10.2615 -10.2625 -13.9979 -11.9847 -16.089 -15.57 -10.181 
-3.672 -5.13 0 -3.6135 -4.328 0 -3.4005 -1.756 -4.3705 -4.328 -4.3845 -4.0675 -4.277 -4.3515 0 
-8.0175 -5.13 -3.6135 -7.8665 -4.328 -3.4005 -4.503 -5.5605 -6.573 -9.3055 -10.1465 -7.138 -5.847001 -4.3515 
-8.0175 -9.377501 -7.8665 -7.8665 -7.432 -4.503 -7.7545 -7.473001 -11.9427 -15.4443 -13.217 -9.2205 -5.847001 
-12.6446 -13.9783 -7.8665 -11.2653 -8.4005 -7.7545 -9.677 -13.0679 -18.0815 -18.5148 -15.2995 -9.2205 
-17.2454 -13.9783 -11.2653 -12.2338 -12.1904 -9.677 -15.3491 -19.2067 -21.152 -20.5973 -15.2995 
-3.672 -5.13 0 -3.6135 -4.3035 0 -3.4005 0 -4.3705 -4.328 -3.251 -5.119 -3.6215 -4.0675 -4.277 -4.3515 
-8.0175 -5.13 -3.6135 -7.8675 -4.3035 -3.4005 -3.4005 -4.3705 -6.573 -7.2725 -7.385 -8.52 -7.840501 -7.138 -5.847001 
-8.0175 -9.377501 -7.8675 -7.8675 -7.0845 -3.4005 -6.939 -6.573 -9.493 -11.5679 -10.4425 -12.7804 -10.0095 -9.2205 
-12.6446 -13.9793 -7.8675 -11.1263 -7.0845 -6.939 -8.584001 -9.493 -13.8406 -14.6254 -14.7029 -14.9494 -12.246 
-17.2464 -13.9793 -11.1263 -11.1263 -11.7524 -8.584001 -12.5344 -13.8406 -16.8981 -18.8858 -16.8719 -17.1859 
