-4.759 
n/a 
n/a 
n/a 
n/a 
-4.759 
n/a 
n/a 
n/a 
n/a 
-4.759 
n/a 
n/a 
n/a 
n/a 
-4.759 
n/a 
n/a 
n/a 
n/a 
-3.519 -1.7565 -5.7715 -1.934 -3.9655 0 -7.395 
-4.6225 -8.094 -8.272 -5.717 -3.9655 -7.395 
-11.7364 -10.2185 -12.452 -5.717 -13.0925 
-13.8609 -14.3985 -12.452 -15.7698 
-18.0409 -14.3985 -22.5048 
-5.7715 -3.97 -3.709 0 -9.468 -7.098001 
-10.7065 -8.582001 -3.709 -9.468 -10.4855 
-15.3185 -8.582001 -14.3838 -10.4855 
-15.3185 -19.9164 -15.4013 
-26.6529 -20.9339 
-5.7715 -3.97 -4.5735 0 -9.061001 -7.098001 
-10.7065 -10.151 -4.5735 -9.061001 -16.4624 
-16.8875 -10.151 -14.8769 -16.4624 
-16.8875 -20.63 -22.2783 
-27.3665 -28.0314 
-5.7715 -2.229 -3.9655 -3.2015 -6.819 
-7.3715 -5.5855 -6.4925 -11.0145 
-11.3658 -8.4285 -15.1177 
-14.2088 -17.1485 
-22.9288 
