-4.759 
n/a 
n/a 
n/a 
n/a 
-4.759 
n/a 
n/a 
n/a 
n/a 
-4.759 
n/a 
n/a 
n/a 
n/a 
-4.759 
n/a 
n/a 
n/a 
n/a 
-3.5455 -2.3615 -3.8405 -1.7565 -3.519 -4.132 -2.3345 -1.4985 -3.6085 0 -3.0365 -2.7415 -2.645 -5.1845 -5.189 -3.0695 -5.302 -1.4985 -3.5435 0 
-5.013 -5.371 -4.563 -5.03 -8.028 -6.847 -3.233 -5.023 -3.6085 -3.0365 -4.2225 -5.1905 -8.0725 -11.6679 -7.3065 -6.4875 -5.971 -4.2755 -3.5435 
-5.726 -6.4065 -8.6745 -9.7335 -10.523 -7.657 -6.659 -5.023 -7.013 -4.2225 -6.3275 -11.5026 -15.0175 -13.7854 -9.9455 -7.090001 -7.023 -4.2755 
-6.877501 -10.1995 -13.5908 -12.2609 -11.333 -11.3432 -6.659 -8.5395 -8.061001 -6.3275 -13.1076 -18.4476 -17.135 -16.4244 -10.4305 -8.818501 -7.023 
-10.7989 -15.1158 -16.1182 -13.0709 -15.0192 -11.3432 -9.7965 -9.4975 -10.5386 -13.1076 -20.0526 -20.5651 -19.774 -16.9094 -12.159 -8.818501 
-1.4985 -3.8405 -3.034 -1.4985 -3.6085 -3.1385 -4.544 -2.985 -4.1 -1.934 -5.1845 -5.74 -3.0365 -3.152 -3.0415 -3.3715 -5.1845 -5.6655 -3.0695 -4.896 -3.277 
-4.7545 -6.001 -3.947 -5.023 -6.699 -8.068001 -6.801001 -7.1315 -5.763 -6.564 -5.7465 -8.8625 -4.453 -5.4325 -4.5985 -8.517 -9.880501 -7.4495 -6.68 -7.679001 
-6.6385 -6.551 -7.5515 -7.278 -12.0385 -9.566 -11.6233 -8.367001 -9.925501 -6.819 -8.882 -10.151 -6.4015 -6.4115 -9.743501 -13.3792 -11.7931 -10.4595 -8.261001 
-7.072 -9.714001 -9.607 -12.7017 -13.5365 -14.5081 -12.8588 -12.7043 -10.079 -9.220501 -10.199 -12.0995 -6.443 -11.6713 -14.7111 -15.2918 -14.8031 -12.0405 
-10.009 -11.9031 -15.2231 -14.1997 -18.4786 -15.7436 -17.1961 -12.8578 -12.4805 -10.4765 -12.1475 -12.141 -11.7344 -16.6389 -16.6237 -18.3018 -16.3841 
-3.034 -1.4985 -4.051 -3.1385 -3.9535 -10.312 0 -3.0365 -2.7415 -3.135 -3.7375 -3.1385 -3.0695 -3.152 -6.009 -3.7015 -3.277 0 
-3.947 -5.263 -7.542 -6.5115 -15.4533 -10.312 -3.0365 -4.2225 -5.6645 -6.610001 -5.52 -4.286 -4.8015 -8.809501 -6.915 -5.6755 -3.277 
-7.634501 -8.819 -11.1332 -18.7569 -15.4533 -13.5591 -4.2225 -5.864501 -9.408501 -8.727 -6.5515 -5.8625 -10.7025 -10.038 -9.2405 -5.6755 
-11.3019 -12.4898 -23.3786 -18.7569 -18.7004 -14.7451 -5.864501 -10.253 -11.8037 -9.6125 -7.966001 -12.0161 -11.931 -12.3635 -9.2405 
-14.9727 -24.7352 -23.3786 -22.004 -19.8864 -16.3871 -10.253 -12.6482 -12.6892 -11.1076 -14.2936 -13.2446 -14.2565 -12.3635 
-3.845 -1.7565 -5.1845 -5.5025 -5.192 -3.7015 -7.746 -3.5455 -7.746 -4.947 
-4.13 -6.580501 -10.1345 -10.443 -6.574501 -10.1 -10.007 -12.7213 -13.268 
-9.5585 -12.3735 -15.075 -11.8255 -13.4496 -12.361 -19.4446 -18.2433 
-15.2715 -17.314 -16.4575 -18.7006 -15.7106 -21.7986 -24.9666 
-20.212 -18.6965 -23.3326 -20.9616 -25.1482 -27.3206 
