-4.759 
n/a 
n/a 
n/a 
n/a 
-4.759 
n/a 
n/a 
n/a 
n/a 
-4.759 
n/a 
n/a 
n/a 
n/a 
-4.759 
n/a 
n/a 
n/a 
n/a 
-5.022 -3.277 0 -5.847 -5.847 -12.16972 -2.3085 -1.756 -3.091 -4.2245 -6.509501 -9.228001 -2.3085 -4.132 -1.8085 -5.0455 -3.5015 -1.934 -1.4985 -3.8735 -3.5125 0 
-6.5915 -3.277 -5.847 -7.929 -18.68652 -14.47822 -5.013 -4.2995 -5.326 -9.370001 -10.6215 -11.7343 -6.1065 -5.2835 -5.701 -6.9175 -4.704 -2.6125 -6.3715 -7.3345 -3.5125 
-6.5915 -9.614 -7.929 -21.23952 -20.99502 -17.18272 -7.578 -6.25 -9.620501 -13.8294 -13.1278 -15.5323 -7.0925 -8.658 -7.0265 -7.285 -5.1615 -7.496 -10.1675 -7.3345 
-13.0335 -11.7156 -21.23952 -23.54802 -23.69952 -19.74772 -8.7985 -9.906 -14.2471 -16.3357 -16.9258 -16.5183 -10.8826 -8.9055 -7.379 -7.5785 -9.884501 -10.7175 -10.1675 
-15.1351 -25.02612 -23.54802 -26.25252 -26.26452 -20.96822 -10.6885 -14.7308 -16.7534 -20.1337 -17.9118 -20.3084 -11.1301 -9.038501 -7.6695 -12.5643 -13.106 -10.7175 
-1.934 -3.277 -8.3365 -9.035501 -1.756 -3.091 -4.2245 -6.509501 -6.864 -2.186 -1.4985 -3.699 -6.195 -1.934 -3.5125 -1.7565 -3.8735 0 
-5.341 -12.6475 -10.7215 -11.0305 -4.2995 -5.326 -9.370001 -8.7465 -9.234501 -3.339 -5.264 -9.978001 -7.8145 -5.129 -4.312 -5.112 -3.8735 
-14.8115 -15.6117 -14.4977 -15.2835 -6.25 -9.620501 -9.809501 -11.6152 -10.3825 -6.9335 -12.082 -11.5975 -10.122 -6.7605 -7.1395 -5.112 
-17.7757 -18.8087 -17.8457 -17.169 -9.906 -9.866501 -12.8922 -12.7632 -13.977 -14.3243 -13.7015 -13.905 -11.7535 -9.696501 -7.1395 
-20.9727 -22.1567 -19.7312 -20.88 -10.045 -13.0204 -14.0402 -16.3577 -21.3678 -15.9438 -16.009 -15.5365 -14.6895 -9.696501 
-3.9225 -3.277 -8.3365 -12.16972 -1.756 -3.091 -4.2245 -6.509501 -12.16972 -2.4945 -4.926 -4.6805 -1.934 -4.1865 -3.5125 
-5.4525 -12.6475 -21.26362 -13.92572 -4.2995 -5.326 -9.370001 -19.63422 -14.66422 -6.846 -10.9045 -6.663 -5.967 -6.885 
-14.7626 -25.57462 -23.01962 -16.46922 -6.25 -9.620501 -22.84212 -22.12872 -19.01572 -13.4459 -12.887 -10.2865 -7.8815 
-27.68972 -27.33062 -25.56312 -18.41972 -9.906 -23.25982 -25.33662 -26.48022 -25.61562 -15.4284 -16.5105 -10.444 
-29.44572 -29.87412 -27.51362 -22.07572 -23.74352 -25.75432 -29.68812 -33.08012 -27.59812 -19.0519 -16.668 
-3.9225 -3.277 0 -8.3365 -6.864 -2.1715 0 -3.091 -4.2245 -6.509501 -6.864 -2.3085 -3.152 -4.4155 -4.378 -1.934 -4.1865 -3.5125 0 
-5.4525 -3.277 -8.3365 -8.847 -8.738501 -2.1715 -3.091 -5.326 -9.370001 -8.7465 -8.632 -5.303 -6.328 -8.537001 -5.713 -5.967 -6.885 -3.5125 
-5.4525 -12.6475 -8.847 -11.3007 -8.738501 -6.7535 -5.326 -9.620501 -9.809501 -9.243501 -10.586 -10.1595 -10.3605 -9.174 -8.783501 -7.8815 -6.885 
-14.7626 -13.158 -11.3007 -11.3007 -14.2255 -8.863501 -9.620501 -9.866501 -10.203 -11.2965 -16.0135 -14.2216 -10.9975 -12.5717 -10.0965 -7.8815 
-15.2731 -15.6117 -11.3007 -16.7877 -16.3355 -13.3262 -9.866501 -10.228 -12.256 -16.724 -20.0756 -14.8586 -14.3952 -13.8847 -10.0965 
