-4.759 
n/a 
n/a 
n/a 
n/a 
-4.759 
n/a 
n/a 
n/a 
n/a 
-4.759 
n/a 
n/a 
n/a 
n/a 
-4.759 
n/a 
n/a 
n/a 
n/a 
-8.090501 -4.0905 -3.254 0 -4.3285 0 0 -2.3345 -1.4985 -3.098 -12.16972 0 
-12.4248 -6.4945 -3.254 -4.3285 -4.3285 0 -2.3345 -3.233 -4.3095 -15.66112 -12.16972 
-14.8288 -6.4945 -8.3715 -4.3285 -4.3285 -2.3345 -3.233 -5.8835 -17.43282 -15.66112 
-14.8288 -10.6215 -8.3715 -4.3285 -6.621 -3.233 -5.8835 -19.23842 -17.43282 
-18.9558 -10.6215 -8.3715 -6.621 -7.3155 -5.8835 -19.23842 -19.23842 
-3.321 -7.3625 -8.2895 0 -4.3285 0 0 -3.098 -2.5045 -9.547501 -5.171 0 
-10.841 -10.0415 -8.2895 -4.3285 -4.3285 0 -3.098 -5.4315 -12.9694 -14.8573 -5.171 
-13.52 -10.0415 -13.0414 -4.3285 -4.3285 -3.098 -5.4315 -16.399 -18.2792 -14.8573 
-13.52 -15.4842 -13.0414 -4.3285 -8.2085 -5.4315 -16.399 -21.7088 -18.2792 
-18.9627 -15.4842 -13.0414 -8.2085 -10.1225 -16.399 -21.7088 -21.7088 
-8.8555 -7.3625 -8.2895 0 -4.3285 0 0 -4.281 -2.5045 -8.646001 -5.171 0 
-16.522 -10.0415 -8.2895 -4.3285 -4.3285 0 -4.281 -5.893 -12.0679 -9.275501 -5.171 
-19.201 -10.0415 -13.0414 -4.3285 -4.3285 -4.281 -5.893 -15.8172 -12.6974 -9.275501 
-19.201 -15.4842 -13.0414 -4.3285 -8.921 -5.893 -15.8172 -16.4467 -12.6974 
-24.6437 -15.4842 -13.0414 -8.921 -10.259 -15.8172 -16.4467 -16.4467 
-8.8555 -3.3195 -4.376 0 -4.686 0 0 -3.098 -1.7565 -12.16972 -5.171 0 
-12.479 -7.9175 -4.376 -4.686 -4.686 0 -3.098 -4.3615 -14.87542 -17.34072 -5.171 
-17.077 -7.9175 -10.3045 -4.686 -4.686 -3.098 -4.3615 -18.12882 -20.04642 -17.34072 
-17.077 -14.2672 -10.3045 -4.686 -8.393001 -4.3615 -18.12882 -23.29982 -20.04642 
-23.4267 -14.2672 -10.3045 -8.393001 -9.981001 -18.12882 -23.29982 -23.29982 
