-4.759 
n/a 
n/a 
n/a 
n/a 
-4.759 
n/a 
n/a 
n/a 
n/a 
-4.759 
n/a 
n/a 
n/a 
n/a 
-4.759 
n/a 
n/a 
n/a 
n/a 
-4.1585 -3.6825 -2.186 -10.203 -1.934 -5.046 
-7.5125 -5.5565 -10.4745 -10.473 -6.3405 
-9.463 -14.9438 -13.4111 -15.2815 
-19.0725 -17.3 -18.0478 
-21.2373 -21.9367 
-5.046 
n/a 
n/a 
n/a 
n/a 
-4.1585 -3.6825 -2.7415 -2.664 -3.6825 -3.4945 -2.9995 -8.868 -5.046 0 
-7.5125 -6.0635 -4.6625 -8.381001 -6.4315 -4.9185 -13.2269 -14.2822 -5.046 
-9.366501 -8.1325 -10.564 -11.2794 -8.2435 -15.5971 -18.6411 -14.2822 
-11.5117 -14.2996 -13.4624 -13.0914 -19.2159 -21.0113 -18.6411 
-17.6788 -17.198 -15.2744 -24.0638 -24.6301 -21.0113 
-5.046 -12.16972 -4.567 -2.674 -1.8085 -9.630501 
-17.92432 -16.73672 -5.667 -3.63 -11.0145 
-22.49132 -17.83672 -6.468 -13.8424 
-23.59132 -18.63772 -17.0128 
-24.39232 -29.18252 
