-4.759 
n/a 
n/a 
n/a 
n/a 
-4.759 
n/a 
n/a 
n/a 
n/a 
-4.759 
n/a 
n/a 
n/a 
n/a 
-4.759 
n/a 
n/a 
n/a 
n/a 
-1.934 -4.447 -7.1615 -8.0845 0 -5.7865 0 
-5.642 -11.9779 -8.7095 -8.0845 -5.7865 -5.7865 
-13.7033 -13.5259 -8.7095 -10.375 -5.7865 
-15.2513 -13.5259 -10.6885 -10.375 
-15.2513 -15.5049 -10.6885 
-4.447 -5.0875 -8.0845 0 -5.7865 0 
-10.168 -14.5266 -8.0845 -5.7865 -5.7865 
-19.6071 -14.5266 -10.375 -5.7865 
-19.6071 -16.8171 -10.375 
-21.8976 -16.8171 
-1.934 -4.447 0 -7.1615 -8.0845 0 -5.7865 0 
-5.642 -4.447 -7.1615 -8.7095 -8.0845 -5.7865 -5.7865 
-5.642 -11.9779 -8.7095 -8.7095 -10.375 -5.7865 
-13.7033 -13.5259 -8.7095 -10.6885 -10.375 
-15.2513 -13.5259 -10.6885 -10.6885 
-1.934 -4.447 0 -7.1615 -8.0845 0 -5.7865 0 
-5.642 -4.447 -7.1615 -8.7095 -8.0845 -5.7865 -5.7865 
-5.642 -11.9779 -8.7095 -8.7095 -10.375 -5.7865 
-13.7033 -13.5259 -8.7095 -10.6885 -10.375 
-15.2513 -13.5259 -10.6885 -10.6885 
