-4.759 
n/a 
n/a 
n/a 
n/a 
-4.759 
n/a 
n/a 
n/a 
n/a 
-4.759 
n/a 
n/a 
n/a 
n/a 
-4.759 
n/a 
n/a 
n/a 
n/a 
-2.871 -1.7565 -1.4985 -3.634 -4.426 0 -4.275 0 -6.3355 -6.114501 -2.7415 -4.0925 -1.934 -4.4675 0 
-3.5385 -2.4195 -4.943501 -8.249001 -4.426 -4.275 -4.275 -6.3355 -10.5035 -8.743501 -5.328 -5.2985 -5.652 -4.4675 
-3.7675 -5.876 -9.193001 -8.249001 -9.277 -4.275 -10.7981 -10.5035 -13.1325 -11.488 -5.962 -7.865001 -5.652 
-7.405 -10.411 -9.193001 -13.6594 -9.277 -10.7981 -14.9661 -13.1325 -15.877 -12.122 -8.38 -7.865001 
-12.2552 -10.411 -14.9682 -13.6594 -15.8821 -14.9661 -17.5951 -15.877 -16.511 -14.54 -8.38 
-1.4985 -3.634 -4.426 -2.9705 -4.4825 0 -2.7415 -3.793 -1.934 -1.4985 -3.158 -4.4675 -2.3345 -8.285001 -9.2095 0 
-4.943501 -8.249001 -7.2575 -6.665 -4.4825 -2.7415 -5.337501 -4.752 -2.6125 -4.178 -6.774 -6.831 -9.747001 -17.9671 -9.2095 
-9.193001 -10.702 -11.3178 -6.665 -6.5665 -5.337501 -5.761 -5.2475 -5.265 -7.882 -9.531501 -14.7671 -19.9417 -17.9671 
-12.0108 -14.7623 -11.3178 -9.503 -10.2695 -5.761 -6.272 -7.8855 -8.356001 -9.876 -17.6098 -24.9618 -19.9417 
-16.0711 -14.7623 -14.1558 -13.3302 -10.5515 -6.272 -8.7235 -10.7325 -10.1225 -18.0143 -27.8045 -24.9618 
-1.934 -3.6205 -2.4265 -2.7415 -4.894 -2.3345 -6.3355 -6.114501 -1.934 -4.4675 
-6.1645 -6.5055 -3.681 -6.601 -5.8635 -7.9385 -10.5035 -8.603001 -5.652 
-9.639501 -8.903501 -7.492 -7.554501 -12.2133 -12.4951 -12.992 -12.4734 
-12.2043 -12.8829 -8.3955 -14.1633 -16.7699 -14.9836 -16.8624 
-16.1837 -13.7864 -15.1219 -18.7199 -19.2584 -18.854 
-2.871 -1.7565 -1.4985 -3.17 -3.634 -4.426 -4.0925 -1.934 -4.4675 -2.7415 -3.8535 -2.3345 -6.3355 -6.114501 0 
-3.5385 -2.4195 -3.7115 -4.366 -8.249001 -8.460001 -5.2985 -5.652 -7.224 -5.279 -5.069 -7.9385 -10.5035 -6.114501 
-3.7675 -4.4355 -5.0645 -8.9285 -12.8424 -9.662001 -7.865001 -7.699501 -10.275 -6.214 -10.757 -12.4951 -10.5035 
-4.622 -5.8935 -9.2285 -13.6771 -14.0444 -12.6383 -9.685501 -10.7667 -11.5604 -11.9704 -15.3136 -12.4951 
-7.3455 -10.5999 -14.0949 -14.8791 -17.0207 -14.4588 -12.8679 -12.0521 -17.3168 -16.527 -15.3136 
