-4.759 
n/a 
n/a 
n/a 
n/a 
-4.759 
n/a 
n/a 
n/a 
n/a 
-4.759 
n/a 
n/a 
n/a 
n/a 
-4.759 
n/a 
n/a 
n/a 
n/a 
-5.0805 -3.883 -4.454 -4.426 -2.4265 
-11.046 -7.6045 -8.951 -6.6375 
-14.7675 -12.3847 -11.4369 
-19.5477 -14.8706 
-22.0336 
-4.1145 -3.36 -3.883 -3.8355 0 
-7.779 -6.959001 -7.161 -3.8355 
-11.9628 -10.0705 -7.161 
-15.0743 -10.0705 
-15.0743 
-2.3615 -5.2085 -2.3345 -4.1145 -3.36 -3.9235 
-9.160501 -5.537 -7.519501 -7.779 -7.087 
-10.108 -11.4348 -11.9024 -12.0908 
-16.0394 -15.8177 -16.2142 
-20.4223 -20.1295 
-3.1435 -1.8085 -5.0805 -3.883 -3.3035 
-5.211 -7.558001 -11.046 -6.3575 
-11.5675 -13.7213 -13.5205 
-17.7308 -16.1958 
-20.2053 
