-4.759 
n/a 
n/a 
n/a 
n/a 
-4.759 
n/a 
n/a 
n/a 
n/a 
-4.759 
n/a 
n/a 
n/a 
n/a 
-4.759 
n/a 
n/a 
n/a 
n/a 
-1.934 -4.723 -2.229 -1.4985 -12.16972 -3.6825 -3.973 -1.4985 -4.219 -1.756 -3.429 -1.4985 -3.5435 0 
-5.897 -7.426 -4.123 -14.76202 -15.85222 -7.421 -5.094501 -5.129 -5.83 -4.86 -4.4635 -4.2755 -3.5435 
-8.809001 -8.7685 -17.90912 -18.44452 -19.59072 -8.747001 -6.959001 -6.4875 -8.949501 -5.8765 -7.8475 -4.2755 
-9.489501 -23.04982 -21.59162 -22.18302 -20.91672 -9.609 -8.061501 -9.545 -9.795501 -9.314 -7.8475 
-24.04302 -26.73232 -25.33012 -23.50902 -21.77872 -10.3435 -10.2425 -10.311 -13.2812 -9.314 
-6.848001 -2.9705 -4.0875 -3.355 -1.934 -1.4985 -4.519 -4.005 -1.934 -4.723 0 -3.9955 -1.4985 -4.519 -1.756 -2.0935 -1.4985 -3.0835 -2.95 -4.2995 -6.9985 -3.5435 -1.934 -9.569501 0 
-9.414001 -5.8935 -5.7705 -4.8475 -2.6125 -5.844501 -6.944 -4.808 -5.897 -4.723 -3.9955 -5.0175 -5.844501 -5.8745 -4.3175 -2.9725 -3.535 -4.3945 -8.252 -12.3518 -11.3968 -5.3395 -10.2645 -9.569501 
-12.5274 -7.884 -5.8455 -5.376 -6.826 -7.9445 -7.3665 -8.6005 -5.897 -9.0045 -5.0175 -7.7695 -6.9905 -8.087 -5.074 -4.594501 -4.569 -9.1505 -16.4341 -16.7501 -13.1928 -14.6272 -10.2645 
-14.5179 -7.9515 -6.1595 -8.116501 -8.449 -8.337501 -10.264 -8.6005 -9.5305 -9.6215 -7.7695 -8.607 -9.184 -8.749001 -6.345 -4.791 -9.5495 -17.5536 -20.8324 -18.5461 -22.4805 -14.6272 
-14.5854 -8.101001 -8.927501 -10.3475 -9.099501 -11.399 -10.264 -12.6562 -9.9125 -12.5073 -8.607 -11.1109 -9.7325 -9.861 -6.425 -9.654 -18.0924 -21.9519 -22.6284 -27.8338 -22.4805 
-1.934 -4.723 -4.219 -7.539001 -10.7715 -9.941501 -5.037 -1.756 -4.5485 -3.1435 -3.5435 
-5.897 -9.0225 -13.108 -19.3161 -20.713 -15.3585 -6.857 -6.2885 -7.4925 -6.6385 
-10.335 -18.0629 -24.8851 -29.2576 -26.13 -17.1785 -10.4265 -8.814 -9.84 
-19.5646 -29.84 -34.8266 -34.6746 -27.95 -20.748 -12.952 -10.513 
-31.3417 -39.7815 -40.2436 -36.4946 -31.5195 -23.2735 -14.651 
-1.934 -4.723 -4.219 0 -1.4985 -6.848001 -3.6825 -3.9955 -1.756 -2.925 -3.7445 -2.985 -3.5435 
-5.897 -9.0225 -4.219 -1.4985 -7.7685 -9.105501 -7.0905 -6.33 -4.2585 -6.007501 -6.190001 -6.2395 
-10.335 -9.0225 -5.9465 -7.7685 -9.528001 -12.6635 -9.415501 -8.1055 -7.3145 -7.529 -8.924001 
-10.335 -10.5755 -10.5535 -9.528001 -13.1096 -14.9885 -11.2562 -11.3723 -9.1295 -10.459 
-12.0772 -15.1825 -12.313 -13.1096 -15.4346 -16.8292 -14.523 -13.1873 -12.1653 
