-4.759 
n/a 
n/a 
n/a 
n/a 
-4.759 
n/a 
n/a 
n/a 
n/a 
-4.759 
n/a 
n/a 
n/a 
n/a 
-4.759 
n/a 
n/a 
n/a 
n/a 
-4.354 -1.756 -4.037 -2.7835 -2.4265 -2.186 -5.6965 
-6.0865 -6.06 -6.805 -4.1745 -3.292 -6.635 
-8.569 -8.3345 -8.3065 -4.7885 -8.660501 
-11.2967 -10.341 -8.7845 -10.5425 
-13.3032 -10.5745 -14.7663 
-5.189 0 -2.4265 -2.742 -2.489 -4.164 -2.7835 -2.4265 -3.4405 -5.651501 -4.048 
-5.189 -2.4265 -4.095 -3.301 -5.190001 -6.4035 -4.1745 -4.5365 -9.1385 -8.038501 
-7.738501 -4.095 -4.601 -6.396 -6.8655 -7.7325 -5.6965 -8.586 -12.3985 
-9.279 -4.601 -7.763 -8.1 -8.264501 -9.2935 -9.6735 -11.191 
-9.6695 -7.763 -9.620001 -9.621 -9.800501 -13.4024 -12.6489 
-2.6165 -5.069 -3.0415 -2.4265 -1.7695 -2.489 -4.164 
-7.176001 -7.8815 -4.551 -4.11 -3.1405 -5.190001 
-9.779501 -9.262001 -8.8235 -5.19 -5.9325 
-11.101 -13.4335 -9.797501 -8.178 
-15.2725 -14.4075 -12.9751 
-4.6225 0 -4.164 -2.7835 -2.4265 -3.4405 -6.3455 -2.6165 -4.048 0 
-4.6225 -4.164 -6.4035 -4.1745 -4.5365 -10.0965 -8.633 -5.437 -4.048 
-9.959001 -6.4035 -7.7325 -5.6965 -11.9611 -10.271 -11.7579 -5.437 
-12.3767 -7.7325 -9.2935 -13.4393 -12.1356 -13.3959 -11.7579 
-13.7057 -9.2935 -17.2467 -13.6138 -15.2605 -13.3959 
