-4.759 
n/a 
n/a 
n/a 
n/a 
-4.759 
n/a 
n/a 
n/a 
n/a 
-4.759 
n/a 
n/a 
n/a 
n/a 
-4.759 
n/a 
n/a 
n/a 
n/a 
-1.934 -5.8 -3.8695 -3.9725 -7.3555 -5.3885 -2.186 -3.8955 
-7.459 -8.4495 -6.884 -12.271 -13.52 -7.7415 -7.831 
-9.5105 -12.2672 -15.6223 -18.4355 -15.873 -13.7483 
-13.1094 -21.0055 -21.7868 -20.7885 -21.8798 
-21.8477 -27.17 -24.1398 -26.7953 
-6.3285 -5.8 -5.3885 -3.0835 -3.2875 -6.249 -2.7415 -4.673 -2.3345 -3.6115 -3.8695 -3.9725 
-12.3929 -10.932 -9.175 -6.685 -10.733 -8.3265 -5.293 -5.63 -6.5185 -8.161 -6.884 
-17.5249 -14.7185 -13.0203 -14.8983 -12.8105 -10.598 -6.1355 -9.9835 -11.6644 -11.3933 
-21.3114 -18.5638 -21.2336 -16.9758 -15.082 -11.4405 -10.5035 -15.4356 -14.8967 
-25.1567 -26.7771 -23.3111 -19.2473 -15.9245 -15.8085 -16.071 -18.6679 
-1.934 -5.8 -5.3885 -3.0835 -5.209 -3.774 -2.186 -4.3215 -2.3345 -3.8695 -3.9725 0 
-7.459 -10.932 -9.175 -8.091001 -9.101501 -5.6085 -6.442 -5.912001 -5.196 -6.884 -3.9725 
-12.9608 -14.7185 -14.4263 -12.7027 -11.235 -9.696 -7.614 -9.335501 -7.761 -6.884 
-16.7473 -19.9698 -19.038 -14.8362 -15.3225 -10.906 -11.4833 -11.9595 -7.761 
-21.9986 -24.5815 -21.1715 -18.9237 -16.5325 -14.7753 -14.1073 -11.9595 
-1.934 -1.4985 -3.158 -5.8 0 -5.3885 -2.7415 -4.3215 -2.5045 -3.0835 -5.209 -2.3345 -3.9725 -3.8695 -3.741 0 
-2.6125 -4.178 -8.696 -5.8 -5.3885 -8.401501 -5.758 -6.389 -5.9195 -8.091001 -7.6255 -6.142 -5.5995 -6.896501 -3.741 
-5.265 -8.8345 -8.696 -10.932 -8.401501 -11.5446 -7.098001 -8.880001 -11.486 -10.76 -11.948 -7.813 -7.771 -6.896501 
-9.2395 -8.8345 -14.2124 -13.945 -11.5446 -12.8846 -10.3745 -14.8155 -14.155 -15.0825 -13.619 -8.9505 -7.771 
-9.2395 -14.4557 -17.2254 -17.0881 -12.8846 -16.1611 -16.31 -17.4845 -18.4775 -16.7535 -14.7565 -8.9505 
