-4.759 
n/a 
n/a 
n/a 
n/a 
-4.759 
n/a 
n/a 
n/a 
n/a 
-4.759 
n/a 
n/a 
n/a 
n/a 
-4.759 
n/a 
n/a 
n/a 
n/a 
-8.445001 -3.284 -4.487 -8.796 -2.186 -4.7015 -1.7565 -3.188 
-12.4608 -6.081 -14.4094 -10.348 -7.896501 -5.723001 -5.13 
-15.2578 -16.7756 -15.9614 -16.0585 -9.769 -9.091001 
-25.9524 -18.3276 -21.6719 -17.931 -13.112 
-27.5044 -24.0381 -23.5444 -21.274 
-3.091 -7.448 -4.7865 -3.6205 -2.186 -1.4985 -3.188 -4.4695 -3.6205 
-8.8415 -10.7335 -8.144501 -5.2355 -3.339 -3.619 -5.684 -9.029 
-10.8325 -11.7948 -10.1855 -6.6435 -4.9385 -6.0295 -10.757 
-14.9851 -14.0692 -11.7249 -9.963501 -7.866 -11.3055 
-17.0261 -15.6086 -15.0449 -12.1068 -13.3374 
-3.4775 -3.091 -4.255 -3.193 -4.754 -4.397 -2.186 -4.98 -4.173 -1.4985 -3.188 0 
-6.8 -6.803 -6.2935 -7.1445 -8.1035 -5.778 -6.1505 -8.3695 -4.3745 -3.619 -3.188 
-10.7586 -8.973001 -7.637 -8.269 -9.59 -10.281 -9.239 -8.502 -5.4615 -3.619 
-12.9286 -9.559501 -8.272 -9.7685 -14.2404 -13.3695 -9.2915 -8.860001 -5.4615 
-13.5151 -10.2863 -9.7685 -14.4637 -17.3289 -13.422 -9.444 -8.860001 
-3.091 -7.448 -4.754 -4.397 -2.7415 -4.98 -2.3345 -2.5685 -3.2295 -1.4985 -3.188 
-8.8415 -10.245 -8.1035 -6.3925 -7.193001 -6.177 -4.884 -4.661 -3.844 -3.619 
-10.3165 -8.7615 -9.7405 -11.4054 -7.77 -7.3605 -8.597501 -4.894 -5.1895 
-10.1945 -9.853001 -14.8718 -11.9824 -8.552001 -10.6465 -8.974501 -5.231 
-11.8643 -14.9893 -15.4488 -12.7644 -11.923 -11.0235 -9.453001 
