-4.759 
n/a 
n/a 
n/a 
n/a 
-4.759 
n/a 
n/a 
n/a 
n/a 
-4.759 
n/a 
n/a 
n/a 
n/a 
-4.759 
n/a 
n/a 
n/a 
n/a 
-3.0835 -3.522 0 -3.691 -2.229 -3.441 -4.0395 
-6.3975 -3.522 -3.691 -5.0855 -5.5835 -7.5755 
-6.3975 -8.0295 -5.0855 -8.336 -9.039001 
-11.6008 -8.719501 -8.336 -12.2155 
-12.2908 -12.1034 -12.2155 
-4.344 -3.8985 0 -4.2085 -3.441 -4.0395 
-9.029001 -3.8985 -4.2085 -7.2465 -7.5755 
-9.029001 -8.189 -7.2465 -12.477 
-13.5983 -11.7198 -12.477 
-17.1291 -16.9503 
-4.0105 -4.867 0 -3.441 -4.205 -1.7565 -3.691 
-9.665001 -4.867 -3.441 -6.379001 -5.689001 -4.930501 
-9.665001 -9.487 -6.379001 -8.0045 -9.423 
-14.4646 -12.777 -8.0045 -12.3087 
-17.7546 -14.4025 -12.3087 
-4.0105 -3.8625 0 -3.691 -3.441 -4.577 
-8.824 -3.8625 -3.691 -7.881001 -6.969501 
-8.824 -8.144501 -7.881001 -12.0387 
-13.3146 -12.8645 -12.0387 
-18.0346 -17.0222 
