-4.759 
n/a 
n/a 
n/a 
n/a 
-4.759 
n/a 
n/a 
n/a 
n/a 
-4.759 
n/a 
n/a 
n/a 
n/a 
-4.759 
n/a 
n/a 
n/a 
n/a 
-2.3615 -2.186 -3.2495 -3.952 -1.934 -1.4985 -3.995 -4.976 -2.264 -1.8085 -3.3365 -4.4515 -3.7075 -4.654 -1.7565 -1.8085 -4.365 -4.4155 0 
-3.5005 -5.841001 -7.9385 -5.45 -2.6125 -4.712 -9.0175 -7.202001 -3.5925 -4.4295 -5.861 -7.269001 -9.661 -5.178 -3.2595 -5.928 -6.259 -4.4155 
-7.39 -10.7175 -9.007 -6.3045 -6.1055 -9.6145 -11.4219 -8.338 -6.0925 -6.788 -9.258501 -13.7541 -10.1745 -6.008501 -6.6575 -7.378 -6.259 
-12.4367 -11.786 -10.411 -9.849501 -11.5364 -12.0189 -12.5579 -11.0936 -7.9545 -10.6465 -15.7696 -14.2676 -11.073 -9.0275 -8.3435 -7.378 
-13.5052 -13.19 -14.2096 -15.1996 -13.9408 -13.1549 -15.3135 -12.9556 -12.154 -17.1576 -16.2831 -15.1661 -14.092 -11.8587 -8.3435 
-2.3335 -2.925 -2.674 -4.9565 -1.4985 -3.6885 -4.541 -2.742 -2.489 -3.962 -2.3345 -3.4765 -2.645 -3.1385 0 -1.756 -4.138 -1.4985 -4.372 -2.742 -4.4755 -1.934 -1.4985 -3.8475 -1.8085 -4.372 -2.186 -4.138 -1.8085 -5.5955 -5.9925 -2.3335 -6.243001 -4.179 -3.433 -2.4265 -4.6185 -1.4985 -4.3235 -1.7565 -4.0215 -4.077 
-4.0295 -4.1785 -6.554 -6.0165 -4.307 -8.363 -7.797 -3.301 -4.8355 -5.499 -6.62 -4.7 -5.073 -3.1385 -1.756 -4.87 -5.027 -5.1685 -6.743 -6.551001 -6.256 -2.6125 -5.09 -6.105 -6.109 -6.278501 -5.672 -5.731 -7.2135 -9.842501 -7.8365 -6.983001 -8.1 -6.840501 -4.4115 -5.8905 -5.7175 -5.263 -5.0935 -5.813 -6.118 
-5.151 -7.9125 -7.014 -6.3285 -8.697001 -10.7495 -8.417001 -6.150001 -5.964 -8.98 -7.653 -7.011001 -5.073 -4.6325 -4.87 -5.875 -8.771501 -7.134 -11.1382 -8.349501 -6.808 -6.397 -7.555 -10.0405 -7.967 -9.344001 -6.7145 -10.6095 -10.2975 -11.7163 -12.691 -8.915001 -10.243 -7.534 -7.493 -6.899 -7.486001 -5.3085 -7.955 -7.288 
-8.712 -8.347 -7.3805 -10.013 -11.3135 -11.3695 -11.588 -7.047501 -9.324 -9.449 -9.193 -7.011001 -6.751501 -7.6705 -5.875 -10.0155 -10.1425 -11.6296 -12.9367 -8.785001 -9.8105 -8.643001 -11.6583 -12.3811 -11.2641 -10.444 -11.9634 -13.6935 -12.1713 -16.5708 -14.623 -11.1094 -10.6685 -10.5975 -8.478001 -8.4925 -7.5045 -8.1505 -8.9705 
-9.014501 -8.882001 -11.085 -12.6295 -11.9335 -14.5405 -12.4855 -10.099 -9.7925 -9.947001 -9.193 -8.639501 -9.213501 -8.7615 -10.0155 -10.7625 -14.7785 -13.4281 -13.3722 -12.0233 -12.0943 -12.7759 -13.9989 -15.6782 -12.3641 -15.6929 -15.0474 -15.5673 -17.0258 -18.5028 -16.8174 -11.5349 -13.732 -11.5825 -9.467 -8.5105 -10.1185 -9.272501 
-3.1495 -3.2495 -4.2995 -1.7565 -3.995 -3.874 -1.756 -5.4715 -1.7565 -3.7075 -1.756 -4.4515 0 
-4.8975 -8.036 -5.232 -5.423 -7.315001 -5.2105 -6.496 -6.3135 -5.7275 -5.318 -6.289 -4.4515 
-9.842001 -10.057 -8.3795 -7.3415 -10.089 -11.5927 -7.2825 -11.4935 -6.78 -6.5745 -6.289 
-11.9216 -13.5369 -10.8032 -11.9609 -16.4712 -12.3792 -12.5981 -12.546 -8.1005 -6.5745 
-15.4015 -15.9606 -15.4226 -18.3431 -17.2577 -17.6948 -13.6506 -13.8665 -8.1005 
-3.5155 -3.1495 -4.8225 -2.4945 -3.8755 -2.3345 -1.4985 -3.7075 -1.756 -1.4985 -4.4515 -2.229 -5.0625 -5.0405 
-5.9985 -6.7945 -6.4605 -5.463 -4.4955 -3.233 -4.6235 -5.318 -3.0405 -5.0235 -6.22 -7.805501 -9.889501 
-9.1695 -7.7225 -9.399 -6.347 -5.454 -6.444 -5.845 -6.396501 -6.4645 -6.5045 -10.181 -12.8545 
-10.1905 -10.8038 -10.0455 -7.0245 -8.693001 -7.371 -6.502501 -7.0165 -8.172001 -10.1945 -15.3854 
-13.2718 -11.4503 -10.756 -9.8105 -9.5565 -8.1295 -7.028 -9.357 -11.9608 -15.3985 
