-4.759 
n/a 
n/a 
n/a 
n/a 
-4.759 
n/a 
n/a 
n/a 
n/a 
-4.759 
n/a 
n/a 
n/a 
n/a 
-4.759 
n/a 
n/a 
n/a 
n/a 
-2.4265 -2.882 -3.6955 -3.851 -1.7695 -5.084 -1.7565 -4.575 -1.934 -1.4985 -4.417 0 
-4.4545 -5.719 -7.101 -4.0015 -8.0775 -6.3325 -6.9185 -6.3545 -2.6125 -5.4425 -4.417 
-6.849501 -9.062 -8.052 -8.969501 -8.968 -8.800501 -8.619 -7.1575 -6.216001 -5.4425 
-10.6215 -9.7325 -13.218 -9.394501 -10.4595 -9.5535 -9.98 -11.7172 -6.216001 
-10.7785 -14.8751 -13.643 -10.5445 -10.5 -11.3267 -14.6357 -11.7172 
-2.4265 -2.742 -3.6955 -3.433 -1.7565 -4.8675 -5.084 -2.5195 -1.4985 -4.686 
-4.095 -5.043 -6.936 -4.1845 -5.754 -6.2765 -7.264 -3.1695 -5.404 
-6.278 -8.1805 -7.665501 -7.8585 -8.2165 -8.9005 -7.457 -6.786 
-8.961 -8.995501 -11.4529 -9.546 -10.609 -9.7375 -12.3239 
-10.031 -12.8167 -13.1404 -12.5855 -11.446 -14.6044 
-2.4265 -4.4995 -2.5045 -1.4985 -2.95 -1.7565 -4.912 -1.7565 -8.3985 -1.934 -4.686 
-5.4455 -6.276 -3.1915 -3.9285 -4.3785 -6.094501 -6.8605 -10.382 -9.524501 -7.082 
-7.3135 -6.7205 -4.5155 -4.676 -8.423 -8.842501 -15.9466 -11.508 -15.3807 
-7.8455 -8.442 -4.837 -8.472501 -10.7025 -17.926 -17.0726 -17.3642 
-9.507 -8.809 -8.504001 -10.8358 -19.786 -19.052 -22.9288 
-4.066 -2.5045 -4.8675 -2.264 -4.147 
-6.053 -8.193501 -9.119501 -6.584001 
-13.083 -12.7859 -13.8219 
-17.6754 -17.4883 
-22.3778 
