-4.759 
n/a 
n/a 
n/a 
n/a 
-4.759 
n/a 
n/a 
n/a 
n/a 
-4.759 
n/a 
n/a 
n/a 
n/a 
-4.759 
n/a 
n/a 
n/a 
n/a 
-2.4265 -2.882 -3.6955 -3.5455 -3.995 -5.2425 -1.934 -1.4985 -3.873 -2.9705 -2.186 -3.9615 -1.7695 -1.4985 -4.1115 0 
-4.4545 -5.719 -7.197001 -7.2735 -7.2275 -6.860001 -2.6125 -4.7405 -6.259501 -3.89 -5.73 -5.845 -2.7955 -4.843 -4.1115 
-6.849501 -8.9375 -11.2896 -10.3615 -8.307 -8.008 -5.722 -6.815001 -6.9405 -7.102 -7.1575 -6.4075 -6.006001 -4.843 
-10.361 -13.1151 -14.3776 -11.441 -9.5115 -11.5135 -7.732501 -7.687 -9.832001 -8.3295 -7.7205 -8.541 -6.006001 
-14.5408 -16.2031 -15.4571 -12.6455 -13.0416 -13.524 -9.008501 -10.2865 -11.0457 -8.791 -10.122 -8.541 
-4.8345 -2.3335 -4.638 -3.9615 -1.4985 -4.1115 -2.4285 -4.3355 -2.742 -3.4155 -2.3615 
-6.627 -5.7935 -7.464 -4.716 -4.843 -6.444 -7.0325 -7.4535 -7.7255 -6.4275 
-9.388 -8.728001 -7.7575 -6.9885 -6.9855 -8.3065 -9.595 -12.6954 -11.0587 
-12.3323 -8.962001 -10.66 -8.795 -8.9355 -11.1322 -15.1141 -16.0286 
-12.5663 -11.9387 -12.4665 -10.6745 -11.8272 -16.6513 -18.4473 
-4.8345 -1.934 -1.4985 -4.5435 -3.9615 -4.1115 -4.675 -2.4265 -2.882 -4.638 
-6.0035 -2.6125 -5.5535 -7.953501 -7.254001 -6.957001 -7.1815 -4.4545 -8.501 
-7.150001 -6.525001 -8.799001 -11.3802 -9.820001 -9.070001 -9.315001 -9.969501 
-11.7169 -9.729 -12.3457 -13.9462 -11.9666 -11.3455 -14.8456 
-14.9209 -13.2681 -14.9117 -16.0928 -14.2421 -16.8761 
-4.066 -2.5045 -3.995 -5.2425 -1.934 -3.9615 -4.1115 -3.873 -3.8195 
-6.053 -6.7995 -7.2275 -6.860001 -6.076 -7.254001 -7.134 -6.861 
-11.689 -10.684 -8.307 -11.9362 -9.7305 -11.3109 -10.7495 
-15.5735 -11.7635 -13.6608 -15.5907 -14.1554 -14.9264 
-16.653 -17.1173 -17.3153 -20.0156 -17.7709 
