-4.759 
n/a 
n/a 
n/a 
n/a 
-4.759 
n/a 
n/a 
n/a 
n/a 
-4.759 
n/a 
n/a 
n/a 
n/a 
-4.759 
n/a 
n/a 
n/a 
n/a 
-5.072 -3.115 -3.6135 -3.913 -3.7495 -8.919001 -4.8085 -3.991 -3.9485 -2.356 -3.682 -1.756 -4.6905 -1.934 -3.9175 -4.179 -4.4895 -1.756 -4.4725 0 
-9.497 -6.328 -8.909 -8.0255 -11.629 -13.3585 -8.114 -7.7985 -4.311 -6.4565 -5.0325 -6.2265 -7.326 -4.681 -8.6105 -8.800001 -6.152 -5.7595 -4.4725 
-12.814 -12.1569 -13.3461 -15.3417 -16.773 -15.6829 -12.0939 -7.8765 -8.741 -7.4335 -9.4595 -8.638 -10.586 -10.5004 -13.3335 -10.6003 -9.889501 -5.7595 
-18.6429 -16.594 -20.4543 -21.6764 -20.6981 -20.267 -12.1719 -12.3565 -9.440001 -12.6045 -12.5182 -12.0588 -16.0244 -15.2234 -15.1338 -14.3378 -9.889501 
-23.08 -23.7022 -26.997 -25.2053 -24.678 -20.345 -16.6519 -13.0555 -14.9176 -15.6632 -15.939 -17.4972 -20.7474 -17.0237 -18.8713 -14.3378 
-3.6135 -4.225 -4.0805 -3.115 -5.072 -3.788 -2.674 -4.091 -1.934 -4.3135 0 -1.4985 -4.1645 -1.756 -3.84 -1.7565 -5.015 -5.242 -1.7695 -8.919001 0 
-8.123 -7.708001 -6.384 -8.105 -9.418501 -4.8105 -6.311501 -4.709 -4.826 -4.3135 -1.4985 -5.917001 -5.528 -5.5815 -4.881 -6.41 -11.117 -5.2555 -8.926001 -7.8405 
-12.149 -10.3345 -11.6568 -10.7495 -10.4775 -8.701 -7.827001 -7.870501 -4.826 -5.5975 -5.917001 -7.204 -7.964001 -6.460001 -8.951 -12.9428 -11.1305 -12.9815 -8.363501 
-14.7755 -15.6845 -14.3013 -12.8647 -14.368 -10.139 -10.45 -7.870501 -6.293 -10.2865 -7.204 -8.385 -8.2655 -10.7175 -15.617 -12.9563 -18.9132 -13.0382 
-20.1255 -18.329 -16.4165 -16.7552 -15.806 -12.9604 -10.45 -9.102 -10.476 -11.5735 -8.385 -8.431001 -13.7628 -17.3835 -15.6305 -20.739 -18.9132 
-5.072 -2.186 -2.871 -1.7565 -1.4985 -4.1735 -3.72 -7.4925 -3.8755 -3.275 -5.644 -3.9535 0 -3.84 
-7.305 -4.247 -3.5385 -2.4195 -4.445 -8.496 -10.6025 -10.683 -7.666 -7.8405 -9.0585 -3.9535 -3.84 
-9.214 -4.411 -3.7675 -5.186 -8.73 -16.0379 -13.7245 -14.3735 -10.185 -10.293 -8.773001 -7.456501 
-9.2475 -4.5655 -5.304 -9.383501 -16.3265 -19.0029 -17.823 -16.622 -14.5962 -10.8972 -13.5366 
-9.327 -5.7115 -9.544001 -16.9968 -19.2915 -23.1014 -20.0715 -21.4419 -14.7344 -15.6608 
-1.4985 -3.8175 -4.676 -3.115 -5.072 -3.43 -1.4985 -3.84 -8.321 0 -2.3345 -1.4985 -4.4275 -1.7565 -1.4985 -4.6555 -3.275 -5.644 0 
-4.741 -7.716001 -7.0085 -8.105 -8.77 -4.7635 -4.752501 -13.3078 -8.321 -2.3345 -3.233 -5.801001 -5.2555 -2.4195 -5.938001 -8.781 -7.8405 -4.6955 
-8.686001 -9.814501 -12.1763 -12.289 -9.981501 -7.975 -15.0135 -13.3078 -10.459 -3.233 -7.3945 -6.175 -6.128 -6.894001 -10.5325 -10.8675 -6.2155 
-11.1307 -15.0095 -16.3603 -13.5005 -13.193 -18.3324 -15.0135 -15.4458 -11.3575 -7.3945 -7.718 -6.607 -9.636001 -11.6089 -12.368 -10.6165 
-16.3257 -19.1935 -17.5718 -16.712 -23.5504 -18.3324 -17.1515 -16.3443 -15.519 -7.718 -8.361 -9.724001 -14.7773 -13.4444 -12.368 
