-4.759 
n/a 
n/a 
n/a 
n/a 
-4.759 
n/a 
n/a 
n/a 
n/a 
-4.759 
n/a 
n/a 
n/a 
n/a 
-4.759 
n/a 
n/a 
n/a 
n/a 
-5.235 -1.934 -2.3615 -3.892 -1.4985 -3.9185 -4.678 -2.674 -3.1125 -3.557 0 -1.756 -2.645 -4.22 -2.186 -3.7855 -1.7695 -4.762 -1.4985 -3.9185 -2.5195 -2.3615 -3.892 0 
-6.7045 -3.539 -5.6425 -5.4945 -5.215 -6.4515 -7.1055 -3.6315 -5.366 -3.557 -1.756 -3.898 -5.819 -5.860001 -4.9225 -4.793 -5.5515 -5.7845 -5.215 -6.1585 -4.4095 -5.6425 -3.892 
-8.8935 -5.9775 -6.9395 -9.038501 -7.930501 -8.361501 -7.460001 -5.828 -5.366 -5.749001 -3.898 -7.277 -7.458001 -6.7365 -5.685 -9.871501 -6.17 -8.1455 -7.2825 -8.459001 -7.167 -5.6425 
-11.4672 -7.159 -10.3675 -10.5335 -10.122 -8.7775 -9.111501 -5.828 -6.988 -8.4685 -7.277 -8.339001 -8.388 -6.7615 -10.3745 -10.2675 -8.2825 -8.8105 -9.1555 -9.6005 -7.167 
-12.6487 -10.4185 -11.8625 -13.305 -10.3535 -9.9975 -9.111501 -7.459 -9.4595 -12.1329 -8.339001 -9.421 -8.416 -11.6774 -10.7705 -12.38 -8.9645 -10.9893 -10.758 -9.6005 

n/a 
n/a 
n/a 
n/a 
-3.1015 -2.3615 -4.3355 -3.4635 -8.699 -4.0555 -1.7695 -3.3785 -2.3335 -3.9185 -2.186 -4.292 -1.934 -2.3335 -3.4425 0 -2.0935 -2.3335 -2.925 -5.2235 -1.7695 -3.0465 -3.9185 -2.5195 -3.0365 0 
-5.3825 -7.308001 -7.686501 -13.6759 -13.4603 -4.7475 -4.1685 -4.4185 -6.503 -5.7915 -5.4545 -6.678 -4.359 -5.650001 -3.4425 -2.0935 -4.488501 -4.0295 -7.707 -7.0275 -3.683 -7.653 -6.1585 -5.2895 -3.0365 
-10.4345 -11.1232 -18.1959 -18.4372 -14.1523 -6.7225 -5.311501 -8.375501 -7.5 -9.201 -7.856501 -8.969001 -5.9315 -5.650001 -5.289 -4.488501 -7.021 -9.092501 -10.131 -9.476501 -7.9645 -8.5565 -9.142 -5.2895 
-14.2497 -21.6326 -22.9572 -19.1292 -16.1273 -7.535 -9.7985 -8.956 -11.3213 -11.9124 -10.564 -10.3105 -5.9315 -7.393001 -7.754 -7.021 -12.2704 -11.4555 -12.9196 -14.0028 -8.9095 -10.6095 -9.142 
-24.7591 -26.3939 -23.6492 -21.1042 -16.9398 -12.0866 -10.752 -13.1605 -14.0327 -14.6199 -11.9055 -10.3105 -7.690001 -9.2145 -10.5769 -12.2704 -14.6334 -14.2441 -17.4459 -14.9478 -11.0269 -10.6095 
-5.42 -2.925 -3.557 -2.3335 -3.0365 -2.4945 -3.9185 -3.6215 -1.4985 -4.1115 0 -3.0415 -2.925 -2.4945 -5.701 -1.7695 -4.081 -1.4985 -3.9185 -2.9905 0 
-7.3065 -5.51 -4.678 -4.2925 -3.688 -6.873 -7.821 -4.094 -4.843 -4.1115 -3.0415 -4.8045 -3.7675 -7.120501 -8.33 -4.517 -5.125 -5.215 -7.2635 -2.9905 
-10.2981 -6.215 -6.3205 -4.9395 -8.420001 -11.6925 -8.116 -7.911 -4.843 -7.012 -4.8045 -5.876 -8.091001 -9.438001 -11.3171 -5.484 -8.479 -7.905001 -7.2635 
-11.0031 -7.969501 -7.0035 -9.5035 -13.0283 -11.9875 -12.1128 -7.911 -7.43 -8.745001 -5.876 -9.903001 -10.702 -12.6223 -12.2841 -8.717501 -10.389 -7.905001 
-12.7576 -9.1035 -11.8943 -14.3436 -13.3233 -15.9843 -12.1128 -10.467 -9.1175 -10.048 -9.903001 -12.5444 -13.8863 -13.5893 -15.5176 -10.5225 -10.389 
