-4.759 
n/a 
n/a 
n/a 
n/a 
-4.759 
n/a 
n/a 
n/a 
n/a 
-4.759 
n/a 
n/a 
n/a 
n/a 
-4.759 
n/a 
n/a 
n/a 
n/a 
-2.664 -3.784 -3.4975 0 -2.5685 -4.1205 -1.756 -3.5645 -4.1205 0 -3.013 -4.419 -3.17 -1.7565 -2.985 -2.95 -1.934 -4.2385 -4.2995 0 
-4.8555 -6.3095 -3.4975 -2.5685 -6.2915 -5.367 -4.7635 -7.806001 -4.1205 -3.013 -7.208 -6.305 -4.179 -3.9355 -5.371 -4.54 -6.31 -7.2555 -4.2995 
-7.559 -6.3095 -7.2875 -6.2915 -6.736001 -8.6715 -8.904 -7.806001 -6.8875 -7.208 -9.0045 -6.33 -5.8355 -5.9875 -6.5125 -9.179001 -9.628 -7.2555 
-7.559 -9.428 -11.5829 -6.736001 -10.4185 -9.101 -8.904 -10.4265 -10.7495 -9.0045 -9.0255 -6.8095 -6.76 -6.9735 -11.3979 -12.5796 -9.628 
-10.9259 -14.0764 -12.0274 -10.4185 -11.1468 -9.101 -11.6617 -14.4783 -12.546 -9.0255 -9.785001 -6.9615 -7.4475 -11.9665 -14.7985 -12.5796 
-4.347 -3.676 -2.229 -3.6385 -3.6055 -3.193 -4.138 -4.269 -4.077 -3.84 -1.7695 -4.0795 0 
-10.5535 -4.593 -6.185 -7.3055 -4.658 -7.0115 -8.224501 -6.619 -9.290001 -5.312 -6.434501 -4.0795 
-11.4705 -8.467 -9.998 -8.4805 -9.1415 -11.7624 -11.4129 -12.4596 -11.0452 -10.2595 -6.434501 
-15.3445 -13.2112 -11.2884 -13.2054 -14.596 -14.9508 -17.2535 -14.2148 -15.9927 -10.2595 
-20.0887 -14.5016 -16.0133 -18.6599 -17.7844 -20.7914 -19.0087 -19.1623 -15.9927 
-6.7875 -4.3665 0 -4.0995 -1.756 -3.5645 -4.1205 0 -4.452 -3.6055 -3.193 -1.934 -2.985 -5.128 
-12.0174 -4.3665 -4.0995 -5.521 -4.7635 -7.806001 -4.1205 -4.452 -7.478001 -4.658 -4.837 -4.111 -7.9135 
-12.0174 -9.918001 -5.521 -9.039001 -8.904 -7.806001 -9.2755 -7.478001 -8.4635 -6.2415 -7.2435 -9.088501 
-17.5689 -11.8255 -9.039001 -13.6667 -8.904 -13.404 -12.5629 -8.4635 -9.4995 -8.058001 -12.5858 
-19.4764 -15.3435 -13.6667 -13.6667 -14.6392 -16.6914 -13.5484 -9.4995 -11.502 -13.5903 
-4.62 -3.4975 -3.1385 0 -4.1205 -2.4285 -3.5645 -4.1205 0 -3.345 -1.756 -3.6055 -3.193 -2.925 -4.419 -3.5895 -2.0935 -4.1805 0 
-9.609001 -5.4655 -3.1385 -4.1205 -6.6085 -5.304501 -7.806001 -4.1205 -3.345 -5.2935 -5.005 -4.658 -5.7415 -6.099501 -6.0935 -5.0665 -5.835 -4.1805 
-11.577 -5.4655 -8.6175 -6.6085 -9.380501 -9.514001 -7.806001 -7.795 -5.2935 -5.4295 -6.247 -6.706 -8.630501 -7.7865 -7.5235 -8.683001 -5.835 
-11.577 -11.5919 -10.674 -9.380501 -10.2705 -9.514001 -11.9235 -10.007 -5.4295 -6.5245 -8.0695 -9.289001 -10.4543 -9.390501 -11.4716 -8.683001 
-17.7034 -13.6484 -13.446 -10.2705 -10.2705 -13.9135 -14.1355 -10.186 -6.5245 -8.541 -10.532 -11.2384 -12.0583 -13.4124 -11.4716 
