-4.759 
n/a 
n/a 
n/a 
n/a 
-4.759 
n/a 
n/a 
n/a 
n/a 
-4.759 
n/a 
n/a 
n/a 
n/a 
-4.759 
n/a 
n/a 
n/a 
n/a 
-2.688 -3.8225 -7.2865 -1.756 -6.057 -4.5485 -1.934 -3.5905 -7.2865 
-6.9115 -12.2084 -7.962 -8.0395 -9.295 -5.4015 -5.709 -11.6622 
-15.9204 -12.8839 -15.0393 -11.6053 -10.587 -9.094501 -14.4403 
-16.5959 -19.9612 -18.6051 -12.8973 -14.28 -18.1874 
-23.6732 -23.527 -19.8971 -16.5903 -23.3729 
-3.3715 -4.4225 -1.756 -3.9675 -3.5435 -4.0555 -3.222 -4.6975 
-7.601001 -6.244 -6.775 -7.7955 -7.2145 -5.5095 -6.238501 
-9.247001 -9.161501 -10.2865 -11.7983 -8.130501 -6.7535 
-12.4701 -12.933 -14.2893 -12.7143 -9.5775 
-16.2416 -16.9358 -15.2053 -14.1613 
-3.5905 -3.498 -1.7565 -3.5435 -1.7695 -3.2345 0 
-7.841001 -4.005 -4.913 -5.157001 -3.713 -3.2345 
-8.410501 -7.094501 -6.5935 -6.873 -3.713 
-11.8974 -9.876 -8.221001 -6.873 
-14.6789 -11.5753 -8.221001 
-1.756 -6.057 
-8.0395 
n/a 
n/a 
n/a 
