-4.759 
n/a 
n/a 
n/a 
n/a 
-4.759 
n/a 
n/a 
n/a 
n/a 
-4.759 
n/a 
n/a 
n/a 
n/a 
-4.759 
n/a 
n/a 
n/a 
n/a 
-2.4265 -2.186 -4.3035 -2.3335 -3.1495 -4.1395 -3.2645 -2.489 -3.2955 -1.934 -4.8045 -1.7695 -3.7085 -5.1845 -3.6885 -1.934 -3.299 -3.8685 0 
-3.292 -5.1255 -5.9125 -4.8015 -6.378 -6.9525 -3.7195 -3.979 -4.2285 -6.9185 -7.052 -4.19 -10.2135 -7.323501 -5.5135 -4.976501 -7.092501 -3.8685 
-5.7075 -6.0385 -7.743001 -8.059 -8.214001 -7.180501 -5.205 -4.8875 -9.2685 -9.375001 -9.370501 -10.4505 -12.3525 -9.102 -8.113001 -8.452001 -7.092501 
-6.045 -7.834 -11.1877 -9.577001 -8.5015 -8.7945 -6.302 -9.804501 -11.957 -12.0373 -16.0058 -12.5895 -14.131 -11.8013 -12.9797 -8.452001 
-7.8355 -11.3033 -12.7057 -9.77 -10.6465 -9.881001 -10.467 -12.6014 -14.6193 -18.6726 -18.1448 -14.368 -16.8303 -16.668 -12.9797 
-2.4265 -2.186 -4.3035 -1.7695 -5.14 -4.051 -3.9355 -2.0935 -1.4985 -5.533 -1.756 -5.719 -1.7565 -5.1845 0 
-3.292 -5.1255 -5.2725 -5.652 -8.2005 -6.9415 -5.6875 -2.9725 -6.5755 -6.5495 -6.732 -6.182 -6.580501 -5.1845 
-5.7075 -5.618 -9.290501 -8.579 -11.6438 -8.975 -6.6855 -7.966001 -7.642 -10.218 -7.059 -11.6402 -6.580501 
-6.1425 -9.485001 -12.3397 -12.0573 -13.6773 -10.375 -11.997 -9.021001 -11.6773 -10.6922 -12.7784 -11.6402 
-9.647 -12.5488 -15.818 -14.0908 -15.0773 -15.6865 -13.052 -13.1665 -12.1515 -16.4116 -12.7784 
-2.4265 -2.186 -3.383 -4.3035 -1.7695 -3.4985 -2.8965 -3.6885 -3.9355 -1.7695 -3.717 -3.222 -5.1845 -3.6885 -1.7695 -3.2345 -1.4985 -5.1845 -3.6885 -5.532 -2.5195 -2.8965 -4.2915 
-3.292 -4.438 -7.153 -5.2725 -4.8425 -6.731 -6.119 -7.4335 -5.513 -4.686 -5.268001 -8.3545 -7.323501 -5.663 -3.713 -4.328 -6.5205 -7.323501 -9.809 -7.3065 -4.786 -5.294 
-5.166 -7.5185 -7.8785 -8.228001 -7.4835 -10.5587 -9.683001 -9.175501 -8.654501 -5.6195 -11.4157 -10.341 -9.609 -7.5135 -4.717 -9.967001 -8.096001 -13.9454 -11.7785 -8.475 -7.311 
-7.9925 -8.064501 -10.6215 -11.0344 -11.7452 -14.1227 -11.5804 -12.4768 -9.8585 -11.9394 -13.4022 -12.6265 -11.5347 -8.496 -10.347 -11.5425 -15.0017 -15.9149 -12.947 -11.1216 
-8.285501 -10.674 -13.4279 -15.2961 -15.3092 -16.0201 -14.8817 -13.6808 -16.3114 -13.9259 -15.6877 -14.5522 -12.5172 -14.2594 -11.9225 -18.4482 -16.9712 -17.0834 -15.5936 
-5.2845 -1.7565 -2.8965 -4.2915 -2.229 -3.9355 -2.186 -2.664 -3.699 -1.7565 -3.3825 -1.7565 -5.1845 -3.6885 -1.756 -3.1435 -4.519 0 
-7.246 -4.5345 -5.294 -7.6125 -5.8565 -6.272 -3.8555 -4.654 -6.1875 -5.1565 -4.3095 -6.580501 -7.323501 -5.041 -4.1365 -7.488501 -4.519 
-10.0675 -6.577 -9.508 -12.0542 -7.9355 -7.9795 -5.2675 -8.7075 -10.76 -6.43 -9.0725 -8.634001 -8.563001 -7.044 -8.694 -7.488501 
-12.11 -10.7595 -14.0943 -14.1332 -9.6195 -9.0345 -9.271501 -13.5082 -12.0335 -11.367 -9.943 -9.512501 -10.243 -12.2589 -8.694 
-16.2925 -15.3458 -16.1733 -15.8172 -10.7055 -13.3615 -14.0468 -14.7817 -16.9705 -12.2375 -10.5175 -11.3305 -15.4579 -12.2589 
