-4.759 
n/a 
n/a 
n/a 
n/a 
-4.759 
n/a 
n/a 
n/a 
n/a 
-4.759 
n/a 
n/a 
n/a 
n/a 
-4.759 
n/a 
n/a 
n/a 
n/a 
-2.3615 -5.333 -1.4985 -3.54 -3.4795 -4.8635 
-7.644501 -6.137 -4.529 -5.272 -8.338 
-8.123 -9.21 -6.776 -10.6275 
-11.265 -11.7564 -12.3779 
-13.8114 -17.3583 
-3.321 -1.4985 -9.144 -4.179 -2.7415 -5.1805 -3.54 -3.4795 0 
-4.481 -11.7363 -13.6028 -6.593 -6.6155 -7.9975 -5.272 -3.4795 
-14.9412 -16.1951 -16.0168 -8.4175 -9.911 -9.83 -5.272 
-19.4 -18.6091 -17.8413 -11.9328 -10.4305 -9.83 
-21.814 -20.4336 -21.3566 -12.4523 -10.4305 
-2.3345 -3.4795 -2.4265 -2.7415 -5.1805 -2.0935 -3.54 -3.4795 -2.5045 -7.190001 -4.179 0 
-7.110001 -5.817 -3.681 -6.6155 -6.88 -5.122 -5.272 -5.8595 -9.525001 -8.514001 -4.179 
-9.790001 -6.714 -7.956501 -7.9475 -9.099 -6.2155 -7.6155 -13.455 -11.0594 -8.514001 
-10.6632 -10.702 -9.308001 -10.155 -9.199 -8.359 -15.3724 -14.9894 -11.0594 
-14.6512 -12.0535 -11.9175 -10.288 -11.5811 -16.2875 -16.9068 -14.9894 
-3.882 -2.4265 -2.7415 -5.1805 -2.0935 -2.7455 -3.54 -3.4795 0 
-5.945001 -3.681 -6.6155 -6.88 -4.987 -5.663 -5.272 -3.4795 
-6.6035 -7.956501 -7.9475 -9.534 -6.620501 -7.202001 -5.272 
-11.02 -9.308001 -10.7121 -11.4939 -7.88 -7.202001 
-12.3715 -12.4746 -12.672 -12.7534 -7.88 
