-4.759 
n/a 
n/a 
n/a 
n/a 
-4.759 
n/a 
n/a 
n/a 
n/a 
-4.759 
n/a 
n/a 
n/a 
n/a 
-4.759 
n/a 
n/a 
n/a 
n/a 
-5.1845 -3.6885 -3.898 -1.756 -3.72 -1.756 -4.23 -3.1385 -1.756 -3.8475 -4.5735 0 -3.5015 -4.58 0 -7.235 -3.9075 -3.4465 -3.6885 0 -4.388 0 -3.251 -4.688 -3.1385 -1.756 -3.17 -5.2705 -3.1385 -2.4945 -2.5685 -1.7565 -3.277 -3.699 
-7.323501 -8.269501 -4.9375 -4.773 -4.786 -5.653501 -5.86 -4.6325 -5.226 -8.42 -4.5735 -3.5015 -8.8205 -4.58 -7.235 -8.561 -8.404501 -7.4335 -3.6885 -4.388 -4.388 -3.251 -7.805 -8.637501 -4.6325 -4.684 -7.6175 -8.2255 -4.588 -4.6335 -3.887 -4.25 -7.448 
-12.4059 -9.235001 -8.797001 -6.381001 -9.329 -7.275001 -7.1205 -7.142 -9.285501 -8.42 -9.6905 -8.8205 -8.8205 -12.9674 -8.561 -13.3792 -12.7955 -7.4335 -8.9975 -4.388 -8.078 -7.805 -10.7595 -10.419 -7.4665 -8.937 -9.723001 -9.836 -7.096001 -6.429501 -5.2535 -8.4785 
-13.3714 -13.2553 -10.1225 -9.923 -11.0835 -8.584001 -10.634 -11.8847 -9.285501 -13.6968 -15.0351 -8.8205 -17.4973 -14.2934 -13.3792 -17.7702 -12.7955 -13.0523 -8.9975 -8.078 -13.2708 -10.7595 -12.541 -13.253 -12.2331 -10.553 -11.6837 -12.344 -8.982 -7.7685 -9.0055 
-17.3917 -14.5808 -13.7645 -12.1503 -12.3925 -12.2507 -15.3767 -11.8847 -14.9055 -19.0414 -15.0351 -17.4973 -18.8233 -19.1116 -17.7702 -17.7702 -18.4143 -13.0523 -12.9515 -13.2708 -16.2253 -12.541 -15.375 -18.0196 -13.8491 -12.5137 -14.1917 -14.23 -10.275 -10.621 
-5.1845 -3.6885 -3.3825 -1.756 -3.913 0 -5.2705 -3.391 0 -4.761 -3.288 -4.5735 0 -4.688 0 -7.235 -3.4715 -3.999 -3.634 0 -7.2735 0 -6.2035 0 -5.269 -5.2705 -3.1385 0 -4.884 -2.674 -3.9595 -3.222 -3.435 -1.934 -5.1845 -5.74 -3.5435 -3.97 0 
-7.323501 -6.2285 -4.5235 -5.426 -3.913 -5.2705 -7.9305 -3.391 -4.761 -7.1175 -7.1665 -4.5735 -4.688 -4.688 -7.235 -9.8325 -7.015 -8.4785 -3.634 -7.2735 -7.2735 -6.2035 -6.2035 -5.269 -7.966 -8.2255 -3.1385 -4.884 -7.6675 -5.0865 -5.316 -4.8945 -5.4195 -6.564 -5.7465 -7.83 -6.1845 -3.97 
-10.757 -7.229001 -7.454 -5.426 -9.657001 -7.9305 -7.9305 -8.626501 -7.1175 -11.5612 -7.1665 -10.4595 -4.688 -13.063 -9.8325 -13.4756 -11.8453 -8.4785 -11.9907 -7.2735 -14.1792 -6.2035 -10.4595 -7.966 -9.4985 -8.2255 -8.8205 -7.6675 -9.740001 -7.2905 -5.5165 -6.0305 -10.9135 -6.819 -7.8315 -10.9444 -6.1845 
-11.7575 -10.7625 -7.454 -11.7828 -12.7558 -7.9305 -13.6954 -10.7495 -11.5612 -11.5612 -13.5395 -10.4595 -13.063 -15.6605 -13.4756 -18.3059 -11.8453 -17.097 -11.9907 -14.1792 -14.1792 -10.4595 -13.1565 -9.4985 -9.4985 -14.0907 -11.8348 -9.740001 -12.273 -7.4865 -6.175 -12.1179 -11.1685 -9.7615 -10.9475 -10.9444 
-15.291 -10.7625 -14.393 -14.8816 -12.7558 -13.6954 -15.8184 -15.1932 -11.5612 -17.9342 -13.5395 -18.8345 -15.6605 -19.3036 -18.3059 -18.3059 -20.4638 -17.097 -18.8964 -14.1792 -18.4352 -13.1565 -14.689 -9.4985 -15.4241 -17.105 -13.9073 -12.273 -12.469 -8.944 -12.3168 -12.3729 -14.111 -13.0369 -10.9475 
-3.898 -1.7565 -5.1845 -3.6885 -1.756 -3.913 0 -3.564 -4.5735 -1.7565 -5.2705 -4.061 -1.756 -5.1685 0 -4.688 0 -8.641001 -3.4715 -4.919 0 -4.657 0 -4.5735 -1.7565 -4.0535 -1.756 -4.4625 -3.1385 -1.756 -6.132 -2.4945 -1.4985 -3.17 -3.699 -9.087501 -1.934 -6.557 0 
-4.9795 -6.580501 -7.323501 -5.041 -5.426 -3.913 -3.564 -5.74 -5.7035 -7.0175 -7.3595 -5.224 -6.415 -5.1685 -4.688 -4.688 -8.641001 -10.9575 -7.746 -4.919 -4.657 -4.657 -4.5735 -5.7035 -5.6675 -5.690001 -5.7285 -7.7545 -4.6325 -7.6205 -7.863501 -3.9315 -3.7115 -4.663 -14.1299 -10.533 -7.536 -6.557 
-9.765501 -8.634001 -8.563001 -9.967 -5.426 -7.414001 -5.74 -7.638 -8.099 -7.9975 -8.422501 -9.087501 -6.415 -10.382 -4.688 -14.469 -10.9575 -15.232 -7.746 -10.3105 -4.657 -8.3745 -5.7035 -10.7575 -6.8815 -10.4911 -9.1885 -9.683001 -11.5602 -8.8675 -9.432501 -5.324 -4.8395 -15.6239 -15.5754 -16.135 -7.536 
-10.7625 -9.512501 -13.89 -9.967 -9.161 -9.1 -7.638 -10.1711 -8.104 -9.5865 -9.189 -9.087501 -12.2489 -10.382 -14.469 -16.7855 -15.232 -15.232 -13.4845 -10.3105 -8.3745 -10.0437 -10.7575 -11.9715 -11.9904 -13.9511 -11.0052 -16.7079 -12.8072 -10.025 -10.9558 -6.3 -16.0956 -17.0694 -21.1774 -16.135 
-11.641 -14.9775 -13.89 -13.8214 -11.2144 -11.275 -10.1711 -10.1761 -10.322 -10.245 -9.189 -14.9662 -12.2489 -20.395 -16.7855 -21.06 -15.232 -20.9705 -13.4845 -14.028 -10.0437 -15.0977 -11.9715 -17.0804 -15.4504 -15.7678 -18.0301 -17.9549 -13.9647 -11.7629 -11.9318 -17.8797 -17.5411 -22.6714 -21.1774 

n/a 
n/a 
n/a 
n/a 
