-4.759 
n/a 
n/a 
n/a 
n/a 
-4.759 
n/a 
n/a 
n/a 
n/a 
-4.759 
n/a 
n/a 
n/a 
n/a 
-4.759 
n/a 
n/a 
n/a 
n/a 
0 -8.253 0 -4.612 -2.0935 -1.8085 -3.873 -2.264 -2.9705 -1.8085 -3.729 -2.186 -4.0835 -2.4285 -2.7455 -1.7695 -2.489 -4.0835 0 
-8.253 -8.253 -4.612 -5.441 -3.385 -5.6705 -5.824 -4.761001 -4.946 -5.3225 -5.6265 -5.3675 -6.6 -5.5565 -4.8235 -3.1405 -5.464 -4.0835 
-8.253 -13.4092 -5.441 -6.9595 -7.245501 -8.443501 -6.6395 -6.2875 -7.699 -6.921 -8.006001 -7.9355 -9.794001 -6.937 -5.9165 -5.9165 -5.464 
-13.4092 -14.2382 -6.9595 -10.6215 -9.626 -8.875501 -7.9275 -8.517 -8.421 -8.814 -9.736501 -11.4953 -10.1065 -7.4175 -8.538 -5.9165 
-14.2382 -15.7567 -10.6215 -13.002 -11.0114 -10.2485 -8.774 -8.727 -9.846001 -10.0735 -13.3963 -11.8078 -10.2425 -9.915001 -8.538 
-8.4515 -8.338 -3.729 -2.3335 -2.186 -4.0835 -2.4285 -1.4985 -4.0835 -3.4425 -1.7565 -1.4985 -3.729 
-17.2871 -12.6628 -6.0065 -3.7085 -5.3675 -6.6 -4.002501 -5.516001 -7.769501 -4.5535 -2.4195 -4.763 
-21.6119 -14.9403 -6.875 -6.7145 -7.9355 -8.432001 -7.893001 -8.871501 -8.750501 -5.259 -5.4075 
-23.8894 -15.8088 -9.251 -9.187 -9.427 -12.4731 -11.6283 -9.399001 -9.371501 -7.495 
-24.7579 -18.1848 -10.622 -10.8875 -13.5267 -16.2084 -12.1558 -9.523001 -11.8901 
0 -6.929 0 -4.849 -1.4985 -3.873 -3.3155 -1.8085 -3.729 -2.186 -4.0835 -2.4285 -4.0855 -1.7695 -2.489 -4.0835 0 
-6.929 -6.929 -4.849 -5.3535 -4.7405 -6.3495 -4.897 -5.3225 -5.6265 -5.3675 -6.6 -6.2825 -5.535 -3.1405 -5.464 -4.0835 
-6.929 -11.1355 -5.3535 -9.113501 -6.9145 -7.964 -7.8525 -6.921 -8.006001 -7.9355 -9.096001 -7.161 -6.131001 -5.9165 -5.464 
-11.1355 -11.64 -9.113501 -11.6789 -8.5565 -10.0995 -8.354 -8.814 -9.736501 -10.7973 -10.0755 -7.233 -8.086 -5.9165 
-11.64 -15.4 -11.6789 -13.3209 -11.0178 -10.7944 -9.5515 -10.0735 -12.6983 -11.7768 -10.282 -9.901001 -8.086 
-1.4985 -3.8235 -8.253 -5.3285 -1.8085 -4.834 -7.3215 -2.4285 -1.8085 -3.873 
-4.53 -11.1415 -14.1257 -6.112 -7.108001 -13.1841 -9.3315 -4.126 -5.6705 
-12.0008 -17.0142 -14.9092 -9.92 -15.6999 -15.1941 -11.7006 -7.671 
-17.8735 -17.7977 -18.7172 -19.7613 -17.7099 -17.5632 -15.2456 
-18.657 -21.6057 -28.5585 -21.7713 -20.079 -21.1082 
