-4.759 
n/a 
n/a 
n/a 
n/a 
-4.759 
n/a 
n/a 
n/a 
n/a 
-4.759 
n/a 
n/a 
n/a 
n/a 
-4.759 
n/a 
n/a 
n/a 
n/a 
-3.2615 -3.133 -3.277 -5.7115 -2.7415 -4.794 -2.3345 -1.4985 -4.6195 -2.264 -1.4985 -3.995 
-6.074 -5.149 -9.663501 -8.043 -6.637 -5.291 -3.233 -5.9655 -6.8795 -2.9195 -4.712 
-6.7955 -11.8703 -12.0938 -12.3419 -7.5255 -6.7595 -7.4265 -8.0845 -7.3765 -6.008 
-13.9668 -14.3006 -16.3927 -13.2304 -8.8325 -11.395 -9.376 -8.4315 -10.096 
-16.3971 -18.5995 -17.2812 -14.5374 -13.62 -13.3445 -9.783501 -11.3174 
-3.882 -3.2615 -3.133 -7.653 -5.52 -3.557 -5.7115 -1.934 -3.995 -4.179 0 
-6.266 -6.074 -11.3084 -13.5936 -9.472501 -9.646501 -7.5575 -6.139 -7.1765 -4.179 
-10.2285 -15.8108 -17.249 -17.5461 -15.8156 -10.6625 -10.7175 -10.513 -7.1765 
-20.1095 -21.7514 -21.2015 -23.8892 -16.8316 -13.8225 -15.0915 -10.513 
-26.0501 -25.7039 -27.5446 -24.9052 -19.9916 -18.1965 -15.0915 
-3.133 -3.277 -3.2615 -2.3335 -3.0465 -1.4985 -3.9035 
-5.149 -5.1005 -5.0495 -5.7685 -4.046 -5.498 
-7.1815 -6.851501 -8.3625 -7.0895 -7.5675 
-9.248 -10.5325 -9.236 -10.8914 
-12.973 -11.406 -13.1331 
-3.291 -3.2615 -3.133 -3.277 -3.393 -1.4985 -5.7115 -3.995 -1.4985 -3.326 -4.586 -5.7115 0 
-6.712501 -6.074 -5.149 -4.243 -5.169 -6.982 -9.9805 -5.7605 -4.841001 -10.1265 -9.972501 -5.7115 
-10.575 -6.7955 -6.3375 -5.654 -10.328 -11.709 -12.3872 -9.212 -12.5387 -15.824 -9.972501 
-11.2965 -8.434 -7.611 -11.0404 -15.4042 -14.1157 -15.8387 -17.1439 -18.2362 -15.824 
-12.935 -9.7075 -13.11 -16.1166 -17.8109 -17.5672 -23.7706 -22.8414 -18.2362 
