-4.759 
n/a 
n/a 
n/a 
n/a 
-4.759 
n/a 
n/a 
n/a 
n/a 
-4.759 
n/a 
n/a 
n/a 
n/a 
-4.759 
n/a 
n/a 
n/a 
n/a 
-1.934 -1.4985 -3.8825 -3.158 -3.5485 -2.229 -3.518 -2.186 -3.3235 -4.38 0 
-2.6125 -4.569 -7.158501 -7.198 -4.0385 -5.978 -5.4795 -4.976501 -7.887001 -4.38 
-5.421 -7.3345 -11.6451 -7.7905 -8.433001 -7.881001 -8.3005 -8.967001 -7.887001 
-8.2235 -11.9749 -12.2376 -12.5832 -11.0364 -10.933 -12.6832 -8.967001 
-12.9673 -12.5674 -17.0303 -15.1866 -14.0884 -15.3157 -12.6832 
-3.5485 -2.229 -3.3825 -2.8645 -4.518 -1.8085 -4.926 -3.518 -1.934 -1.4985 -3.634 -3.4795 0 
-4.0385 -5.6745 -6.0895 -5.706 -5.67 -5.5635 -8.0105 -5.322001 -2.6125 -4.943501 -6.447001 -3.4795 
-7.16 -7.9455 -8.632501 -6.4445 -8.778 -8.1 -9.959001 -5.9135 -5.8955 -8.172001 -6.447001 
-9.788 -10.335 -9.0895 -9.479 -9.665 -10.009 -10.5375 -9.247001 -8.3585 -8.172001 
-12.1015 -10.524 -12.401 -10.1955 -10.676 -10.602 -13.871 -11.8632 -8.3585 
-3.634 -3.5215 -6.231 -3.7095 -2.186 -3.383 -4.293 0 
-6.0365 -9.6005 -10.4855 -5.7365 -4.438 -9.5345 -4.293 
-12.6863 -14.5674 -12.5125 -8.3915 -11.1267 -9.5345 
-17.6532 -16.5944 -15.1675 -15.3574 -11.1267 
-19.6802 -19.2494 -22.1334 -15.3574 
-3.0365 -2.186 -1.8085 -5.0305 -3.6615 -1.934 -3.618 -1.7565 -4.1105 -4.0775 0 
-3.66 -3.164 -5.650001 -7.665 -4.437 -6.392 -4.561501 -6.102 -7.9515 -4.0775 
-4.218 -6.5185 -9.063101 -8.054001 -7.362 -6.921 -10.085 -10.5535 -7.9515 
-7.626501 -10.275 -9.452101 -11.3052 -8.533501 -12.3497 -14.5471 -10.5535 
-11.7766 -10.664 -12.7033 -12.4767 -14.5568 -16.8118 -14.5471 
