-4.759 
n/a 
n/a 
n/a 
n/a 
-4.759 
n/a 
n/a 
n/a 
n/a 
-4.759 
n/a 
n/a 
n/a 
n/a 
-4.759 
n/a 
n/a 
n/a 
n/a 
-3.469 -4.201 -4.318 -4.6075 -3.5185 -2.645 -5.7095 -3.1575 -5.2765 -4.6075 0 -2.4265 -4.8675 -1.4985 -3.4295 -3.7345 -5.0515 -2.356 -4.5825 -4.7545 0 
-5.267 -8.861 -6.984 -8.361 -5.909 -7.801001 -8.536501 -9.549001 -10.5098 -4.6075 -2.4265 -5.962501 -5.4845 -4.8285 -5.487 -7.736 -7.575001 -6.6405 -8.865499 -4.7545 
-9.1055 -11.7808 -11.1497 -11.3305 -9.099501 -8.653501 -15.2564 -14.8213 -10.5098 -6.95 -5.962501 -6.613 -9.561501 -6.666 -10.2721 -10.586 -12.0937 -11.3299 -8.865499 
-12.2651 -15.9465 -14.1192 -14.521 -9.842501 -15.4542 -20.5287 -14.8213 -12.8523 -11.3578 -6.613 -10.66 -11.5276 -11.8569 -13.1221 -15.1047 -16.7831 -11.3299 
-16.4308 -18.916 -17.3097 -15.264 -16.7256 -20.7265 -20.5287 -17.1638 -17.2601 -12.0083 -10.66 -12.6261 -16.7185 -14.7069 -17.6408 -19.7941 -16.7831 
-3.851 -1.7695 -4.318 -4.384 -5.5215 -2.4265 -3.8755 -2.645 -4.285 -3.1575 -5.2765 -4.6075 -1.756 -2.4265 -4.3195 -4.6185 -2.0935 -4.257 -1.7695 -4.0655 -3.3255 -1.934 -1.8085 -3.4295 -3.5015 0 
-4.0015 -6.2155 -5.18 -9.807001 -8.085501 -6.4065 -6.653501 -6.3745 -6.809 -9.549001 -10.5098 -5.6795 -3.949 -5.45 -8.835501 -6.395 -6.670001 -6.2085 -4.9145 -5.4285 -5.9265 -3.2685 -6.187 -7.37 -3.5015 
-6.9205 -7.3805 -11.3014 -12.5676 -12.5653 -8.453501 -9.797501 -7.064501 -13.6267 -14.8213 -11.5818 -8.040501 -6.629 -9.542 -9.7745 -10.647 -9.127501 -9.17 -6.1505 -7.5265 -7.094 -7.842 -9.5865 -7.37 
-9.460501 -13.9179 -14.062 -17.0474 -14.6123 -10.7575 -10.1795 -14.105 -18.899 -15.8933 -13.9428 -10.621 -10.621 -10.1085 -14.2421 -13.1045 -12.238 -9.7095 -8.2335 -8.549001 -12.0531 -10.1805 -9.5865 
-16.2255 -16.6785 -18.5418 -19.0944 -16.9163 -11.1395 -17.22 -19.3773 -19.971 -18.2543 -16.5233 -14.613 -11.1875 -14.7407 -16.6996 -16.215 -12.7775 -11.8287 -9.130501 -13.8737 -14.3916 -10.1805 
-3.469 -3.787 -4.6075 0 -1.934 -1.4985 -3.158 -5.2765 -4.6075 -2.9705 -3.152 -3.2955 -1.7695 -4.299 -4.8005 -4.6485 -4.413 -5.3685 -3.9515 -1.756 -4.028 -4.7545 -3.152 -3.074 -3.918 -2.9705 -3.251 -4.8635 -1.934 -1.4985 -4.2995 -1.7565 -4.1365 -8.987 0 
-5.457 -7.7145 -4.6075 -1.934 -2.6125 -4.178 -7.895 -10.5098 -6.97 -5.007 -5.165 -3.9425 -5.4975 -7.8815 -7.6675 -9.295 -9.449 -7.4185 -5.4465 -5.9 -6.274 -6.8325 -5.0635 -6.644 -8.536501 -5.153 -6.8455 -4.9455 -2.6125 -5.2815 -5.232 -5.797501 -10.7335 -8.987 
-8.0375 -7.7145 -6.0995 -2.6125 -5.265 -8.2845 -13.5133 -12.8723 -8.349501 -6.822501 -5.6155 -7.3185 -8.288 -9.550501 -12.6666 -14.394 -11.6708 -9.2635 -10.0925 -7.4795 -8.051001 -8.743501 -8.0635 -12.1251 -10.8796 -7.817501 -6.924 -5.6805 -6.585501 -5.732501 -8.4135 -12.9819 -10.7335 
-8.0375 -9.2545 -6.6925 -5.265 -8.685501 -14.1302 -15.8758 -14.2518 -9.400001 -7.264 -8.776501 -9.712 -9.7255 -14.6196 -17.7656 -16.6158 -13.5158 -13.9915 -11.672 -9.08 -9.617001 -11.9859 -14.8474 -14.4682 -13.5441 -7.922 -7.646 -9.061 -7.217 -8.815001 -16.5225 -12.9819 
-9.6595 -9.913501 -9.722501 -8.685501 -14.6376 -16.4927 -17.2553 -15.3023 -10.0895 -10.051 -10.6735 -11.1495 -14.8544 -19.7186 -19.9874 -18.4608 -18.2438 -15.571 -13.2725 -10.7038 -12.8596 -18.7698 -17.1905 -17.1327 -13.6486 -8.516001 -11.0671 -9.1575 -10.041 -17.0882 -16.5225 
-2.0935 -3.469 -4.318 -4.6075 0 -1.934 -4.569 -2.925 -2.674 -2.645 -3.9525 -3.1575 -1.4985 -4.6075 -3.321 -2.3345 -3.3425 -1.4985 -5.5215 0 -3.321 -2.3345 -3.3425 -2.8965 -6.818501 -2.674 -5.1835 -3.8515 -2.7415 -4.2595 0 
-5.214 -7.615001 -6.984 -4.6075 -1.934 -5.777 -7.7205 -4.1785 -4.9565 -5.261001 -5.9755 -4.1355 -6.0655 -7.6675 -5.886 -4.554 -4.0125 -7.033 -5.5215 -3.321 -5.886 -4.554 -6.166 -8.936501 -8.892 -6.6475 -9.687 -6.877501 -6.0185 -4.2595 
-9.6385 -10.7175 -6.984 -6.0995 -5.777 -8.057 -8.883 -6.4055 -8.132 -6.120501 -6.9405 -8.6685 -9.0115 -10.3225 -7.78 -5.1225 -10.013 -7.033 -8.6815 -5.886 -7.78 -7.356 -12.769 -10.7335 -12.9683 -11.793 -13.306 -9.992001 -6.0185 
-12.7696 -10.7175 -8.587501 -10.1 -8.057 -9.383 -11.34 -9.684501 -9.2307 -7.087501 -11.7379 -11.9353 -11.8663 -12.3581 -8.2235 -10.5855 -10.013 -9.975 -10.718 -7.78 -10.575 -14.218 -14.566 -14.8098 -18.1138 -15.412 -16.4205 -9.992001 
-12.7696 -12.321 -12.7446 -12.4658 -9.383 -11.8588 -14.619 -10.816 -10.1977 -11.9233 -15.0047 -14.7901 -13.9019 -12.8016 -13.7643 -10.5855 -13.0718 -12.0115 -13.4498 -10.575 -17.881 -16.015 -18.6423 -19.9553 -21.7328 -18.5265 -16.4205 
