-4.759 
n/a 
n/a 
n/a 
n/a 
-4.759 
n/a 
n/a 
n/a 
n/a 
-4.759 
n/a 
n/a 
n/a 
n/a 
-4.759 
n/a 
n/a 
n/a 
n/a 
-10.7895 -3.515 -2.8705 -4.4525 -1.7695 -3.6785 -2.0935 -2.5685 -4.9225 -6.366 -1.756 -4.17 -4.763 0 
-14.3045 -5.9595 -8.238501 -5.610001 -4.268 -5.9705 -3.987 -6.688 -12.3027 -7.6095 -5.372 -9.298 -4.763 
-16.749 -12.3919 -8.969 -8.667001 -6.634 -8.0105 -7.532001 -14.765 -13.5462 -11.5891 -10.702 -9.298 
-23.1814 -13.1224 -12.432 -11.1882 -8.514501 -12.0213 -15.7802 -16.0085 -17.5258 -16.9191 -10.702 
-23.9119 -16.5854 -14.9532 -13.0687 -12.6827 -20.2695 -17.0237 -19.9881 -22.8558 -16.9191 
-7.961 -4.2995 -3.9535 -1.7695 -3.2955 -5.1845 -4.541 -2.5045 -2.985 -4.0005 -1.7695 -4.4755 -2.985 -4.414 -1.756 -4.2425 
-12.8395 -7.49 -5.098001 -6.642001 -9.561 -11.0199 -7.0375 -5.065001 -7.3895 -5.16 -5.448 -6.6375 -6.055 -5.3535 -5.9125 
-16.03 -8.676001 -9.618501 -12.9663 -15.4822 -13.5164 -9.465501 -8.524 -8.6075 -8.426001 -7.0295 -9.93 -6.699 -8.57 
-17.216 -13.3811 -16.078 -18.8875 -17.9787 -15.9444 -13.0433 -9.335 -12.0207 -9.918501 -10.081 -10.415 -9.7215 
-21.9211 -19.8406 -21.9992 -21.384 -20.4067 -19.5222 -13.8543 -12.8236 -13.5132 -13.0862 -10.528 -13.4375 
-6.9985 -4.8225 -3.2955 -5.1845 -2.5045 -1.8085 -4.901 -1.7695 -4.2615 -2.985 -3.495 -1.7695 -3.1385 -1.756 -3.7555 -4.02 -1.934 -2.4265 0 
-10.4035 -8.161 -9.561 -8.093 -3.3625 -5.8385 -6.5525 -4.7355 -5.945001 -5.807 -6.157001 -5.0525 -4.6325 -5.2875 -8.356501 -5.174 -4.6645 -2.4265 
-13.742 -14.9027 -12.5553 -9.0555 -6.5055 -7.1515 -9.6055 -6.3155 -9.848801 -7.3785 -9.436501 -6.3715 -8.051001 -9.466001 -9.168501 -8.1255 -4.6645 
-20.4837 -17.897 -13.5178 -12.4981 -7.599 -10.476 -11.1923 -10.3743 -11.4203 -10.4425 -10.8623 -9.8915 -12.3785 -10.244 -10.734 -8.1255 
-23.478 -18.8595 -16.9604 -13.5916 -10.9939 -12.0628 -15.2511 -11.9458 -14.4843 -11.9527 -14.3823 -14.219 -13.1565 -11.8095 -10.734 
-7.539001 -4.8225 -3.1385 -3.2955 -5.1845 -2.5045 -3.6885 0 -1.756 -4.1585 -2.985 -3.992 -1.756 -3.0465 -4.9205 
-13.3671 -8.175501 -6.4565 -9.561 -8.093 -6.7475 -3.6885 -1.756 -5.519 -6.833 -6.144 -5.5245 -4.477 -9.097 
-16.7201 -12.0491 -13.0944 -12.5553 -12.746 -6.7475 -5.041 -5.519 -7.9055 -10.228 -7.3245 -8.256001 -10.375 
-20.5937 -18.687 -16.0887 -17.2083 -12.746 -7.8215 -9.292001 -7.9055 -11.6003 -11.5407 -9.655001 -14.7416 
-27.2316 -21.6813 -20.7417 -17.2083 -13.82 -12.2813 -11.5759 -11.6003 -12.913 -13.8712 -16.3504 
