-4.759 
n/a 
n/a 
n/a 
n/a 
-4.759 
n/a 
n/a 
n/a 
n/a 
-4.759 
n/a 
n/a 
n/a 
n/a 
-4.759 
n/a 
n/a 
n/a 
n/a 
-5.1845 -4.936 -1.934 -1.4985 -2.95 -3.958 0 
-8.961 -6.3615 -2.6125 -3.9285 -6.628 -3.958 
-10.504 -6.856501 -5.674 -8.125 -6.628 
-10.999 -8.990001 -9.9375 -8.125 
-13.1325 -15.0783 -9.9375 
-3.4155 -5.269 -1.7565 -5.1845 -1.934 -3.193 -3.4775 -3.3435 0 
-7.6065 -6.6965 -6.580501 -7.9875 -5.9835 -5.9175 -7.291 -3.3435 
-8.696 -12.1997 -8.978001 -12.3372 -8.477 -8.602 -7.291 
-14.435 -14.5972 -13.4951 -14.8307 -9.303 -8.602 
-16.8325 -19.1143 -15.9886 -15.6567 -9.303 
-4.8365 -5.1845 -4.936 0 
-11.4986 -8.961 -4.936 
-15.2751 -8.961 
-15.2751 
n/a 
-5.1845 -4.245 -1.934 -1.4985 -4.6505 -3.8405 0 -3.6205 0 0 
-7.991 -5.906001 -2.6125 -5.684501 -8.348001 -3.8405 -3.6205 -3.6205 0 
-9.4785 -6.5915 -7.0305 -9.348501 -8.348001 -8.198501 -3.6205 -3.6205 
-10.3175 -11.6597 -10.7175 -9.348501 -12.9274 -8.198501 -3.6205 
-15.3857 -15.3467 -10.7175 -14.0065 -12.9274 -8.198501 
