-4.759 
n/a 
n/a 
n/a 
n/a 
-4.759 
n/a 
n/a 
n/a 
n/a 
-4.759 
n/a 
n/a 
n/a 
n/a 
-4.759 
n/a 
n/a 
n/a 
n/a 
-3.9345 -1.7695 -1.4985 -7.910501 -3.43 -2.264 -3.1495 -9.5775 0 -2.4265 -2.186 -5.5925 -2.3335 -1.4985 -4.1865 -9.3125 -2.7415 -4.3755 -1.8085 -3.355 -1.7565 -1.4985 -3.6885 -4.1225 -5.213 -3.849 -4.4655 -9.825001 0 
-3.94 -2.7955 -10.523 -13.0459 -5.2935 -4.869 -14.0222 -9.5775 -2.4265 -3.292 -7.422 -6.695 -3.3515 -5.177 -9.6625 -8.985001 -5.721 -6.5455 -4.6195 -3.725 -2.4195 -4.992001 -7.965 -7.766001 -8.292001 -8.096001 -10.001 -9.825001 
-4.4455 -12.0552 -15.6584 -14.9094 -7.475 -16.0513 -14.0222 -12.2882 -3.292 -7.756501 -7.9405 -7.412 -7.019001 -7.342 -9.240001 -12.165 -6.9655 -8.561001 -4.725 -4.0515 -5.863 -8.736501 -9.927501 -10.1815 -13.1036 -13.6063 -10.001 
-14.2242 -17.1906 -17.5219 -17.0909 -19.0903 -16.0513 -16.7329 -13.1537 -7.756501 -7.945001 -8.395 -10.19 -9.994 -9.713 -12.801 -13.5645 -9.0505 -8.6425 -5.0485 -7.4845 -9.479501 -10.688 -12.4086 -14.9931 -18.6139 -13.6063 
-19.3596 -19.0541 -19.7034 -28.7062 -19.0903 -18.762 -17.5984 -17.6182 -7.945001 -8.396501 -10.5745 -13.179 -12.169 -12.9353 -14.1113 -15.6495 -9.117001 -9.0535 -8.593 -10.6875 -11.4996 -13.1691 -17.2202 -20.5034 -18.6139 
-5.4805 -5.335 -2.4945 -3.8225 -3.598 -2.264 -1.4985 -4.3355 -4.1375 -3.135 -2.4945 -3.864 -1.756 0 -1.934 -5.219 -3.4715 0 -5.0445 -2.985 -4.4115 -2.3345 -5.7865 -4.78 -1.756 -4.852 -5.22 -3.299 -3.7515 -1.4985 -4.1455 -1.7565 -1.4985 -4.1115 
-8.2085 -6.546 -5.672 -6.6335 -5.459001 -2.9195 -5.199 -6.557 -7.561501 -5.297501 -5.8245 -5.483 -1.756 -1.934 -6.4105 -6.1155 -3.4715 -5.0445 -6.7 -6.073501 -6.8705 -7.4995 -8.799001 -6.17 -6.486 -8.425501 -8.6905 -6.323 -4.6795 -4.870501 -5.11 -2.4195 -4.843 
-9.5775 -9.5175 -7.968 -8.7635 -5.889501 -6.395 -6.7025 -9.193001 -9.321501 -8.677 -7.059 -5.483 -4.0205 -6.4105 -6.8155 -6.1155 -10.0715 -6.7 -9.476001 -8.0865 -10.19 -10.2085 -9.729501 -10.254 -9.4205 -10.4035 -10.0345 -6.607 -6.765501 -5.3985 -5.3235 -5.5165 
-10.33 -10.2995 -9.4875 -9.4945 -9.595501 -7.231 -9.274501 -10.1725 -10.224 -9.5415 -7.059 -7.647 -8.3065 -6.8155 -6.8155 -10.2135 -10.229 -9.476001 -10.2195 -10.2285 -10.2455 -10.246 -10.4215 -10.405 -10.4195 -10.4235 -10.0525 -8.6665 -7.1355 -5.6005 -7.436501 
-10.3595 -10.359 -9.955001 -10.376 -9.724501 -9.722501 -10.181 -10.231 -10.4125 -9.5415 -8.836 -10.3885 -8.755 -6.8155 -10.2185 -10.231 -10.247 -10.2195 -10.2475 -10.247 -10.254 -10.435 -10.4345 -10.44 -10.4325 -10.444 -10.205 -9.038501 -7.196001 -7.472001 
-3.074 -1.4985 -3.326 -4.4655 -2.264 -2.3615 -4.147 -4.887 -4.5445 -2.3335 -1.4985 -4.1865 -6.2985 -2.7415 -3.819 -1.4985 -3.355 -1.7565 -1.4985 -4.232 0 -6.6585 0 -5.213 -1.7565 -4.1225 -3.892 0 
-4.6505 -4.841001 -6.1885 -5.829 -3.8255 -6.7445 -6.4495 -9.367001 -5.1965 -3.3515 -5.177 -6.497 -8.3315 -5.5775 -4.844 -4.951 -3.725 -2.4195 -5.198501 -4.232 -6.6585 -6.6585 -5.213 -6.552001 -5.2875 -6.295001 -3.892 
-8.108001 -7.144501 -7.4785 -7.581 -7.771501 -10.76 -11.4453 -10.1645 -5.848001 -7.019001 -6.817 -8.7495 -10.31 -6.561501 -8.496 -5.194 -4.0515 -5.988 -5.198501 -11.0145 -6.6585 -9.8385 -6.552001 -10.382 -8.5535 -6.295001 
-10.523 -8.401001 -9.012001 -11.926 -12.1058 -15.7558 -12.2428 -10.816 -9.616 -9.378501 -8.782001 -10.3675 -11.585 -10.0605 -9.524 -5.483 -6.9015 -5.988 -11.9586 -11.0145 -9.8385 -11.3939 -10.382 -13.9376 -8.5535 
-11.7795 -9.635501 -13.5754 -16.2603 -17.1016 -16.5533 -12.8943 -14.584 -12.1019 -10.1045 -10.367 -11.7025 -15.084 -10.1355 -9.811501 -9.302501 -6.9015 -12.7425 -11.9586 -14.1945 -11.3939 -15.2239 -13.9376 -13.9376 
-3.818 -2.264 -1.4985 -3.326 -2.264 -3.1495 -3.8845 -4.887 -2.7295 -3.557 -2.3335 -1.4985 -4.1865 -6.2985 -2.674 -1.4985 -3.6135 -3.502 -5.213 -3.892 -4.281 -2.5045 -10.638 
-6.16 -2.9195 -4.841001 -5.025001 -4.869 -7.5135 -9.297501 -7.445 -5.115 -4.678 -3.3515 -5.177 -6.497 -8.795 -3.998 -4.4525 -6.008 -9.2075 -7.700001 -8.1 -5.893 -14.0599 
-6.847 -6.4055 -6.559 -7.311 -9.217 -13.4259 -12.2187 -9.476 -5.749 -5.388 -7.019001 -6.817 -9.0895 -10.382 -7.176001 -7.3465 -13.1787 -11.7431 -12.421 -9.8675 -17.8092 
-10.2275 -8.177 -8.604501 -12.0234 -15.3882 -16.3471 -14.2497 -10.178 -6.3795 -9.06 -9.378501 -9.121 -10.4855 -13.7828 -9.977501 -15.4706 -15.7143 -16.4641 -14.1885 -21.9083 
-11.999 -10.5859 -13.3671 -18.1946 -18.3094 -18.3781 -14.9517 -10.8085 -10.5425 -11.5533 -12.0491 -10.5325 -13.8863 -16.5843 -19.2496 -18.0062 -20.4353 -18.2316 -26.2293 
