-4.759 
n/a 
n/a 
n/a 
n/a 
-4.759 
n/a 
n/a 
n/a 
n/a 
-4.759 
n/a 
n/a 
n/a 
n/a 
-4.759 
n/a 
n/a 
n/a 
n/a 
-4.4205 -6.8685 -8.7065 -3.7075 -2.229 -3.3435 -4.359 
-10.4945 -16.2906 -12.6142 -5.5255 -5.0415 -5.284 
-21.1562 -20.1983 -14.4322 -8.830501 -6.953001 
-25.0639 -22.0163 -17.7372 -10.013 
-26.8819 -25.3213 -18.9197 
-7.282001 0 -3.307 0 -3.7075 -2.229 -3.3435 -4.4695 
-7.282001 -3.307 -3.307 -3.7075 -5.5255 -5.0415 -8.022501 
-10.1635 -3.307 -6.03 -5.5255 -8.830501 -9.844501 
-10.1635 -6.03 -9.4515 -8.830501 -13.9801 
-13.1915 -9.4515 -12.9971 -13.9801 
-14.2965 -8.337 -4.9375 
-23.262 -15.421 
-32.0063 
n/a 
n/a 
-13.9325 -4.359 -1.7565 -3.7075 
-15.904 -5.4865 -5.7275 
-16.806 -9.3865 
-21.754 
n/a 
