-4.759 
n/a 
n/a 
n/a 
n/a 
-4.759 
n/a 
n/a 
n/a 
n/a 
-4.759 
n/a 
n/a 
n/a 
n/a 
-4.759 
n/a 
n/a 
n/a 
n/a 
-5.5845 -2.5235 -1.7695 -3.9335 -1.4985 -3.188 -3.301 0 
-7.021501 -6.4915 -5.1355 -5.074 -3.619 -6.5895 -3.301 
-12.1795 -9.786501 -6.1575 -7.806001 -7.478001 -6.5895 
-15.4745 -10.9159 -8.944501 -12.1278 -7.478001 
-16.6039 -13.7029 -13.3155 -12.1278 
-2.7835 -2.7295 -7.295001 -2.8705 -3.9195 -2.7295 -2.7765 -7.295001 -1.4985 -3.188 
-4.405 -8.8365 -9.548 -6.346 -6.718 -4.065 -9.173 -7.747001 -3.619 
-10.0575 -10.504 -13.0235 -7.9325 -8.1685 -9.673 -9.663 -10.1633 
-11.6842 -13.9795 -14.61 -9.1425 -13.9605 -10.021 -12.0793 
-15.1597 -15.566 -15.82 -15.0489 -14.3085 -12.4373 
-2.5235 -4.0335 -2.186 -4.8275 -1.934 -3.188 -2.186 -4.8275 
-5.169001 -5.673 -6.902 -6.4915 -5.387 -5.1175 -6.902 
-6.726501 -10.7752 -8.425 -10.7025 -8.1975 -10.622 
-12.1063 -12.2982 -12.9028 -14.3244 -14.0488 
-13.6293 -16.776 -16.5247 -20.1757 
-2.7835 -2.5235 -3.9195 -2.186 -4.136 -1.4985 -3.962 -3.188 -2.742 -3.7905 -4.136 
-4.5105 -5.244 -5.7285 -6.105 -5.678 -4.324 -5.6585 -5.7795 -5.126 -8.078501 
-7.277501 -6.683001 -9.063001 -7.6025 -8.064501 -5.719 -7.358 -7.791 -9.2345 
-7.690501 -9.605 -10.5813 -10.426 -9.876 -7.377001 -9.287001 -12.1507 
-10.5125 -11.2729 -13.4048 -12.2375 -12.0144 -9.3085 -13.6533 
