-4.759 
n/a 
n/a 
n/a 
n/a 
-4.759 
n/a 
n/a 
n/a 
n/a 
-4.759 
n/a 
n/a 
n/a 
n/a 
-4.759 
n/a 
n/a 
n/a 
n/a 
-1.934 -4.6105 -4.711 -4.153 -3.228 -3.32 -15.0555 -5.2725 -9.0895 -1.756 -7.680501 -4.0965 -4.0555 -1.7695 -2.664 -3.498 0 
-5.7825 -9.51 -6.8605 -7.951 -6.393001 -19.9291 -19.6006 -15.1136 -11.1415 -9.3885 -9.521501 -8.3255 -4.7475 -4.185 -5.1155 -3.498 
-12.33 -11.2365 -11.1439 -11.682 -23.6673 -24.2006 -29.4417 -17.1656 -18.774 -11.3523 -13.8857 -8.849501 -6.349 -5.6315 -5.1155 
-13.9538 -15.7273 -14.8749 -28.9563 -27.9388 -34.0417 -31.4937 -24.7981 -20.7378 -15.7165 -14.4097 -9.543501 -6.4995 -5.6315 
-18.4446 -19.4583 -32.1492 -33.2278 -37.7799 -36.0937 -39.1262 -26.7619 -25.102 -16.2405 -15.1037 -9.576 -6.4995 
-3.321 -2.9805 -4.353 -2.5195 -12.16972 -1.756 -1.4985 -12.16972 -3.5125 -2.742 -2.489 -4.0765 0 
-5.175 -6.2815 -7.2095 -15.36282 -13.92572 -3.0405 -14.76202 -15.68222 -6.352 -3.301 -5.5745 -4.0765 
-8.738501 -9.854501 -20.42102 -17.11882 -15.21022 -16.51382 -18.27452 -18.52172 -6.969 -5.932 -5.5745 
-12.1123 -23.17782 -22.17702 -18.40332 -28.68354 -20.02632 -21.11402 -19.13872 -9.846001 -5.932 
-25.43562 -24.93382 -23.46152 -31.87664 -32.19604 -22.86582 -21.73102 -22.01572 -9.846001 
-2.9805 -2.7415 -5.2725 -2.3345 -3.9725 -7.84 -6.864 -1.756 -4.1 -1.7565 -8.171 -4.0555 -1.7695 -2.664 -3.498 -1.934 -6.557 0 
-4.004 -6.396 -6.321 -6.142 -12.7555 -15.1684 -8.699 -6.0495 -5.164001 -9.535501 -11.046 -4.7475 -4.185 -5.1155 -5.52 -7.536 -6.557 
-7.333001 -6.918 -9.226501 -15.5298 -20.0839 -17.0034 -13.2935 -6.981501 -14.0018 -12.4485 -11.738 -6.349 -5.6315 -6.476501 -11.6626 -7.536 
-7.795001 -9.747001 -18.6603 -22.8582 -21.9189 -21.5979 -14.2255 -16.5211 -16.9148 -13.1405 -13.3395 -6.4995 -6.9255 -13.4071 -11.6626 
-10.7025 -19.1808 -25.9887 -24.6932 -26.5134 -22.5299 -23.7651 -19.4341 -17.6068 -14.742 -13.49 -7.3775 -13.6687 -13.4071 
-1.934 -1.4985 -3.498 -1.7565 -4.711 -4.153 -4.747 0 -2.3345 -1.4985 -5.0595 -1.7565 -10.017 -1.4985 -12.16972 -4.1 -4.0555 -1.7695 -3.498 -1.934 -5.1845 -5.74 
-2.6125 -4.0295 -4.005 -6.964001 -6.8605 -8.8465 -4.546 -2.3345 -3.233 -6.3125 -6.152 -12.7227 -11.5155 -14.76202 -16.26972 -7.953501 -4.7475 -4.8045 -5.52 -6.564 -5.7465 
-5.101 -4.188 -8.747001 -8.8465 -8.878501 -6.706 -7.516 -3.233 -8.059501 -6.4795 -17.8214 -14.2212 -24.77902 -18.86202 -20.12322 -8.503 -8.2075 -6.591001 -10.6906 -6.819 
-6.413 -8.934001 -9.943001 -10.8245 -8.472001 -8.5255 -8.3435 -8.059501 -8.240001 -18.3997 -19.3199 -27.48472 -28.87902 -22.71552 -20.67272 -12.6936 -9.226001 -12.1834 -10.9456 
-11.2532 -10.1345 -11.867 -10.7705 -10.6215 -9.160001 -13.528 -8.240001 -20.2824 -19.8982 -32.58342 -31.58472 -32.73252 -23.26502 -24.86332 -13.7121 -14.8616 -12.4384 
