-4.759 
n/a 
n/a 
n/a 
n/a 
-4.759 
n/a 
n/a 
n/a 
n/a 
-4.759 
n/a 
n/a 
n/a 
n/a 
-4.759 
n/a 
n/a 
n/a 
n/a 
-4.1105 -3.97 -4.7365 0 -3.8475 -4.7365 0 -8.8175 -4.7365 -3.383 -4.052 -1.756 -3.2345 -1.4985 -3.515 -4.231 -1.7565 -7.192 0 -7.719 0 -10.8075 -1.756 -10.914 0 
-9.0235 -9.112501 -4.7365 -3.8475 -9.040501 -4.7365 -8.8175 -13.792 -8.288501 -9.663501 -5.8645 -4.5715 -4.328 -4.5415 -6.1425 -5.486501 -9.779501 -7.192 -7.719 -7.719 -10.8075 -12.9829 -13.6786 -10.914 
-14.4338 -9.112501 -8.953001 -9.040501 -9.040501 -14.4052 -13.792 -17.344 -14.8486 -11.476 -8.0765 -5.7075 -6.945 -7.47 -8.384501 -14.4421 -9.779501 -15.4804 -7.719 -19.1835 -12.9829 -24.9055 -13.6786 
-14.4338 -13.4862 -10.46 -9.040501 -18.824 -19.3797 -17.344 -23.9041 -16.6611 -13.688 -9.023001 -8.542 -10.3277 -8.915501 -17.3679 -14.4421 -18.0679 -15.4804 -19.1835 -21.3589 -24.9055 -24.9055 
-18.8075 -14.9932 -10.46 -18.824 -23.7985 -22.9317 -23.9041 -25.7166 -18.8731 -14.6345 -10.647 -12.1015 -11.7732 -18.1909 -17.3679 -22.7305 -18.0679 -26.9449 -21.3589 -33.2815 -24.9055 
-1.934 -4.8275 -3.9655 0 -3.8565 -1.756 -3.564 -3.3715 -6.933001 -1.7695 -6.7465 -6.0205 -4.359 -7.192 -9.4755 -12.16972 -1.7695 -2.489 -1.4985 -3.8385 
-7.2125 -9.054501 -3.9655 -3.8565 -5.0205 -4.562 -8.7075 -11.1415 -9.371 -9.8535 -13.5555 -10.985 -12.6674 -17.2369 -22.60082 -13.93922 -3.1405 -3.9675 -4.778501 
-12.0361 -9.054501 -6.1215 -5.0205 -5.512 -9.4925 -16.6283 -13.5795 -17.2676 -17.039 -18.99 -19.2934 -22.7123 -30.36222 -24.37032 -15.31022 -4.568 -7.08 
-12.0361 -11.7151 -6.4165 -5.512 -10.172 -17.5403 -19.0663 -21.4761 -24.5773 -21.9217 -27.2984 -29.3383 -35.83762 -32.13172 -25.74132 -16.73772 -7.379 
-14.6967 -12.0101 -6.779 -10.172 -18.6542 -19.9783 -26.9629 -28.7858 -29.5418 -30.2301 -37.3433 -42.46362 -37.60712 -33.50272 -27.16882 -19.54872 
-5.347 -7.719 -1.756 -5.27 -6.8855 -4.3465 -4.132 -1.7695 -1.8085 -2.688 -4.2995 -2.3335 -5.192 -2.0935 -3.5485 -4.443 -4.221 -3.2895 -5.2165 0 -5.2975 -1.756 -5.269 
-14.0304 -9.146501 -6.788 -6.990001 -9.981001 -8.690001 -6.0745 -3.41 -3.642 -6.919001 -6.139 -7.06 -6.165501 -4.787 -6.1685 -8.437 -6.037 -9.265501 -5.2165 -5.2975 -6.344 -6.14 
-15.4579 -14.3771 -8.407001 -10.4265 -14.5621 -8.957001 -7.7375 -5.101 -7.311 -8.319 -9.0505 -7.939 -8.3535 -7.566 -9.856501 -9.061501 -10.575 -9.265501 -7.856501 -6.344 -6.942 
-20.6885 -15.9961 -12.0293 -15.0076 -14.8291 -10.1275 -8.9565 -9.029 -8.432 -11.6599 -9.6365 -10.071 -12.2975 -10.6345 -10.3445 -13.8629 -10.575 -11.9179 -8.111501 -6.942 
-22.3075 -19.6184 -16.6104 -15.2746 -15.9996 -11.5149 -13.2651 -9.896001 -11.8747 -12.2459 -11.7301 -14.023 -15.366 -11.1225 -15.1459 -13.8629 -13.2274 -12.1729 -8.468 
-2.264 -3.3715 -1.7565 -3.1495 -3.8025 -2.9805 -5.884 0 -2.6165 -3.757 -5.968 0 -2.356 -4.3285 -6.5795 -4.15 -4.2855 -4.863 -2.5045 -1.8085 -3.777 -1.7565 -2.3615 -2.688 -3.912 0 -6.496 -4.3465 -2.925 -3.951 -4.4605 -2.0935 -1.4985 -3.237 -4.9465 -2.0935 -1.8085 -4.6915 -6.496 -3.882 -4.1585 -5.826 -2.3335 -2.9805 -3.251 -3.43 -3.689 -3.1575 -3.2495 -4.674 -4.6995 -2.264 -2.5685 -3.091 -4.4605 -3.894 0 
-5.394 -4.3215 -3.914 -5.819 -6.635 -7.242001 -5.884 -2.6165 -5.0585 -9.322001 -5.968 -2.356 -6.875 -9.904001 -7.4765 -8.675501 -7.772 -6.818501 -3.3625 -4.3955 -4.411 -3.523 -4.8535 -6.0055 -3.912 -6.496 -9.826 -5.5955 -6.931 -7.7075 -6.257 -2.9725 -4.1875 -8.765 -6.858 -3.385 -5.2105 -11.0465 -10.2985 -6.886001 -9.4995 -8.917 -4.1515 -4.429 -5.49 -6.842 -4.168 -5.224 -5.728 -6.55 -6.726501 -4.5375 -5.3505 -6.934 -7.1415 -3.894 
-6.3555 -5.307 -6.411 -8.481501 -9.687 -7.242001 -9.352 -5.0585 -9.561501 -9.322001 -7.400001 -6.875 -12.8611 -9.974001 -10.6335 -12.3228 -9.012 -6.937001 -4.4445 -4.6235 -5.6815 -5.8685 -8.258 -6.0055 -10.6605 -9.826 -11.3586 -8.583 -9.824 -8.8135 -6.9255 -5.5855 -9.547501 -10.523 -8.2285 -6.4025 -12.0359 -14.849 -13.3025 -12.346 -9.917 -10.1435 -5.2495 -6.356501 -9.135 -7.18 -5.8685 -6.810501 -7.514 -8.403501 -9.0965 -7.3535 -8.6805 -10.459 -7.1415 
-7.330501 -7.5055 -9.062 -11.5961 -9.687 -11.1414 -12.5552 -9.561501 -9.561501 -10.7185 -12.4218 -12.8611 -12.9311 -13.131 -14.2808 -13.5628 -9.051001 -7.1485 -4.6725 -5.863 -7.7895 -9.6005 -8.258 -13.4036 -13.9905 -11.3586 -14.3461 -10.75 -11.0246 -9.444501 -9.59 -10.564 -11.3323 -11.8935 -11.7184 -13.2993 -15.8384 -17.853 -18.7625 -12.7635 -11.2819 -11.2415 -7.009501 -10.243 -9.5895 -8.684501 -7.52 -9.058001 -9.408 -9.611 -12.2483 -10.9675 -12.2931 -10.459 
-9.22 -10.316 -12.1566 -11.5961 -13.8086 -14.3446 -17.0582 -9.561501 -10.7515 -15.7403 -18.4079 -12.9311 -16.0881 -16.7783 -15.5208 -13.6018 -9.1875 -7.199 -5.8735 -7.9065 -11.8023 -9.6005 -15.9749 -16.7336 -15.5231 -14.3461 -16.5131 -11.9506 -11.6556 -10.759 -14.6937 -12.3488 -12.7028 -15.3834 -18.6152 -17.1018 -18.8424 -23.313 -19.18 -14.1284 -12.3799 -13.0015 -11.074 -10.5945 -11.2586 -10.586 -9.613501 -11.0382 -10.3485 -13.4382 -15.8623 -14.5801 -12.2931 
