-4.759 
n/a 
n/a 
n/a 
n/a 
-4.759 
n/a 
n/a 
n/a 
n/a 
-4.759 
n/a 
n/a 
n/a 
n/a 
-4.759 
n/a 
n/a 
n/a 
n/a 
-5.2545 -4.3195 -1.4985 -3.6825 -2.229 -6.7955 -2.264 -3.2785 -3.5315 0 -5.072 -1.4985 -3.8235 -6.7955 -2.186 -3.0835 -4.4895 -1.756 -5.2545 -2.7415 -3.849 -2.3345 -2.3335 -3.098 0 
-8.144501 -5.1515 -4.87 -5.3925 -9.011001 -9.967001 -5.7445 -5.910501 -3.5315 -5.072 -6.811 -4.53 -10.9075 -9.425501 -5.597 -6.178 -6.152 -6.928 -6.742001 -5.431 -5.722 -5.2215 -5.889 -3.098 
-9.0635 -8.2345 -5.973001 -13.1443 -12.3761 -13.7235 -7.2005 -5.910501 -7.686501 -6.811 -10.1465 -11.7668 -13.5375 -12.9995 -7.775001 -7.969501 -12.1716 -8.445001 -10.0885 -6.9835 -8.0045 -6.858 -5.889 
-10.5135 -8.636001 -14.0618 -16.5094 -16.1326 -15.1795 -7.2005 -9.415501 -8.942 -10.1465 -17.5881 -14.3968 -17.1115 -15.1775 -9.130501 -14.3377 -13.6886 -11.8419 -11.6934 -9.2325 -8.185 -6.858 
-10.6025 -17.1756 -17.4269 -20.2659 -17.5886 -15.1795 -9.896001 -10.436 -12.3623 -17.5881 -20.2181 -17.9708 -19.2895 -16.533 -15.7335 -15.8547 -17.0855 -13.4468 -13.9424 -9.386001 -8.185 
-3.2785 -3.5315 0 -5.072 -5.2545 -2.7415 -4.281 -1.4985 -6.719 -1.7565 -3.091 -3.6825 0 -4.021 -3.2615 -1.4985 -3.788 -2.7415 -3.0835 -4.4895 0 
-5.910501 -3.5315 -5.072 -9.573 -6.742001 -5.383 -5.602 -7.521001 -8.545501 -4.0655 -6.0125 -3.6825 -4.021 -5.5055 -4.032 -4.6805 -6.427 -5.276 -6.178 -4.4895 
-5.910501 -7.686501 -9.573 -10.124 -9.3815 -6.2085 -11.9427 -9.161501 -11.4375 -6.872 -6.0125 -7.8205 -5.5055 -6.147501 -7.3415 -6.872001 -7.8575 -6.536 -6.178 
-9.415501 -10.4675 -10.124 -12.9257 -10.7862 -13.0322 -13.5832 -12.1813 -14.244 -6.872 -9.822001 -8.802 -6.147501 -9.887001 -9.289001 -7.954 -9.174001 -6.536 
-12.3101 -11.0185 -12.9257 -14.3304 -17.6099 -14.6727 -16.603 -14.9878 -14.244 -10.7025 -10.536 -9.48 -9.887001 -11.8345 -10.2085 -9.347501 -9.174001 
-1.934 -4.97 -8.6035 -3.6825 -2.7415 -3.849 -2.5045 -6.719 -3.0835 
-7.9835 -11.1365 -11.998 -6.0635 -5.431 -6.305 -9.232 -10.304 
-13.596 -15.1736 -15.1594 -8.716001 -7.509501 -13.1361 -12.9604 
-18.4543 -17.9584 -17.8119 -10.9267 -14.8284 -16.8645 
-21.2391 -20.6109 -20.0226 -18.2456 -18.5568 
-2.264 -4.97 -3.5315 0 -5.072 -5.2545 -3.0835 -4.752 -1.4985 -3.8235 -6.778 -1.756 -2.9805 -3.985 -1.7695 -3.5395 -3.595 -2.5045 -1.8085 -6.778 0 
-6.797501 -6.981501 -3.5315 -5.072 -9.573 -8.518001 -7.360001 -5.671 -4.53 -10.2135 -8.552501 -4.3555 -5.5375 -4.877 -4.7845 -5.861 -5.227 -3.3625 -7.791 -6.778 
-8.031501 -6.981501 -7.686501 -9.573 -13.0415 -13.1587 -7.815001 -8.502001 -10.513 -12.1672 -10.115 -6.794001 -7.225 -6.9975 -6.5245 -8.1125 -5.826 -10.586 -7.791 
-8.031501 -10.4855 -10.4675 -13.0415 -17.6822 -13.6137 -10.8082 -14.5332 -12.7615 -13.7297 -12.9151 -8.476501 -9.6855 -9.323501 -8.382 -8.451 -13.5729 -10.586 
-11.7573 -13.2665 -13.936 -17.6822 -18.1372 -16.6069 -16.8394 -16.7817 -14.324 -16.5298 -14.5976 -11.097 -12.2503 -11.4028 -8.585 -17.1289 -13.5729 
