-4.759 
n/a 
n/a 
n/a 
n/a 
-4.759 
n/a 
n/a 
n/a 
n/a 
-4.759 
n/a 
n/a 
n/a 
n/a 
-4.759 
n/a 
n/a 
n/a 
n/a 
-12.16972 -3.0835 -3.8235 0 
-15.25322 -6.22 -3.8235 
-18.38972 -6.22 
-18.38972 
n/a 
-1.4985 -3.0835 -4.7285 -1.7565 -8.940001 0 
-3.535 -6.042 -5.8525 -10.884 -8.940001 
-6.335501 -6.666 -16.1234 -10.884 
-6.711501 -17.7095 -16.1234 
-17.9416 -17.7095 
-6.0755 -8.678 -3.0835 -4.7285 0 
-9.6175 -12.1763 -6.042 -4.7285 
-13.3368 -15.1348 -6.042 
-16.2953 -15.1348 
-16.2953 
-3.0835 -4.7285 -1.934 -1.4985 -6.0755 -5.9885 
-6.042 -6.146501 -2.6125 -7.142 -6.37 
-7.3485 -6.745501 -8.402 -7.2565 
-7.797501 -13.0418 -8.507 
-14.3376 -13.1468 
