-4.759 
n/a 
n/a 
n/a 
n/a 
-4.759 
n/a 
n/a 
n/a 
n/a 
-4.759 
n/a 
n/a 
n/a 
n/a 
-4.759 
n/a 
n/a 
n/a 
n/a 
-6.1875 -1.7565 -3.013 -2.186 -4.0275 -2.985 -4.0275 -2.985 -4.0275 -2.985 
-8.2925 -5.4985 -7.0585 -6.3915 -7.3075 -7.7565 -7.3075 -7.7565 -7.3075 
-12.5011 -9.254001 -11.7616 -10.016 -8.2705 -8.6645 -8.2705 -8.6645 
-16.2566 -13.9933 -15.3861 -10.652 -8.8275 -9.1055 -8.8275 
-20.9959 -17.6178 -16.0221 -10.674 -9.146501 -9.1305 
-1.4985 -7.159 -1.7565 0 -3.013 0 
-8.0775 -7.8865 -1.7565 -3.013 -3.013 
-8.4715 -7.8865 -5.4985 -3.013 
-8.4715 -11.9151 -5.4985 
-12.6347 -11.9151 
-3.013 0 0 -3.013 0 -2.186 -3.1435 -3.8235 0 
-3.013 0 -3.013 -3.013 -2.186 -5.462 -7.203 -3.8235 
-3.013 -3.013 -3.013 -7.0585 -5.462 -9.109501 -7.203 
-5.977 -3.013 -7.0585 -10.007 -9.109501 -9.109501 
-5.977 -7.0585 -10.007 -13.7169 -9.109501 
-3.013 
n/a 
n/a 
n/a 
n/a 
