-4.759 
n/a 
n/a 
n/a 
n/a 
-4.759 
n/a 
n/a 
n/a 
n/a 
-4.759 
n/a 
n/a 
n/a 
n/a 
-4.759 
n/a 
n/a 
n/a 
n/a 
-1.4985 -3.7805 -4.828 -5.2635 -1.934 -4.6985 -3.4945 -2.9995 -4.896 
-4.8195 -7.0715 -9.055 -6.82 -7.228 -7.6585 -4.9185 -8.314 
-8.040501 -10.3815 -10.404 -12.6894 -10.459 -8.8625 -10.6842 
-11.5781 -11.7305 -16.2734 -15.9204 -11.663 -14.8036 
-12.9271 -17.5999 -19.5044 -17.1244 -17.6041 
-4.1625 -2.229 -4.0225 -2.9905 -2.5195 -2.3615 -3.5015 -2.7765 -3.5285 -3.6215 -1.4985 -4.392 -3.4945 -2.9995 -3.6885 
-5.97 -5.572001 -5.2715 -5.134 -4.4095 -5.2225 -6.6635 -6.1745 -6.383 -4.094 -5.0065 -7.818 -4.9185 -5.9375 
-9.465 -6.836 -7.089 -7.199 -6.9535 -7.726 -10.6215 -8.049001 -6.638 -7.906001 -8.099001 -8.959001 -6.834 
-9.7095 -8.813001 -8.9725 -8.548 -9.772 -12.0428 -12.496 -8.2925 -10.749 -10.5325 -9.235001 -11.0071 
-12.3755 -10.6885 -10.4097 -11.6573 -14.1068 -13.9173 -12.7395 -12.5443 -13.3755 -11.6685 -11.3157 
-1.934 -2.3615 -3.9035 -4.4685 -1.4985 -3.7805 -3.638 -2.847 -4.116 -1.4985 -4.171 -1.7695 -2.489 -4.289 
-3.539 -7.6165 -9.048 -5.3615 -4.8195 -6.7205 -7.127501 -6.8065 -5.298 -5.3425 -4.934 -3.1405 -5.9645 
-8.908501 -13.1318 -9.9405 -9.085501 -7.7475 -9.940001 -10.7175 -8.993 -8.93 -6.2895 -7.6085 -6.381001 
-14.8074 -14.0243 -13.6645 -10.718 -11.3238 -13.7542 -12.904 -12.6522 -10.281 -8.337 -9.9665 
-15.6999 -17.7483 -15.297 -14.2943 -15.138 -15.9407 -16.5632 -14.0032 -12.3285 -10.7015 
-3.1495 -4.983 -2.4945 -4.236 -6.1115 
-7.6815 -6.5395 -5.7585 -8.2275 
-8.482 -9.734 -9.355 
-11.7809 -13.4289 
-15.4758 
