-4.759 
n/a 
n/a 
n/a 
n/a 
-4.759 
n/a 
n/a 
n/a 
n/a 
-4.759 
n/a 
n/a 
n/a 
n/a 
-4.759 
n/a 
n/a 
n/a 
n/a 
-3.074 -1.4985 -5.009 -1.7565 -3.288 -3.0105 
-4.6505 -6.4265 -5.818501 -5.228 -4.8175 
-9.790501 -7.176501 -9.998 -7.127501 
-10.252 -10.185 -11.8975 
-13.2605 -12.0845 
-3.135 -2.8965 -5.009 -1.934 -3.288 -3.0105 
-4.9085 -6.984 -6.2945 -4.9715 -4.8175 
-9.043 -8.184 -9.240001 -6.3805 
-10.093 -11.3957 -10.6225 
-13.3811 -12.7782 
-2.0935 -3.818 -3.288 -3.0105 -3.371 
-4.7185 -8.6835 -4.8175 -6.7135 
-10.4765 -10.4352 -8.996 
-12.5386 -14.6137 
-16.7171 
-3.288 -3.0105 -4.106 
-4.8175 -7.642501 
-9.574 
n/a 
n/a 
