-4.759 
n/a 
n/a 
n/a 
n/a 
-4.759 
n/a 
n/a 
n/a 
n/a 
-4.759 
n/a 
n/a 
n/a 
n/a 
-4.759 
n/a 
n/a 
n/a 
n/a 
-2.664 -3.1725 -3.367 -4.6805 -1.7565 -3.2495 -4.1255 0 
-4.6845 -5.495501 -7.5005 -4.722 -4.5605 -6.175 -4.1255 
-6.1355 -10.0285 -7.514 -5.952 -7.055 -6.175 
-10.2695 -10.1015 -8.9685 -7.4565 -7.055 
-10.3765 -11.4856 -10.368 -7.4565 
-6.143001 -2.8645 -3.2495 -3.355 
-6.667 -5.3035 -5.872 
-9.451 -8.756001 
-13.7234 
n/a 
-2.7275 -5.007 -2.186 -3.2495 -4.2775 -3.9035 
-5.116 -7.498501 -5.841001 -5.6285 -6.9215 
-7.653501 -11.4911 -8.289001 -7.816 
-11.7071 -13.9391 -10.523 
-14.1551 -16.1731 
-4.617 -2.4945 -3.2495 -3.9035 0 
-6.422 -4.891 -5.7605 -3.9035 
-10.361 -7.2 -5.7605 
-12.67 -7.2 
-12.67 
