-4.759 
n/a 
n/a 
n/a 
n/a 
-4.759 
n/a 
n/a 
n/a 
n/a 
-4.759 
n/a 
n/a 
n/a 
n/a 
-4.759 
n/a 
n/a 
n/a 
n/a 
-3.8735 -2.229 -4.282 -3.3435 0 
-5.3655 -6.068501 -6.3725 -3.3435 
-8.9055 -8.198501 -6.3725 
-10.419 -8.198501 
-10.419 
-3.8735 -2.229 -5.289 -1.756 -6.037 -4.6555 0 
-5.3655 -7.2345 -7.1015 -7.367 -11.1415 -4.6555 
-11.3928 -9.485001 -7.719 -12.7111 -11.1415 
-13.6433 -10.148 -13.7197 -12.7111 
-14.3063 -16.1487 -13.7197 
-3.8735 -2.229 -4.2335 -1.756 -4.141 -3.47 
-5.3655 -6.9215 -5.316 -5.6005 -6.9705 
-10.31 -7.5385 -7.8435 -8.1465 
-10.927 -9.611 -10.089 
-12.9995 -12.6727 
-4.2335 -1.756 -4.2225 -1.934 -3.8735 
-5.316 -5.5795 -5.681 -4.885 
-5.969 -6.983 -8.436501 
-7.316 -10.1805 
-10.8539 
