-4.759 
n/a 
n/a 
n/a 
n/a 
-4.759 
n/a 
n/a 
n/a 
n/a 
-4.759 
n/a 
n/a 
n/a 
n/a 
-4.759 
n/a 
n/a 
n/a 
n/a 
-3.0575 -3.277 -3.5905 -4.042 -5.671 -2.3345 -4.744 
-5.4945 -4.7035 -5.712501 -7.3835 -6.5375 -6.856501 
-6.4425 -7.488501 -8.021501 -8.3105 -8.485001 
-8.738 -10.1643 -9.028 -10.218 
-11.6204 -11.1708 -11.3769 
-3.0575 -3.158 -3.5905 -4.042 -2.7415 -5.671 -2.3345 -1.4985 -4.628 -5.939 -4.795 
-5.77 -4.382 -5.712501 -6.1905 -6.689 -6.5375 -3.233 -6.298 -5.9615 -8.2025 
-5.9165 -5.7755 -7.202001 -8.175501 -7.313 -7.612501 -7.4645 -6.5895 -8.223001 
-6.786 -7.2415 -8.6665 -8.742001 -8.559 -10.1945 -7.686 -9.399001 
-8.181001 -8.682501 -9.205001 -9.740001 -11.2584 -10.2305 -10.388 
-3.0575 -3.158 -4.042 -5.671 -2.3345 -1.4985 -9.621 -6.8125 
-5.77 -7.638 -7.3835 -6.5375 -3.233 -10.648 -17.3494 
-8.769501 -10.322 -8.3105 -7.612501 -12.9345 -19.1583 
-11.8737 -11.249 -10.1945 -17.6264 -21.0948 
-12.8007 -13.133 -20.372 -25.7867 
-3.0575 -3.158 -3.5905 -4.042 -2.7415 -6.673501 -2.3345 -4.628 -5.939 -4.257 
-5.77 -4.382 -5.712501 -6.1905 -8.634001 -8.089001 -6.797 -5.9615 -7.556 
-5.9165 -5.7755 -7.202001 -10.647 -9.299001 -13.0299 -7.905 -7.575 
-6.786 -7.2415 -12.2025 -11.312 -14.5631 -14.1379 -9.126 
-8.181001 -12.2742 -12.8675 -16.5761 -15.6711 -15.3589 
