-4.759 
n/a 
n/a 
n/a 
n/a 
-4.759 
n/a 
n/a 
n/a 
n/a 
-4.759 
n/a 
n/a 
n/a 
n/a 
-4.759 
n/a 
n/a 
n/a 
n/a 
-6.0355 -3.4075 -4.1575 -4.1965 -3.594 
-9.8245 -7.187 -9.521501 -8.6155 
-14.0072 -13.6168 -14.0593 
-20.437 -18.1546 
-24.9748 
-8.054001 -3.4075 -4.1745 -5.108 
-11.1395 -6.337501 -9.1325 
-14.564 -11.9715 
-20.9389 
n/a 
-8.054001 -3.38 -4.1575 -3.127 -2.915 
-11.591 -7.011001 -7.2735 -6.1405 
-14.276 -10.4425 -11.0668 
-18.6691 -14.2358 
-22.4624 
-3.759 -1.7565 -5.593 -2.7455 -6.0355 -3.4075 -4.1575 0 
-4.5295 -7.629001 -6.681001 -8.883 -9.8245 -7.187 -4.1575 
-9.411 -8.513 -13.1579 -13.2192 -14.0072 -7.187 
-10.703 -15.1761 -17.4941 -17.4019 -14.0072 
-17.3661 -19.5123 -21.6768 -17.4019 
