-4.759 
n/a 
n/a 
n/a 
n/a 
-4.759 
n/a 
n/a 
n/a 
n/a 
-4.759 
n/a 
n/a 
n/a 
n/a 
-4.759 
n/a 
n/a 
n/a 
n/a 
-4.54 -3.8275 -1.7565 -1.4985 -3.188 -6.4735 
-8.501501 -5.4695 -2.4195 -3.619 -9.513 
-11.3237 -5.941 -4.4095 -9.967001 
-11.7952 -7.747 -11.0503 
-13.6012 -14.7982 
-3.188 -6.4735 -3.864 -3.8275 
-9.513 -11.3059 -8.141001 
-14.4382 -15.5829 
-18.7152 
n/a 
-3.188 -5.1845 -3.1385 -5.582 -1.7695 -4.319 -1.934 -3.401 -3.3755 
-8.0565 -7.4095 -8.561501 -6.025 -4.9595 -6.011 -5.913 -5.6705 
-11.0213 -13.2089 -8.861001 -8.094501 -6.602 -10.3285 -8.302501 
-16.8207 -13.5084 -11.1531 -10.2085 -11.3701 -12.718 
-17.1202 -15.8005 -13.2671 -14.9552 -13.7596 
-5.149 -2.0935 -1.7565 -3.188 -5.1845 
-7.8925 -5.71 -5.13 -8.0565 
-12.0562 -9.603001 -10.27 
-15.9492 -15.4358 
-21.782 
