-4.759 
n/a 
n/a 
n/a 
n/a 
-4.759 
n/a 
n/a 
n/a 
n/a 
-4.759 
n/a 
n/a 
n/a 
n/a 
-4.759 
n/a 
n/a 
n/a 
n/a 
-3.6085 -4.278 -4.347 -3.748 0 -3.0465 -1.934 -4.278 -2.0935 -4.1805 0 
-6.738 -9.834001 -7.2955 -3.748 -3.0465 -4.8825 -6.2645 -6.72 -5.835 -4.1805 
-12.872 -12.7825 -7.2955 -7.6745 -4.8825 -10.2755 -8.545501 -11.2147 -5.835 
-15.8205 -12.7825 -11.8458 -10.199 -10.2755 -12.7243 -13.2548 -11.2147 
-15.8205 -17.3328 -14.3703 -15.592 -12.7243 -17.4336 -13.2548 
-4.4775 -3.6085 -4.278 -2.9705 -2.186 -3.325 -1.4985 -9.156 -1.7565 -3.6085 -4.0935 -4.3435 -3.748 0 -4.098 -4.278 -7.135 
-7.9595 -6.738 -7.598001 -3.89 -5.2405 -3.898 -10.31 -10.504 -5.2885 -7.581 -7.3815 -7.923 -3.748 -4.098 -9.967001 -12.6756 
-11.4862 -9.322001 -8.187 -6.778 -6.0125 -13.4171 -11.658 -14.036 -9.6635 -11.702 -9.9055 -7.923 -9.3205 -9.967001 -18.4378 
-14.0702 -9.919001 -11.4326 -7.288501 -16.0416 -14.7651 -15.19 -18.411 -13.8301 -14.226 -9.9055 -14.4519 -15.2813 -18.4378 
-14.6672 -13.2612 -11.9431 -17.3882 -17.3896 -18.2971 -19.565 -22.5776 -16.3541 -14.226 -17.4526 -20.4127 -23.7521 
-3.9345 -1.7695 -5.3065 -4.0995 -3.64 0 0 -3.6085 -4.571 0 0 -4.347 -3.748 0 -1.7565 -1.4985 -4.278 -2.229 -3.5085 -3.9515 -4.1555 -3.325 -1.4985 -5.5195 -1.7565 -3.6085 0 
-3.94 -7.393001 -9.755501 -6.761001 -3.64 0 -3.6085 -6.817 -4.571 0 -4.347 -7.2955 -3.748 -1.7565 -2.4195 -6.1565 -6.414001 -5.5445 -7.0275 -7.559 -6.5205 -3.898 -6.842 -6.442 -5.2885 -3.6085 
-7.693501 -12.2568 -13.371 -6.761001 -3.64 -3.6085 -6.817 -6.817 -4.571 -4.347 -7.2955 -7.2955 -6.1335 -2.4195 -7.375 -8.5145 -10.0065 -8.4715 -11.27 -10.5035 -6.873001 -7.817 -6.9825 -9.288 -5.2885 
-13.0007 -15.8723 -13.371 -6.761001 -7.7325 -6.817 -6.817 -6.817 -10.075 -7.2955 -7.2955 -8.217 -6.7105 -7.375 -9.691501 -12.4092 -10.1005 -13.1486 -14.2145 -10.856 -11.6262 -7.842 -9.606 -9.288 
-16.6162 -15.8723 -13.371 -9.673 -11.4198 -6.817 -6.817 -14.3486 -13.0235 -7.2955 -8.217 -8.5725 -12.124 -9.691501 -13.5862 -12.5032 -15.5108 -16.0931 -14.567 -15.6092 -11.6512 -10.7431 -9.606 
-2.872 -5.731 -2.882 -2.674 -2.664 -4.8025 -2.6165 -1.7695 -4.2215 -2.264 -4.0005 -4.7505 0 -3.2775 -2.5045 -2.8965 -3.1385 -2.229 -3.672 -3.635 0 -1.7695 -2.9705 -3.45 -2.8965 -3.1385 -2.674 -1.8085 -3.9845 -3.401 -3.0415 -1.8085 -3.6765 -2.229 -4.631 -3.401 -1.7565 -4.493 -4.851 -5.1165 -1.7695 -1.4985 -3.602 -3.3155 -3.571 -2.229 -3.9845 -3.401 -4.4785 -3.091 -2.4285 -3.332 -4.248 0 
-8.679501 -8.052501 -4.2995 -4.343 -5.8255 -7.2095 -4.153 -5.215 -5.714001 -5.688001 -6.561 -4.7505 -3.2775 -3.678 -5.2835 -4.8735 -4.6125 -5.797 -5.8025 -3.635 -1.7695 -4.56 -6.333 -5.919 -4.8735 -4.8995 -3.63 -5.2165 -7.8105 -5.9895 -5.4025 -4.452 -4.9715 -6.728 -8.239 -4.859 -6.075 -10.543 -10.151 -6.719501 -2.7955 -4.593 -5.431 -6.9475 -5.896 -5.789001 -7.8105 -7.89 -7.465501 -4.9215 -4.844501 -7.104501 -4.248 
-10.459 -9.442 -6.0565 -6.507 -7.7935 -7.403 -7.4575 -6.535501 -9.594501 -8.571501 -6.561 -7.613501 -3.678 -7.1715 -7.123 -5.685 -7.7005 -7.779 -5.8025 -5.438 -4.56 -7.211501 -8.9905 -7.5505 -6.469 -6.1725 -6.9575 -8.787001 -10.564 -8.2325 -7.5155 -5.5075 -8.231501 -10.016 -9.626 -9.938001 -12.494 -15.843 -10.6165 -7.369 -5.2115 -5.6035 -8.935 -9.123501 -9.503 -9.606501 -12.9665 -11.5916 -8.623001 -4.929 -8.313001 -7.104501 
-11.8485 -11.3306 -8.4195 -8.429501 -7.9745 -10.76 -8.5495 -10.028 -12.6148 -8.571501 -10.1345 -7.725 -7.1715 -8.9025 -8.2295 -8.539001 -9.007501 -7.779 -7.553 -6.682 -7.211501 -10.167 -10.3965 -9.386001 -8.109501 -9.546 -10.142 -11.6669 -12.807 -10.4505 -8.823 -8.446501 -12.0731 -11.498 -14.8684 -16.357 -17.794 -16.3085 -11.266 -9.086 -5.8 -9.190001 -11.1634 -13.1003 -13.4059 -14.9951 -16.6681 -12.7491 -8.632001 -8.3345 -8.313001 
-13.7371 -13.6936 -10.5354 -8.593 -11.4333 -11.852 -12.292 -13.0483 -12.6148 -10.6735 -10.3225 -11.5471 -8.9025 -9.397501 -11.2411 -9.496 -9.007501 -9.476 -9.362 -9.989 -10.167 -11.573 -12.232 -10.635 -10.028 -13.1409 -13.1795 -13.9099 -15.025 -11.758 -11.8956 -12.3603 -13.5551 -16.7404 -21.2874 -21.657 -18.2595 -16.958 -12.983 -10.341 -9.386001 -11.442 -15.1402 -17.0032 -18.7945 -18.6967 -17.8256 -12.7581 -10.248 -8.3345 
