-4.759 
n/a 
n/a 
n/a 
n/a 
-4.759 
n/a 
n/a 
n/a 
n/a 
-4.759 
n/a 
n/a 
n/a 
n/a 
-4.759 
n/a 
n/a 
n/a 
n/a 
-4.4175 -4.642 -4.153 -8.2205 -2.229 -3.84 -3.152 -3.9535 0 
-8.505501 -6.7015 -13.2561 -10.575 -5.8455 -6.3765 -6.693501 -3.9535 
-9.1805 -16.5282 -15.6106 -14.1915 -8.4305 -10.6465 -6.693501 
-20.05 -18.8827 -19.2271 -16.7765 -12.7195 -10.6465 
-22.4045 -22.4992 -21.8121 -21.0655 -12.7195 
-1.4985 -2.95 -3.8405 -1.7565 -8.013 -2.229 -4.642 -4.153 0 
-3.9285 -5.133 -4.563 -10.051 -9.321001 -6.512 -6.7015 -4.153 
-5.974 -6.517 -14.0187 -10.3465 -14.1972 -9.408501 -6.7015 
-7.02 -16.2853 -14.3142 -16.1933 -17.0937 -9.408501 
-16.9145 -16.5808 -20.161 -19.0898 -17.0937 
-2.4265 -2.186 -3.264 -2.3335 -9.675501 -2.229 -3.8405 -3.9535 -3.436 -2.7035 -4.184 -4.153 -4.179 
-3.292 -5.316 -4.533 -13.1998 -12.0513 -6.798501 -7.635 -6.7875 -6.629 -5.818 -5.8855 -8.746 
-5.862 -6.1675 -15.8137 -15.5756 -16.6208 -10.3675 -9.696 -9.384501 -8.9825 -7.965 -10.3475 
-6.1755 -17.5636 -18.1895 -20.1451 -20.1898 -12.4285 -12.5588 -12.121 -11.8513 -12.8118 
-17.576 -19.9394 -22.759 -23.7141 -22.2508 -15.2913 -15.2953 -14.9898 -16.6981 
-1.4985 -3.8405 -1.7565 -6.7865 -4.0965 -2.186 -3.9535 -3.436 -2.5045 -5.804 -4.642 -4.153 0 
-4.7545 -4.563 -9.274 -9.314501 -6.4115 -5.962501 -6.7875 -6.5775 -7.374001 -9.2235 -6.7015 -4.153 
-5.365 -13.2417 -10.299 -11.6927 -10.6494 -7.9965 -10.287 -11.9295 -12.775 -10.7365 -6.7015 
-14.0869 -14.2667 -12.6772 -15.9306 -12.6834 -11.8884 -15.639 -17.2882 -13.4902 -10.0325 
-15.1119 -16.6449 -16.9151 -17.9646 -16.5753 -17.2404 -20.9977 -17.9002 -13.4902 
