-4.759 
n/a 
n/a 
n/a 
n/a 
-4.759 
n/a 
n/a 
n/a 
n/a 
-4.759 
n/a 
n/a 
n/a 
n/a 
-4.759 
n/a 
n/a 
n/a 
n/a 
-5.3885 -2.8645 -1.4985 -3.54 -6.0315 -1.7565 -1.4985 -4.1865 -2.229 -4.698 
-8.1125 -4.3545 -4.529 -8.9025 -6.9045 -2.4195 -5.177 -7.0995 -6.5705 
-9.597 -7.8615 -9.475 -9.981001 -7.2205 -5.9285 -7.653501 -11.7788 
-13.2144 -13.0121 -10.0795 -10.3834 -11.6651 -8.539001 -12.473 
-18.365 -13.6166 -10.5019 -14.828 -14.2756 -13.4241 
-3.54 -5.133 -5.563 -1.7565 -3.8735 -2.4945 -3.0365 -1.934 -5.3885 
-8.453 -7.313001 -6.8125 -5.112 -6.502501 -4.952001 -5.238 -6.4035 
-11.1558 -8.4475 -10.533 -7.5445 -8.882 -6.545001 -10.0155 
-12.2903 -12.3176 -12.9655 -10.3605 -10.8146 -11.6181 
-16.1604 -14.7501 -15.7815 -12.3595 -15.8877 
-5.3885 -2.8645 -3.54 -4.698 -5.563 
-8.1125 -5.672 -9.5635 -7.555501 
-10.4425 -12.0865 -12.558 
-17.2406 -15.081 
-20.2351 
-1.934 -4.1865 -4.698 -2.674 -2.461 -4.66 -2.0935 -5.3885 0 
-5.967 -7.3905 -7.321501 -5.8425 -6.855 -6.24 -7.7675 -5.3885 
-8.9335 -9.956 -10.6215 -9.1765 -8.9025 -12.5364 -7.7675 
-11.6024 -13.4178 -14.8477 -11.5728 -15.3675 -12.5364 
-15.0642 -17.644 -17.244 -18.0378 -15.3675 
