-4.759 
n/a 
n/a 
n/a 
n/a 
-4.759 
n/a 
n/a 
n/a 
n/a 
-4.759 
n/a 
n/a 
n/a 
n/a 
-4.759 
n/a 
n/a 
n/a 
n/a 
-2.9805 -4.37 -4.436 -7.1225 -1.756 -4.874 -3.074 0 
-8.3675 -10.1 -11.136 -8.831 -6.3325 -8.091001 -3.074 
-14.4777 -16.8 -12.8445 -13.5043 -9.908001 -8.091001 
-21.1777 -18.5085 -17.5178 -17.0798 -9.908001 
-22.8862 -23.1818 -21.0933 -17.0798 
-1.934 -3.851 -3.6435 -2.9805 -3.7555 -5.1875 -4.874 -1.934 -2.664 -4.2845 -4.0455 0 
-5.981 -6.244 -5.989 -5.3095 -8.1265 -6.994501 -5.694 -4.0475 -8.668 -7.7395 -4.0455 
-6.263 -8.14 -8.2295 -9.444 -9.467001 -7.850501 -6.958 -9.7635 -12.3214 -7.7395 
-8.145 -10.7175 -12.4974 -10.477 -10.317 -8.918 -10.5225 -13.9187 -12.3214 
-10.733 -14.9854 -13.5304 -11.327 -11.4021 -12.5453 -15.3361 -13.9187 
-3.7575 -3.3165 -1.7695 -4.737 -2.9805 -3.7555 -4.874 
-7.504001 -3.881 -7.264 -7.8065 -5.3095 -7.194 
-8.0865 -9.2875 -10.8235 -9.7895 -7.857 
-13.7778 -13.1884 -12.8065 -12.5796 
-17.6787 -15.1714 -15.5966 
-1.934 -3.458 -2.9805 -4.2765 -4.6105 -1.934 -4.436 -4.0455 
-5.207 -7.135 -5.915501 -9.8205 -6.099501 -6.934 -6.6295 
-7.538001 -10.2535 -11.9153 -11.3719 -11.7277 -9.4135 
-10.361 -16.2533 -13.4667 -17.0001 -14.2072 
-16.3608 -17.8047 -19.0949 -19.4796 
