-4.759 
n/a 
n/a 
n/a 
n/a 
-4.759 
n/a 
n/a 
n/a 
n/a 
-4.759 
n/a 
n/a 
n/a 
n/a 
-4.759 
n/a 
n/a 
n/a 
n/a 
-3.2615 -4.5855 -1.7565 -5.709 -4.3055 -6.341 -5.1895 -4.33 -3.222 -9.875 0 -2.3345 -4.9735 -7.3985 -2.5045 -3.091 -3.957 -1.934 -3.091 -3.7435 0 
-6.1225 -4.9095 -6.749001 -10.2535 -7.64 -12.1735 -7.679 -6.248001 -14.1498 -9.875 -2.3345 -6.3475 -13.5542 -10.468 -5.2025 -6.7645 -6.266 -4.2105 -5.6315 -3.7435 
-6.2045 -10.3545 -11.6181 -13.588 -13.9235 -14.663 -7.938 -17.7736 -14.1498 -12.3241 -6.3475 -15.3994 -16.6237 -13.166 -8.844501 -9.534 -8.5045 -6.8655 -5.6315 
-11.9321 -15.2236 -14.9526 -19.8715 -16.413 -14.922 -19.92 -17.7736 -16.5989 -16.3371 -15.3994 -18.4689 -19.3217 -16.808 -11.7438 -11.9051 -11.3549 -6.8655 
-16.8012 -18.5581 -21.2361 -22.361 -16.672 -26.904 -19.92 -20.2227 -20.6119 -25.389 -18.4689 -21.1669 -22.9637 -19.7073 -14.1149 -14.7555 -11.3549 
-3.2615 -1.4985 -4.5855 -1.7565 -5.709 -4.3055 -6.341 -2.8645 -4.3285 -7.3985 -2.5045 -3.091 -3.644 -3.957 -1.756 -3.321 -5.648 -3.849 -12.16972 0 
-4.032 -5.3935 -4.9095 -6.749001 -10.2535 -7.64 -8.7075 -6.217 -12.7478 -10.468 -5.2025 -7.048 -6.650001 -5.813 -4.0055 -7.6875 -9.8225 -16.17932 -12.16972 
-6.3935 -5.4515 -10.3545 -11.6181 -13.588 -9.7805 -12.1438 -15.4427 -15.8173 -13.166 -8.999001 -8.0225 -8.0675 -7.390501 -8.372001 -12.2522 -22.15822 -16.17932 
-6.41 -10.757 -15.2236 -14.9526 -15.7285 -13.23 -21.3695 -18.5122 -18.5153 -16.9625 -9.773001 -9.165501 -10.5975 -12.034 -13.4921 -24.58792 -22.15822 
-11.9271 -15.6261 -18.5581 -17.0931 -19.178 -22.4557 -24.439 -21.2102 -22.3118 -17.7365 -10.916 -11.8101 -15.241 -17.1541 -25.82782 -24.58792 
-3.2615 -1.4985 -5.709 -6.341 0 -7.3985 -2.8645 -3.7905 -3.957 -1.7565 -1.4985 -3.7435 -3.849 -2.5045 -12.16972 0 
-4.032 -7.113 -13.131 -6.341 -7.3985 -10.2285 -4.816 -8.189001 -4.676 -2.4195 -4.5515 -7.334001 -6.305 -15.59162 -12.16972 
-9.1385 -15.019 -13.131 -9.3455 -10.2285 -12.18 -9.380501 -9.1385 -5.031 -5.278501 -7.923501 -10.3345 -19.49572 -15.59162 
-17.2481 -15.019 -16.1355 -12.2247 -12.18 -16.7445 -10.1955 -9.6455 -7.7355 -8.6 -10.9308 -23.52522 -19.49572 
-17.2481 -18.0235 -19.0147 -14.1762 -16.7445 -17.5595 -10.8269 -12.35 -11.196 -11.8531 -24.12152 -23.52522 
-3.2615 -4.2225 -5.709 0 -6.648 -4.82 -7.3985 -2.5045 -3.957 -1.7565 -3.091 -3.7435 -1.756 -4.3195 -10.445 0 
-7.606 -10.4765 -5.709 -6.648 -12.2602 -13.3947 -10.468 -6.5655 -4.676 -4.0655 -5.6315 -5.098001 -5.563 -15.9199 -10.445 
-14.2986 -10.4765 -13.438 -12.2602 -20.8349 -16.4642 -14.529 -7.139501 -6.687 -6.4785 -6.6525 -8.9215 -17.3552 -15.9199 
-14.2986 -18.2055 -19.0502 -20.8349 -23.9044 -20.5252 -15.103 -9.302501 -8.167001 -7.397 -9.71 -20.6763 -17.3552 
-22.0276 -23.8177 -27.6249 -23.9044 -27.9654 -21.0992 -17.266 -10.8419 -9.241 -10.5635 -21.55 -20.6763 
