-4.759 
n/a 
n/a 
n/a 
n/a 
-4.759 
n/a 
n/a 
n/a 
n/a 
-4.759 
n/a 
n/a 
n/a 
n/a 
-4.759 
n/a 
n/a 
n/a 
n/a 
-3.3255 -5.5805 -3.098 -6.522 -5.085 -2.9905 0 
-8.813001 -8.77 -9.916 -12.3506 -6.76 -2.9905 
-12.1829 -15.7718 -16.127 -14.0256 -6.76 
-19.1847 -21.9828 -17.802 -14.0256 
-25.3957 -23.6578 -17.802 
-2.3615 -3.3755 -2.186 -3.8405 -2.95 -4.086 -6.660501 -3.3165 -2.9905 -3.7575 
-4.8525 -5.5045 -7.738 -6.965 -7.604 -12.0049 -11.117 -5.0795 -6.573501 
-6.58 -11.4407 -10.382 -12.1402 -15.9397 -16.4614 -12.88 -8.196501 
-12.6846 -14.0847 -15.5572 -20.4759 -20.3962 -18.2244 -15.997 
-15.3286 -19.2599 -23.8929 -24.9324 -22.1592 -21.3414 

n/a 
n/a 
n/a 
n/a 
-1.934 -2.3615 -4.0325 -3.098 0 -3.5455 -8.134501 -3.8405 0 -5.7055 -4.086 -1.756 -3.1435 -4.086 -5.646 -4.1555 -2.9905 0 
-3.539 -6.114 -7.323501 -3.098 -3.5455 -10.8025 -9.8205 -3.8405 -5.7055 -7.4125 -5.4315 -4.1365 -7.108 -11.136 -9.579 -5.7405 -2.9905 
-7.6435 -8.9855 -7.323501 -6.1435 -10.8025 -12.4885 -9.8205 -8.6575 -7.4125 -8.575001 -8.021 -8.165 -14.6284 -15.069 -11.586 -5.7405 
-10.586 -8.9855 -9.9455 -13.6595 -12.4885 -12.4885 -14.6375 -10.287 -8.575001 -11.3831 -12.4613 -16.0904 -18.5614 -17.076 -11.586 
-10.586 -11.7965 -17.5181 -15.3455 -12.4885 -17.3055 -16.267 -11.6335 -11.3831 -15.8234 -20.3867 -20.0234 -20.5684 -17.076 
