-4.759 
n/a 
n/a 
n/a 
n/a 
-4.759 
n/a 
n/a 
n/a 
n/a 
-4.759 
n/a 
n/a 
n/a 
n/a 
-4.759 
n/a 
n/a 
n/a 
n/a 
-3.321 -4.065 -4.432 -4.328 -5.1515 -5.3275 -4.164 -2.3615 -5.0595 -2.5045 0 -3.4155 -3.931 0 -1.756 0 -4.1735 -5.3405 -1.934 -4.065 -3.5125 0 0 
-7.708 -6.424 -4.899 -7.595 -6.1005 -8.7465 -6.6475 -7.234 -7.299 -2.5045 -3.4155 -6.6905 -3.931 -1.756 -1.756 -4.1735 -9.122 -7.0575 -5.723001 -6.5365 -3.5125 0 
-8.452001 -6.4465 -7.6235 -7.6505 -9.028001 -10.477 -11.7318 -9.404501 -7.299 -5.964 -6.6905 -6.6905 -5.418 -1.756 -6.0775 -9.122 -9.807 -10.375 -7.459001 -6.5365 -3.5125 
-8.4585 -7.9355 -7.653501 -10.361 -10.5865 -15.5613 -13.9023 -9.404501 -11.1581 -10.147 -6.6905 -7.943 -5.418 -6.0775 -11.3726 -9.807 -10.526 -12.3756 -7.459001 -6.5365 
-10.111 -7.9465 -10.361 -12.3397 -15.6708 -17.7318 -13.9023 -13.4708 -15.3411 -10.147 -7.943 -7.943 -10.3475 -11.3726 -12.0576 -10.526 -12.7002 -12.3756 -7.459001 
-2.3615 -3.931 -12.16972 -8.7335 -12.16972 
-6.441 -17.26512 -20.90322 -21.30182 
-20.51472 -25.99862 -33.47154 
-29.24822 -38.56694 
-41.81654 
-3.321 -4.065 -4.432 -4.328 -5.1515 -5.3275 -4.4155 -2.3615 -5.2725 -2.5045 0 -4.318 -3.931 0 -1.756 0 -4.4665 -5.3405 -1.934 -1.4985 -3.5125 -1.7565 -4.559 0 
-7.708 -6.424 -4.899 -7.595 -6.1005 -9.876501 -6.314 -8.6365 -7.739 -2.5045 -4.318 -7.5115 -3.931 -1.756 -1.756 -4.4665 -10.1345 -7.0575 -2.6125 -4.7015 -4.312 -5.683 -4.559 
-8.452001 -6.4465 -7.6235 -7.6505 -10.7175 -11.856 -13.061 -11.389 -7.739 -6.5835 -7.5115 -7.5115 -5.418 -1.756 -6.818 -10.1345 -11.9623 -7.910501 -5.4205 -4.846 -7.03 -5.683 
-8.4585 -7.9355 -7.653501 -12.7347 -12.697 -18.603 -15.8135 -11.389 -12.1278 -10.4425 -7.5115 -8.604 -5.418 -6.818 -12.662 -11.9623 -12.8153 -11.0999 -5.48 -8.104 -7.03 
-10.111 -7.9465 -12.7385 -14.7142 -19.444 -21.3555 -15.8135 -15.7778 -15.9868 -10.4425 -8.604 -8.604 -10.411 -12.662 -14.4898 -12.8153 -16.0047 -11.1594 -8.88 -8.104 
-1.4985 -3.321 -4.559 -4.432 -4.328 -5.1515 -7.6565 -4.8905 -1.4985 -5.0595 -2.5045 -2.871 -1.7565 -1.4985 -4.4745 -5.3405 -1.7565 -4.559 -1.756 -1.8085 -6.934 -3.931 
-5.696501 -8.206501 -8.489 -4.899 -7.595 -8.594501 -13.3006 -6.86 -6.3125 -7.299 -4.7085 -3.5385 -2.4195 -4.774 -9.954 -6.2495 -5.683 -5.633 -3.584 -8.4775 -10.674 
-11.2316 -12.6429 -8.580501 -7.6235 -12.8812 -14.5194 -15.2701 -12.2252 -8.806001 -9.693001 -4.9525 -3.7675 -5.541501 -9.992001 -10.5085 -9.9925 -6.854 -7.8475 -10.322 -12.4335 
-15.668 -12.7344 -10.195 -13.1305 -18.8061 -16.4889 -20.6353 -14.7187 -11.4126 -10.1095 -5.1005 -5.7395 -11.1211 -10.5275 -14.2515 -11.7317 -8.929501 -14.7935 -14.278 
-15.7595 -14.3489 -16.2694 -19.0554 -20.7756 -21.8541 -23.1288 -17.3253 -11.8291 -10.3245 -6.873 -11.5721 -11.6566 -14.2705 -15.9907 -13.8072 -15.9319 -18.7495 
