-4.759 
n/a 
n/a 
n/a 
n/a 
-4.759 
n/a 
n/a 
n/a 
n/a 
-4.759 
n/a 
n/a 
n/a 
n/a 
-4.759 
n/a 
n/a 
n/a 
n/a 
-4.7625 -2.8965 -3.7495 0 -4.749 -4.426 -2.264 -3.5025 -4.4 -3.7875 -3.383 -3.845 -3.976 -1.756 -2.8645 -4.0245 -4.884 0 
-5.9215 -5.528501 -3.7495 -4.749 -9.484501 -5.5675 -5.6125 -6.206 -8.243 -6.915501 -5.7095 -8.01 -5.263 -4.3855 -8.621 -9.346001 -4.884 
-7.7735 -5.528501 -8.789501 -9.484501 -10.7396 -9.030001 -8.502501 -9.8245 -11.4816 -8.643001 -9.885 -9.012 -8.138 -10.523 -14.0987 -9.346001 
-7.7735 -11.0363 -14.5048 -10.7396 -14.2021 -12.5342 -12.2742 -13.1161 -13.2091 -13.0345 -10.887 -12.0372 -14.5025 -16.0007 -14.0987 
-13.9013 -16.7516 -15.7599 -14.2021 -17.7063 -16.3059 -15.5658 -14.8436 -17.6006 -14.0365 -13.9122 -18.4017 -19.9802 -16.0007 
-2.4265 -2.742 -3.6845 -3.8385 -7.448 -2.6165 -3.115 -3.769 0 
-4.095 -4.8705 -8.500501 -12.4115 -10.821 -5.172501 -6.471001 -3.769 
-6.19 -9.676001 -17.2701 -15.7845 -13.377 -8.111501 -6.471001 
-11.1547 -18.7172 -20.6431 -18.3405 -16.316 -8.111501 
-20.1959 -22.0902 -23.1991 -21.2795 -16.316 
-4.7625 -3.135 -2.8965 -4.9455 -3.1435 -2.8645 -5.4425 -4.123 -3.098 -1.756 -2.7765 -3.7445 -4.496 -1.934 -4.4115 -3.976 -3.5025 -3.991 -3.074 0 
-6.328 -4.9085 -6.83 -8.271001 -7.2895 -9.041 -8.4785 -7.0225 -5.0435 -4.53 -5.498 -6.503 -6.3675 -6.366 -6.6925 -5.285 -5.3335 -7.328 -3.074 
-6.976 -8.978001 -10.2185 -12.5802 -13.6046 -12.3802 -12.092 -9.4785 -7.4305 -7.153501 -7.7965 -8.135 -9.899 -8.604 -9.191 -6.603 -8.408501 -7.328 
-10.322 -12.4795 -14.5277 -18.8953 -16.9438 -15.9937 -14.548 -11.9853 -10.434 -9.425 -9.616501 -11.9769 -12.485 -11.2459 -9.828501 -9.6525 -8.408501 
-13.8235 -16.7887 -20.8428 -22.2345 -20.5573 -18.4497 -17.0548 -14.9888 -12.7055 -11.336 -13.6178 -14.5629 -15.1269 -11.8834 -12.9844 -9.6525 
-2.3615 -2.6165 -3.486 -2.5045 -2.8965 -3.3035 0 -3.433 -4.5955 -2.4945 -3.098 -3.397 -3.0415 0 -3.1435 -3.8125 -3.383 -3.644 -3.991 0 
-5.456 -7.051001 -4.737 -5.2835 -5.9915 -3.3035 -3.433 -9.6385 -7.7065 -4.907001 -6.576 -6.6755 -3.0415 -3.1435 -7.223001 -6.226501 -5.271 -8.193001 -3.991 
-10.4265 -7.652 -7.094 -8.849001 -5.9915 -6.602 -9.6385 -12.7495 -10.0005 -8.9355 -9.347 -6.6755 -5.929501 -7.223001 -9.472 -10.01 -9.4235 -8.193001 
-11.0275 -9.848001 -10.451 -8.849001 -9.183001 -13.2075 -12.7495 -15.0435 -14.1274 -12.2301 -9.347 -9.259501 -10.019 -9.472 -13.4083 -14.2595 -9.4235 
-13.2235 -13.3014 -10.451 -12.2305 -15.6749 -16.3185 -15.0435 -19.1704 -17.422 -12.2301 -12.0736 -13.4632 -12.268 -13.4083 -17.6578 -14.2595 
