-4.759 
n/a 
n/a 
n/a 
n/a 
-4.759 
n/a 
n/a 
n/a 
n/a 
-4.759 
n/a 
n/a 
n/a 
n/a 
-4.759 
n/a 
n/a 
n/a 
n/a 
-2.264 -3.539 -3.1635 0 -1.934 -7.353 -4.3355 -1.4985 -4.2085 -4.9135 -4.281 -1.4985 0 -4.4315 0 -2.9705 -4.504 -4.1055 -5.236 -1.756 -4.5235 -3.7555 -4.0865 -2.356 -2.664 -5.7945 -1.756 -5.7745 -2.5045 -3.502 -9.434501 -3.8745 -1.934 -4.4775 0 
-4.87 -5.5795 -3.1635 -1.934 -9.214001 -9.1485 -6.204 -4.987 -8.479501 -8.064 -5.602 -1.4985 -4.4315 -4.4315 -2.9705 -6.854501 -9.248001 -9.382501 -6.2665 -5.8545 -8.456501 -6.535501 -5.734 -4.135 -6.9795 -7.335501 -7.068 -7.752 -5.995501 -14.4351 -13.6242 -6.057 -5.908 -4.4775 
-6.495 -5.5795 -5.852 -9.214001 -11.2241 -11.4788 -9.767 -9.624001 -12.1254 -8.8605 -5.602 -5.9245 -4.4315 -7.236001 -6.854501 -10.6095 -14.6688 -10.46 -9.0705 -10.0035 -11.4551 -7.3905 -7.1405 -8.392 -8.009001 -9.740001 -8.775001 -11.5668 -17.4876 -18.6248 -15.8067 -10.564 -5.908 
-6.495 -7.804001 -13.5274 -11.2241 -13.5544 -15.0418 -14.4734 -13.3077 -12.9219 -8.8605 -9.9865 -5.9245 -7.236001 -11.6838 -10.6095 -16.0303 -15.7463 -13.264 -13.3555 -13.0523 -12.3101 -8.843 -12.2719 -9.251 -9.8065 -11.6252 -12.6878 -23.0589 -21.6773 -20.8073 -20.3137 -10.564 
-8.801001 -16.3142 -15.5375 -13.5544 -17.1174 -19.7482 -18.1571 -14.1042 -12.9219 -13.3376 -9.9865 -8.9805 -11.6838 -15.4388 -16.0303 -17.1078 -18.5503 -17.549 -16.4043 -13.9073 -13.7626 -14.1634 -13.1309 -11.3449 -11.6913 -15.538 -24.1799 -27.2486 -23.8598 -25.3143 -20.3137 
-3.539 -3.1635 0 -1.4985 -4.2085 -4.335 0 -4.4315 0 -2.9705 -4.101 -1.7695 -1.4985 -5.4225 -4.3355 -2.356 -5.236 -1.756 -4.6195 -6.309 -3.2615 -6.4095 -2.356 -5.7945 -3.9615 -3.502 -9.434501 -3.8375 -1.7565 -4.4775 0 
-5.5795 -3.1635 -1.4985 -4.987 -8.0515 -4.335 -4.4315 -4.4315 -2.9705 -6.31 -4.6905 -2.7955 -6.118501 -7.645 -6.816501 -7.006001 -6.2665 -6.043 -12.1947 -9.401501 -7.705 -6.8805 -8.2235 -8.800501 -6.580501 -14.4351 -13.5872 -5.3875 -6.3345 -4.4775 
-5.5795 -5.4855 -4.987 -9.110001 -8.0515 -8.6015 -4.4315 -7.236001 -6.31 -7.172 -5.3325 -7.192501 -7.973501 -9.456 -11.9251 -7.722 -9.054 -13.974 -15.2872 -13.9662 -7.7485 -13.317 -11.7315 -9.3155 -18.1344 -18.5878 -15.1372 -10.9881 -6.3345 
-7.920001 -8.960501 -9.110001 -9.110001 -12.7732 -8.6015 -7.236001 -10.3745 -7.172 -7.797 -9.644501 -9.4335 -9.500001 -14.9538 -12.6411 -10.6031 -17.2238 -17.0665 -19.8519 -14.0097 -14.4636 -16.825 -12.2465 -22.4748 -22.2871 -20.1378 -20.7378 -10.9881 
-11.6154 -13.1879 -9.110001 -13.9649 -12.7732 -10.523 -10.3745 -11.2365 -7.797 -12.3208 -11.9411 -11.1032 -15.0624 -15.6698 -15.5222 -18.7729 -20.3163 -21.6312 -19.8954 -20.7248 -17.9716 -17.34 -25.4058 -26.6275 -23.8371 -25.7384 -20.7378 
-10.518 -4.2085 -4.335 0 -4.4315 0 -2.9705 -5.8265 -1.934 -5.4225 -4.3355 -5.404 -2.356 -1.4985 -4.208 -4.7715 -1.934 -3.502 -7.227 -3.8375 -1.934 -4.4775 0 -2.4265 -2.8645 -10.939 -1.7565 -4.8595 -1.756 -6.441 
-14.42 -8.0515 -4.335 -4.4315 -4.4315 -2.9705 -7.7825 -7.208001 -7.1155 -7.645 -9.6365 -7.2005 -3.1615 -5.2705 -8.416 -6.381 -4.8155 -13.116 -12.27 -5.7375 -5.908 -4.4775 -2.4265 -4.1435 -15.4065 -12.6955 -6.589001 -6.652 -9.14 
-18.543 -8.0515 -8.6015 -4.4315 -7.236001 -7.7825 -9.2325 -12.8237 -9.246501 -13.4468 -11.6004 -8.182 -7.209001 -9.7755 -10.4675 -8.8215 -14.6637 -18.0041 -14.3834 -10.419 -5.908 -7.4045 -4.1435 -17.0223 -17.163 -17.528 -7.967 -14.88 
-18.543 -12.7732 -8.6015 -7.236001 -12.6118 -9.2325 -14.8492 -14.9547 -15.2281 -15.4107 -12.5819 -12.6773 -11.8706 -11.8628 -12.908 -19.7039 -19.9928 -19.6051 -19.2441 -10.419 -7.801001 -8.767 -17.0223 -18.7788 -21.9955 -18.906 -16.5004 
-23.3979 -12.7732 -10.523 -12.6118 -14.0618 -14.8492 -16.9802 -20.9363 -17.192 -16.3922 -17.0772 -17.3389 -13.9579 -14.3033 -23.7904 -24.3148 -21.5938 -24.4658 -19.2441 -12.312 -9.2445 -21.776 -18.7788 -23.6113 -23.3735 -27.4394 
-3.539 -3.1635 0 -1.934 -5.4225 -4.3355 -3.892 0 -1.8085 -4.2085 -4.335 -4.281 0 -4.4315 0 -2.9705 -5.6495 -2.356 -4.1055 -5.236 -1.756 -4.5235 -2.7415 -4.0865 -2.3345 -2.664 -5.7945 -1.934 -4.4775 -2.229 -3.502 -9.434501 -3.8375 -3.892 -1.756 -8.295 0 
-5.5795 -3.1635 -1.934 -7.1155 -7.645 -7.257501 -3.892 -1.8085 -5.677 -8.0515 -7.677 -4.281 -4.4315 -4.4315 -2.9705 -8.172501 -6.954 -6.629001 -9.382501 -6.2665 -5.8545 -7.710001 -6.055 -5.434 -4.532 -6.9795 -7.382 -5.908 -6.340001 -5.944 -14.4351 -13.5872 -7.177 -5.337 -9.7605 -8.295 
-5.5795 -5.852 -7.1155 -9.246501 -10.6095 -7.257501 -5.8535 -5.677 -8.998501 -11.8487 -7.677 -8.758501 -4.4315 -7.236001 -8.172501 -9.783001 -11.7562 -12.3702 -10.46 -9.0705 -9.019501 -11.2861 -6.4025 -7.082 -8.7365 -8.159 -11.899 -7.602 -10.316 -17.3457 -18.5878 -16.9267 -8.825001 -14.1165 -9.7605 
-7.804001 -11.4289 -9.246501 -12.3908 -10.6095 -9.457001 -10.01 -8.998501 -13.0157 -11.8487 -12.6279 -8.758501 -7.236001 -13.0018 -9.783001 -14.7134 -17.4974 -13.4477 -13.264 -12.3715 -12.5736 -11.6336 -7.581 -9.867001 -10.057 -13.0718 -13.593 -11.9146 -21.7177 -21.4984 -21.9273 -18.5747 -17.7127 -14.1165 
-14.2157 -13.5599 -12.3908 -12.3908 -12.809 -13.6357 -13.4969 -13.0157 -13.0157 -16.7996 -12.6279 -12.1762 -13.0018 -14.6123 -14.7134 -20.4546 -18.5749 -16.2517 -16.565 -15.9256 -12.9211 -12.8121 -10.733 -11.1487 -15.1916 -14.7658 -17.9056 -23.3163 -25.8704 -24.8379 -23.5753 -27.4624 -17.7127 
