-4.759 
n/a 
n/a 
n/a 
n/a 
-4.759 
n/a 
n/a 
n/a 
n/a 
-4.759 
n/a 
n/a 
n/a 
n/a 
-4.759 
n/a 
n/a 
n/a 
n/a 
-3.6955 -3.0835 -5.598 0 
-5.728 -8.607 -5.598 
-12.4149 -8.607 
-12.4149 
n/a 
-3.432 -2.186 -3.961 -1.4985 -3.4155 
-5.681 -4.726 -5.9215 -4.4155 
-8.141001 -7.707001 -8.922001 
-11.3206 -10.9795 
-14.5931 
-2.4265 -2.186 -3.4865 -3.308 0 -1.934 -2.3615 -3.308 -1.4985 -3.275 -2.742 -3.6955 -3.0835 0 -2.9705 -3.3195 -5.5285 0 
-3.292 -6.2065 -7.7025 -3.308 -1.934 -3.539 -4.671 -5.021 -4.7845 -6.252501 -5.043 -5.728 -3.0835 -2.9705 -7.2755 -9.795501 -5.5285 
-7.547 -10.757 -7.7025 -5.8455 -3.539 -5.843 -6.5815 -7.8155 -7.305 -8.601501 -7.8485 -5.728 -6.6495 -7.2755 -13.9157 -9.795501 
-12.3375 -10.757 -10.0545 -7.376 -5.843 -7.702001 -9.7895 -9.964001 -9.835501 -11.7718 -7.8485 -9.040501 -11.3715 -13.9157 -13.9157 
-12.3375 -13.109 -11.6736 -8.5235 -7.702001 -11.0552 -11.9828 -12.5229 -13.0392 -11.7718 -10.4675 -13.8901 -18.0117 -13.9157 
-3.7085 -3.277 -1.934 -2.664 -3.333 -4.6265 -1.8085 -3.16 -2.9775 0 
-5.4145 -4.5955 -4.0475 -4.941 -7.9315 -5.9265 -4.6915 -4.6715 -2.9775 
-6.3565 -6.446 -6.6035 -9.712001 -9.861 -8.0155 -5.6075 -4.6715 
-8.411 -8.5035 -11.9115 -12.3889 -12.1502 -8.081 -5.6075 
-10.4945 -14.2751 -14.5884 -14.6781 -12.2157 -8.081 
