-4.759 
n/a 
n/a 
n/a 
n/a 
-4.759 
n/a 
n/a 
n/a 
n/a 
-4.759 
n/a 
n/a 
n/a 
n/a 
-4.759 
n/a 
n/a 
n/a 
n/a 
-1.934 -3.9465 -4.3935 -4.1355 -3.188 -8.844501 
-5.144 -6.695001 -8.942 -8.5485 -10.9075 
-8.1035 -9.418 -13.516 -16.43 
-11.0123 -14.0244 -21.3975 
-15.6187 -21.9059 
-1.934 -3.9465 -4.3935 -4.887 -10.005 -3.188 -3.16 -4.38 
-5.144 -6.695001 -9.803 -15.7648 -13.4612 -6.658501 -8.5705 
-8.1035 -13.2567 -20.8432 -19.221 -16.9317 -12.7258 
-14.851 -24.2969 -24.2994 -22.6915 -22.999 
-25.8912 -27.7531 -27.7699 -28.7588 
-1.4985 -4.1865 -3.16 -4.3195 -3.6975 -1.934 -6.107 -6.6715 -2.7415 -1.934 -1.4985 -4.1355 -1.7565 -3.9465 -1.756 -4.3935 0 
-5.649 -6.669 -8.1815 -6.5695 -5.568 -7.5995 -13.7593 -8.654 -4.5155 -2.6125 -5.2415 -6.009501 -5.5135 -5.489 -6.271 -4.3935 
-7.0955 -10.533 -9.2565 -7.1905 -12.0605 -15.7834 -15.7418 -10.4595 -5.133 -6.703001 -6.321001 -8.568001 -6.536 -7.467 -6.271 
-10.586 -11.608 -10.311 -14.2074 -20.2444 -17.7659 -17.5473 -11.077 -9.517 -8.0425 -8.6815 -8.789001 -8.5675 -7.467 
-11.661 -12.6625 -17.2919 -22.3913 -22.2269 -19.5714 -18.1648 -15.461 -10.452 -10.7424 -8.819 -9.257001 -8.5675 
-9.475 -9.116501 -4.1355 -12.16972 -3.188 -4.696 -1.934 -3.432 0 
-18.7053 -13.6184 -17.65142 -15.35772 -7.9775 -7.0865 -5.689 -3.432 
-23.2072 -27.13432 -20.83942 -20.14722 -10.9212 -10.1855 -5.689 
-36.72312 -30.32232 -25.62892 -23.09092 -14.0202 -10.1855 
-39.91112 -35.11182 -28.57262 -26.18992 -14.0202 
