-4.759 
n/a 
n/a 
n/a 
n/a 
-4.759 
n/a 
n/a 
n/a 
n/a 
-4.759 
n/a 
n/a 
n/a 
n/a 
-4.759 
n/a 
n/a 
n/a 
n/a 
-3.135 -4.5145 -2.4945 -4.9345 0 -4.5335 -2.4945 -7.9255 -1.934 -4.97 
-7.3675 -6.1875 -6.43 -4.9345 -4.5335 -7.075 -9.551001 -9.283501 -7.27 
-8.768001 -9.986501 -6.43 -9.474501 -7.075 -14.6497 -10.113 -14.9907 
-12.7016 -9.986501 -11.3806 -12.1116 -14.6497 -15.2117 -16.3606 
-12.7016 -15.0791 -14.0177 -19.6863 -15.2117 -21.4593 
-3.135 -4.5145 -6.012 -1.756 -4.5335 -3.152 -6.104 
-7.3675 -11.08 -7.1615 -6.4115 -7.095 -7.552 
-14.4612 -12.2295 -12.3914 -9.896501 -12.3874 
-15.6107 -17.4594 -15.8764 -15.1889 
-20.8406 -20.9444 -21.1688 
-3.135 -5.678 -4.9125 0 -4.5335 -3.152 -6.104 
-9.095501 -11.8053 -4.9125 -4.5335 -7.095 -7.552 
-15.5564 -11.8053 -9.925501 -7.095 -12.3874 
-15.5564 -16.8183 -12.6824 -12.3874 
-20.5694 -19.5752 -17.9748 
-3.135 -4.5145 -3.7555 -4.9345 -1.756 -1.4985 -4.5335 -3.152 -6.104 
-7.3675 -8.88 -7.6565 -6.248 -3.0405 -4.918 -7.095 -7.552 
-10.7575 -12.9314 -8.8925 -7.0905 -6.025 -8.273001 -12.3874 
-14.8089 -14.1674 -9.9925 -9.184 -8.634501 -13.7232 
-16.0449 -15.2674 -12.086 -11.9089 -14.0993 
