-4.759 
n/a 
n/a 
n/a 
n/a 
-4.759 
n/a 
n/a 
n/a 
n/a 
-4.759 
n/a 
n/a 
n/a 
n/a 
-4.759 
n/a 
n/a 
n/a 
n/a 
-3.16 -4.548 -3.135 -6.4115 -5.2455 
-7.3925 -7.296 -9.4095 -12.3544 
-10.9715 -14.0995 -15.393 
-17.775 -20.083 
-23.7585 
-3.4865 -4.3625 -2.4945 -1.934 -3.432 0 
-7.406 -5.9225 -4.2645 -5.689 -3.432 
-8.852 -7.996 -8.953501 -5.689 
-11.3135 -13.0522 -8.953501 
-16.3697 -13.0522 
-3.135 -3.4865 -4.0395 -1.934 -1.4985 -3.5025 -3.7205 
-6.0255 -7.533 -5.5995 -2.6125 -4.16 -7.091001 
-9.273001 -8.9165 -6.180501 -5.7555 -8.101001 
-10.072 -9.338501 -9.8655 -10.223 
-10.145 -13.1049 -14.4708 
-8.972 -3.4155 -4.8915 -3.7375 
-12.8445 -8.370001 -9.752501 
-17.799 -13.5014 
-22.9304 
n/a 
