-4.759 
n/a 
n/a 
n/a 
n/a 
-4.759 
n/a 
n/a 
n/a 
n/a 
-4.759 
n/a 
n/a 
n/a 
n/a 
-4.759 
n/a 
n/a 
n/a 
n/a 
-2.3615 -3.9035 -4.2485 -4.347 -10.5185 -5.744 
-7.6165 -8.668501 -8.046 -11.3705 -13.0745 
-12.7523 -12.8028 -14.0947 -15.449 
-16.8866 -18.481 -19.2253 
-22.5648 -24.2349 
-2.3615 -3.5015 -4.237 -2.186 -11.827 -5.744 
-5.2225 -8.109501 -6.133 -12.6505 -15.0335 
-10.3443 -9.876 -17.4405 -18.6177 
-12.1108 -22.5111 -25.1474 
-24.7459 -28.8904 
-1.4985 -8.731501 -1.934 -2.3615 -3.892 -2.186 -3.6215 -9.056001 -4.4705 
-9.8545 -10.634 -3.539 -5.6425 -5.6735 -5.7995 -13.6859 -13.7835 
-11.757 -12.239 -5.9775 -6.7385 -8.900001 -16.2697 -18.4134 
-13.362 -14.6775 -7.327001 -9.894 -19.4138 -20.9972 
-15.8005 -16.027 -10.0605 -20.4078 -24.1413 
-1.4985 -4.237 -1.934 -2.3615 -3.355 -2.186 -4.347 -11.601 -5.744 
-5.154 -6.133 -3.539 -5.107 -5.3935 -5.555 -14.1015 -17.0225 
-6.8155 -7.95 -5.884 -6.4695 -9.068501 -13.8615 -19.1437 
-8.418501 -9.532001 -7.8765 -10.485 -17.131 -20.7157 
-9.646001 -12.4271 -12.3238 -18.5475 -23.6667 
