-4.759 
n/a 
n/a 
n/a 
n/a 
-4.759 
n/a 
n/a 
n/a 
n/a 
-4.759 
n/a 
n/a 
n/a 
n/a 
-4.759 
n/a 
n/a 
n/a 
n/a 
-2.925 -3.4635 -3.345 -4.383 
-7.061501 -8.172001 -8.952001 
-10.3815 -13.9704 
-16.1799 
n/a 
-4.3145 -2.7415 -4.077 -1.934 -3.345 -1.7565 -1.4985 -1.934 -6.4085 
-7.064501 -5.709001 -4.43 -4.618 -4.3855 -2.4195 -5.2355 -8.2825 
-10.6095 -5.883 -7.12 -5.3865 -4.688 -6.185 -12.1044 
-10.7835 -8.958501 -7.933 -5.626 -8.6105 -13.2127 
-13.859 -9.611501 -8.2485 -9.664001 -15.8546 
-2.9805 -2.8645 -3.1125 -4.107 -2.0935 -3.6055 -3.8465 0 
-4.3245 -3.5345 -6.311 -4.239501 -4.7925 -7.041 -3.8465 
-5.2625 -6.657 -6.344 -7.420501 -7.914001 -7.041 
-7.519501 -6.6735 -9.2895 -10.057 -7.914001 
-7.535 -9.743501 -12.0652 -10.057 
-2.9805 -2.186 -4.077 -1.934 -3.6055 -4.4095 0 
-4.1635 -5.476 -4.43 -4.8595 -6.7235 -4.4095 
-7.039001 -5.719 -7.127 -8.035501 -6.7235 
-7.205 -8.107 -9.342 -8.035501 
-9.354501 -10.3345 -9.342 
