-4.759 
n/a 
n/a 
n/a 
n/a 
-4.759 
n/a 
n/a 
n/a 
n/a 
-4.759 
n/a 
n/a 
n/a 
n/a 
-4.759 
n/a 
n/a 
n/a 
n/a 
-5.343 -7.245501 -2.7455 -3.0435 
-12.737 -10.9065 -5.9255 
-15.5241 -14.0025 
-19.42 
n/a 
-5.343 -3.355 -2.7455 -3.0435 0 
-7.630501 -6.113 -5.9255 -3.0435 
-11.0941 -9.3415 -5.9255 
-14.3226 -9.3415 
-14.3226 
-2.6615 -4.184 -4.126 -3.644 -2.7455 -3.0435 
-5.858 -7.836 -7.955001 -6.078501 -5.9255 
-9.582001 -11.9022 -10.3925 -9.751501 
-13.7188 -14.3397 -14.0655 
-16.1563 -18.0127 
-5.343 -5.213 -4.6525 -1.4985 -4.742 
-11.7474 -10.168 -5.5135 -5.869 
-16.7024 -10.681 -10.411 
-17.2154 -15.5785 
-22.1129 
