-4.759 
n/a 
n/a 
n/a 
n/a 
-4.759 
n/a 
n/a 
n/a 
n/a 
-4.759 
n/a 
n/a 
n/a 
n/a 
-4.759 
n/a 
n/a 
n/a 
n/a 
-1.934 -3.0835 -3.7205 -3.0835 -3.441 
-5.331 -7.9775 -7.1615 -6.9855 
-10.634 -11.9989 -12.1871 
-14.6554 -17.0245 
-19.681 
-1.4985 -4.5735 -3.791 -1.7565 -3.0835 -3.4605 
-5.271 -9.373501 -5.3635 -5.237 -6.785501 
-10.281 -10.026 -9.2325 -10.1075 
-10.7425 -14.1264 -14.6212 
-14.8429 -19.5151 
-3.0835 -3.5495 -1.934 -3.0835 -4.2115 0 
-6.657001 -5.6335 -5.331 -8.109 -4.2115 
-8.0725 -9.616501 -11.1599 -8.109 
-12.9187 -15.6072 -11.1599 
-18.9094 -15.6072 
-3.0835 -3.432 -3.436 -12.16972 
-7.56 -7.356 -16.69552 
-11.9912 -20.86812 
-25.50332 
n/a 
