-4.759 
n/a 
n/a 
n/a 
n/a 
-4.759 
n/a 
n/a 
n/a 
n/a 
-4.759 
n/a 
n/a 
n/a 
n/a 
-4.759 
n/a 
n/a 
n/a 
n/a 
-3.524 -3.2785 -4.318 -4.4545 -4.316 -5.1845 -5.74 -3.5795 -5.3885 -3.143 -4.493 0 
-5.469501 -8.1925 -5.856 -8.036 -8.273001 -5.7465 -10.115 -9.570001 -8.6955 -8.238501 -4.493 
-11.5391 -9.6595 -8.817501 -12.4158 -10.6095 -10.1145 -16.1055 -12.9838 -14.1584 -8.238501 
-13.0061 -12.848 -13.5709 -14.7523 -14.9775 -16.105 -19.5193 -18.4467 -14.1584 
-16.1946 -17.6014 -15.9074 -19.1203 -20.968 -19.5188 -24.9822 -18.4467 
-3.524 -5.2125 -6.557 -3.5005 -5.3885 -3.851 -1.7695 -4.318 -4.4545 -3.143 -9.101001 -4.424 
-8.0705 -11.4815 -9.908501 -9.0165 -9.614 -4.0015 -6.2155 -5.856 -8.1855 -12.7436 -13.7066 
-14.3605 -15.102 -10.1465 -13.4452 -9.625501 -6.9205 -7.646 -9.23 -18.0565 -17.3492 
-17.7806 -15.34 -14.7592 -13.4567 -12.5085 -7.99 -11.392 -19.6054 -22.6621 
-18.0186 -19.9527 -14.7707 -16.3397 -13.578 -11.8602 -21.7674 -24.211 
-3.524 -3.2785 -1.934 -5.1845 -5.74 -5.3885 -1.756 -2.8965 -3.9035 -4.4465 -2.3345 -4.537 -4.4545 -3.851 -1.7695 -4.4545 -3.143 -3.6765 -4.424 0 
-5.469501 -5.8795 -6.564 -5.7465 -7.6325 -7.176001 -3.751 -5.4185 -8.098 -4.897501 -6.820001 -8.309 -8.4005 -4.0015 -6.290501 -8.1855 -7.903 -7.2205 -4.424 
-8.2755 -10.9925 -6.819 -7.634501 -10.1265 -8.887501 -6.2585 -10.0345 -8.6995 -7.795501 -9.882501 -12.761 -8.5255 -7.1715 -10.396 -13.2159 -11.5498 -7.2205 
-13.6711 -11.2475 -9.063001 -10.126 -11.9676 -9.9665 -11.2061 -10.394 -11.8001 -11.3084 -14.5285 -12.886 -10.688 -11.384 -15.4264 -16.8627 -11.5498 
-13.9261 -13.4915 -11.7585 -11.9671 -13.0466 -15.4529 -11.5656 -13.4946 -15.313 -15.9544 -14.6535 -15.0485 -14.9005 -16.4144 -19.0732 -16.8627 
-3.524 -3.2785 -4.318 -5.535 -4.493 -3.143 -3.1385 -1.934 -6.557 -5.3885 -1.756 -2.8965 -4.088 0 
-5.469501 -8.1925 -6.3995 -9.0445 -7.679 -6.664001 -4.522 -7.536 -8.4405 -7.176001 -3.751 -5.4645 -4.088 
-11.5391 -10.155 -9.425 -12.5663 -8.1255 -7.978 -10.0225 -9.779 -10.5634 -8.887501 -6.3355 -5.4645 
-13.5016 -13.1805 -13.0076 -13.0128 -8.466001 -13.8147 -12.2655 -12.0561 -12.2749 -10.0815 -6.3355 
-16.5271 -16.7631 -13.4541 -13.3533 -14.9747 -16.0577 -14.5426 -13.7676 -13.4689 -10.0815 
