-4.759 
n/a 
n/a 
n/a 
n/a 
-4.759 
n/a 
n/a 
n/a 
n/a 
-4.759 
n/a 
n/a 
n/a 
n/a 
-4.759 
n/a 
n/a 
n/a 
n/a 
-9.638 -3.8735 -5.246 -6.557 -8.097501 -4.0455 -9.800501 
-13.6367 -10.115 -11.7882 -15.3439 -12.6492 -14.4194 
-19.8782 -16.6572 -20.5751 -19.8956 -23.0231 
-26.4204 -25.4441 -25.1268 -30.2695 
-35.2073 -29.9958 -35.5007 
-6.3215 0 -3.6085 -6.3215 0 -2.186 -1.4985 -2.871 -1.7565 -1.4985 -3.922 -3.2875 -1.7565 -6.557 -1.934 -6.3 -2.674 -1.4985 -3.9515 -1.7565 -6.3215 -3.074 0 
-6.3215 -3.6085 -10.3615 -6.3215 -2.186 -3.339 -4.316 -3.5385 -2.4195 -5.1235 -7.606501 -4.3315 -7.653501 -8.4335 -7.4665 -9.647 -3.998 -5.059 -5.368 -7.9375 -9.708 -3.074 
-10.504 -10.3615 -10.3615 -8.5 -3.339 -5.399 -6.0265 -3.7675 -5.630001 -9.539001 -7.883 -9.812501 -9.189 -11.1125 -10.6765 -11.504 -7.536 -5.839 -10.575 -10.7025 -9.708 
-17.257 -10.3615 -12.54 -9.3255 -5.399 -6.9585 -6.275001 -8.460501 -9.9665 -9.837001 -13.8294 -11.3984 -11.9555 -15.5205 -12.4683 -15.4588 -9.479 -11.3764 -13.34 -10.7025 
-17.257 -12.54 -13.3655 -11.6669 -6.9585 -7.1485 -11.0344 -13.7422 -10.172 -15.9052 -15.4153 -14.1937 -16.1843 -16.9613 -16.1823 -17.4018 -15.2786 -14.1414 -13.34 
-6.3215 0 -3.6085 0 -6.3215 0 -2.186 -1.8085 -4.6915 -3.2875 -1.7565 -6.3215 -3.352 -4.1375 -3.5445 -3.9515 -1.7565 -6.3215 -3.8145 0 -6.557 0 -3.8735 0 
-6.3215 -3.6085 -3.6085 -6.3215 -6.3215 -2.186 -3.164 -6.526501 -7.065001 -4.3315 -7.9375 -10.01 -7.261001 -8.6555 -8.047 -5.368 -7.9375 -8.402 -3.8145 -6.557 -6.557 -3.8735 -3.8735 
-10.504 -3.6085 -10.3615 -6.3215 -8.5 -3.164 -7.959 -8.048 -8.278 -8.833501 -11.925 -14.034 -12.5648 -13.5502 -10.7175 -10.575 -9.503 -8.402 -8.587 -6.557 -7.3585 -3.8735 
-10.504 -10.3615 -10.3615 -8.5 -9.436501 -7.959 -9.0825 -9.639501 -13.1116 -13.0144 -15.949 -19.3378 -17.4595 -16.2207 -15.9245 -12.1405 -9.503 -10.2755 -8.587 -7.3585 -7.3585 
-17.257 -10.3615 -12.54 -9.436501 -14.2707 -9.0825 -10.477 -14.6551 -17.2925 -17.0384 -21.2528 -24.2325 -20.13 -21.4277 -17.49 -12.1405 -11.4187 -10.2755 -9.011 -7.3585 
-6.3215 -2.186 -1.4985 -3.9515 -1.7565 -6.3215 -3.8145 0 -2.4265 -2.186 -2.871 -1.7565 -3.922 -1.934 -6.557 
-8.5 -3.339 -5.059 -5.368 -7.9375 -8.402 -3.8145 -2.4265 -3.292 -4.247 -3.5385 -6.5445 -5.784 -7.536 
-9.3255 -6.498 -5.839 -10.575 -9.503 -8.402 -6.6165 -3.292 -5.5545 -4.411 -10.1035 -8.670501 -12.3098 
-12.7659 -6.727 -11.3764 -12.1405 -9.503 -10.7335 -7.092 -5.5545 -5.691 -11.253 -12.3281 -15.1509 
-12.9949 -12.5482 -12.9419 -12.1405 -11.8767 -11.209 -8.9285 -5.691 -12.8908 -13.4776 -18.8085 
