-4.759 
n/a 
n/a 
n/a 
n/a 
-4.759 
n/a 
n/a 
n/a 
n/a 
-4.759 
n/a 
n/a 
n/a 
n/a 
-4.759 
n/a 
n/a 
n/a 
n/a 
-2.264 -7.190001 -3.193 -1.934 -1.4985 -3.8315 -4.0575 -2.925 -2.742 -4.414 -1.756 -4.136 -1.4985 -3.545 
-9.186501 -9.156 -4.837 -2.6125 -4.604 -5.656 -6.5515 -4.3725 -9.171 -5.685 -5.4915 -5.678 -4.401 
-9.764 -10.495 -5.4415 -5.003 -6.2415 -8.462501 -8.054501 -10.7495 -10.468 -9.0515 -6.7195 -7.2865 
-11.103 -11.0995 -7.906 -6.4785 -8.736501 -10.259 -14.5949 -12.0465 -13.8345 -10.2985 -8.392 
-11.7075 -13.564 -8.801001 -8.795501 -10.5975 -16.7994 -15.8919 -15.413 -15.0815 -11.971 
-4.9225 -2.4945 -6.061 -3.8315 -4.0575 -1.934 -7.190001 -4.179 0 
-6.9525 -9.728001 -9.699 -5.656 -5.9325 -9.84 -8.514001 -4.179 
-14.504 -13.739 -10.488 -7.711 -14.3819 -10.76 -8.514001 
-18.515 -14.528 -13.12 -16.2246 -15.3019 -10.76 
-19.304 -17.16 -21.6336 -17.1446 -15.3019 
-2.5045 -1.4985 -3.193 -2.664 -7.190001 -3.0465 -4.0655 -1.7695 -2.664 -4.2735 0 
-3.1915 -4.136 -6.3165 -11.0724 -11.0473 -5.3595 -4.4155 -4.185 -8.8585 -4.2735 
-6.2805 -7.228001 -15.1191 -14.9297 -13.3603 -5.915501 -9.369501 -10.485 -8.8585 
-10.7025 -16.1744 -18.9764 -17.2427 -13.9163 -11.1495 -15.7283 -10.485 
-19.6489 -20.0317 -21.2894 -17.7987 -19.1503 -17.5083 -15.7283 

n/a 
n/a 
n/a 
n/a 
