-4.759 
n/a 
n/a 
n/a 
n/a 
-4.759 
n/a 
n/a 
n/a 
n/a 
-4.759 
n/a 
n/a 
n/a 
n/a 
-4.759 
n/a 
n/a 
n/a 
n/a 
-4.8615 -4.0935 -1.8085 -3.098 -2.0935 -4.179 
-8.486 -4.9645 -4.9645 -4.748 -5.7895 
-9.844501 -7.818 -5.8955 -7.103 
-12.8648 -9.231001 -7.171 
-14.2778 -11.2605 
-3.16 -3.586 -3.7875 -1.8085 -3.098 -4.179 
-6.882 -7.561 -4.5035 -4.9645 -7.0105 
-12.3778 -7.986001 -7.557 -9.4845 
-12.8028 -11.8399 -12.697 
-16.6567 -16.9799 
-3.16 -2.9775 -2.742 -2.674 -3.091 -3.5205 -3.098 0 
-4.6715 -5.621 -4.275 -5.7745 -4.613 -6.0925 -3.098 
-6.8365 -7.4915 -6.861001 -6.9285 -6.7065 -6.0925 
-8.764501 -10.3667 -8.0065 -9.3295 -6.7065 
-11.7753 -11.5122 -9.964001 -9.3295 
-3.308 -2.742 -2.489 -1.7565 -3.6065 -3.6065 -3.9915 
-6.255 -3.301 -4.9805 -4.8305 -7.461 -6.367001 
-6.898 -5.9115 -7.389 -9.352501 -9.672501 
-9.3595 -8.6285 -12.702 -11.5842 
-12.3013 -14.1003 -14.9337 
