-4.759 
n/a 
n/a 
n/a 
n/a 
-4.759 
n/a 
n/a 
n/a 
n/a 
-4.759 
n/a 
n/a 
n/a 
n/a 
-4.759 
n/a 
n/a 
n/a 
n/a 
-2.3585 -2.4945 -3.937 -4.025 
-3.538 -4.9975 -6.033 
-5.6045 -7.339 
-8.08 
n/a 
-2.3585 -3.013 -5.651501 -3.013 -4.011 
-4.239 -8.529501 -7.033 -5.1545 
-9.308001 -11.1545 -9.2005 
-10.6675 -11.227 
-12.8465 
-2.847 -3.89 -2.186 -3.8535 -3.4945 -2.3585 0 
-7.1985 -5.083 -4.972 -6.144 -5.716001 -2.3585 
-8.469 -7.6165 -6.939 -8.0255 -5.716001 
-10.553 -10.096 -9.757 -8.0255 
-13.0325 -12.914 -9.757 
-2.3585 -2.4945 -2.6165 -7.719501 
-3.538 -3.8065 -10.46 
-4.6455 -10.1145 
-12.4812 
n/a 
