-4.759 
n/a 
n/a 
n/a 
n/a 
-4.759 
n/a 
n/a 
n/a 
n/a 
-4.759 
n/a 
n/a 
n/a 
n/a 
-4.759 
n/a 
n/a 
n/a 
n/a 
-11.361 -1.756 -3.091 -4.2245 -9.166 -3.45 -3.0695 -2.4945 -4.281 -2.5045 -1.8085 -3.4155 -3.9725 -1.934 -7.680501 -4.0965 0 
-14.0504 -4.2995 -5.326 -10.6215 -13.294 -4.273 -4.2085 -6.134 -5.893 -3.3625 -4.0495 -6.882501 -6.144 -9.620001 -9.521501 -4.0965 
-17.3984 -6.25 -10.66 -14.7495 -14.117 -5.167 -7.908501 -7.326 -6.6845 -6.1 -7.701 -8.783501 -14.2842 -11.485 -9.521501 
-19.2839 -11.6204 -14.788 -15.5725 -15.011 -9.085 -8.723001 -8.0745 -9.781 -9.189001 -9.207001 -17.0941 -16.1492 -11.485 
-24.7093 -15.7484 -15.611 -16.4665 -18.929 -9.9775 -10.298 -11.9132 -13.0174 -10.554 -17.6324 -18.9591 -16.1492 
-1.4985 -3.0835 -4.5055 -12.16972 -1.756 -2.985 -4.2245 -12.16972 -2.4945 -2.5685 -1.4985 -3.699 -3.9725 -1.7565 -9.352 -2.229 -3.5125 0 
-3.535 -8.046 -17.74262 -13.92572 -4.2025 -6.0665 -17.19502 -14.66422 -4.6335 -3.7015 -5.264 -8.516001 -4.9685 -12.0577 -11.9702 -5.187 -3.5125 
-8.3055 -21.59272 -19.49862 -16.37222 -7.0305 -19.50442 -19.68952 -16.80322 -5.883 -6.5525 -10.485 -9.650001 -16.3723 -14.6759 -14.9282 -5.187 
-22.09082 -23.34872 -21.94512 -19.20022 -20.46902 -21.99892 -21.82852 -18.05272 -9.014501 -12.1549 -11.619 -21.2392 -18.9905 -17.6339 -14.9282 
-23.84682 -25.79522 -24.77312 -32.63874 -22.96352 -24.13792 -23.07802 -21.18422 -14.8077 -13.2889 -23.2082 -23.8574 -21.9485 -17.6339 
-12.16972 -1.756 -3.091 -4.2245 -12.16972 -3.152 -4.4695 -3.9225 -7.680501 -4.6805 0 
-13.92572 -4.2995 -5.326 -17.19502 -15.32172 -7.1025 -7.5215 -12.8328 -9.129001 -4.6805 
-16.46922 -6.25 -18.79072 -20.34702 -19.27222 -9.619501 -16.633 -14.2813 -9.129001 
-18.41972 -19.75112 -21.94272 -24.29752 -21.78922 -18.8552 -18.0815 -14.2813 
-31.92084 -22.90312 -25.89322 -26.81452 -31.02492 -20.3037 -18.0815 
-11.0555 -2.3085 0 -1.756 -3.091 -4.2245 -12.16972 -2.7415 -1.4985 -4.4695 -8.171 -4.6805 0 
-13.364 -2.3085 -1.756 -4.2995 -5.326 -17.19502 -14.91122 -4.063 -5.252501 -13.4157 -10.884 -4.6805 
-13.364 -5.013 -4.2995 -6.25 -18.79072 -19.93652 -16.23272 -7.426001 -14.1509 -16.1287 -10.884 
-16.0685 -7.578 -6.25 -19.75112 -21.53222 -21.25802 -19.59572 -16.4382 -16.8639 -16.1287 
-18.6335 -8.7985 -19.75112 -22.49262 -22.85372 -24.62102 -28.60792 -19.1512 -16.8639 
