-4.759 
n/a 
n/a 
n/a 
n/a 
-4.759 
n/a 
n/a 
n/a 
n/a 
-4.759 
n/a 
n/a 
n/a 
n/a 
-4.759 
n/a 
n/a 
n/a 
n/a 
-3.1495 -5.033 -3.7575 -6.781 0 
-8.6225 -8.207001 -11.5809 -6.781 
-12.0035 -16.3072 -11.5809 
-20.1037 -16.3072 
-20.1037 
-2.4265 -2.186 -4.306 -2.3345 -1.4985 -4.225 -4.373 0 
-3.292 -5.7445 -5.181 -3.233 -5.3335 -6.8155 -4.373 
-7.1115 -5.945 -5.7885 -6.7975 -7.328501 -6.8155 
-7.47 -6.3315 -8.724501 -8.681001 -7.328501 
-7.9805 -9.3345 -10.7335 -8.681001 
-2.3335 -2.186 -4.306 -2.3345 -4.828 -4.328 0 
-3.7085 -5.7445 -5.181 -7.3975 -6.6545 -4.328 
-7.262001 -5.945 -9.816501 -8.4855 -6.6545 
-7.489 -10.4945 -11.0721 -8.4855 
-12.3987 -11.7501 -11.0721 
-2.4265 -2.186 -4.3285 -2.3345 -3.72 -3.8495 0 
-3.292 -5.4465 -5.082 -6.9985 -6.408501 -3.8495 
-6.757 -5.6895 -8.941501 -9.537001 -6.408501 
-7.5005 -10.0925 -11.8026 -9.537001 
-12.1763 -13.1086 -11.8026 
