-4.759 
n/a 
n/a 
n/a 
n/a 
-4.759 
n/a 
n/a 
n/a 
n/a 
-4.759 
n/a 
n/a 
n/a 
n/a 
-4.759 
n/a 
n/a 
n/a 
n/a 
-4.621 0 -12.16972 0 -5.943501 0 
-4.621 -12.16972 -12.16972 -5.943501 -5.943501 
-17.22472 -12.16972 -18.11322 -5.943501 
-17.22472 -18.11322 -18.11322 
-23.16822 -18.11322 
-4.621 -12.16972 0 -5.943501 0 
-17.22472 -12.16972 -5.943501 -5.943501 
-17.22472 -18.11322 -5.943501 
-23.16822 -18.11322 
-23.16822 
-4.621 -12.16972 0 -5.9045 0 
-17.22472 -12.16972 -5.9045 -5.9045 
-17.22472 -18.07422 -5.9045 
-23.12922 -18.07422 
-23.12922 
-10.468 -3.685 0 -5.943501 0 
-15.286 -3.685 -5.943501 -5.943501 
-15.4298 -10.9575 -5.943501 
-22.7023 -10.9575 
-22.7023 
