-4.759 
n/a 
n/a 
n/a 
n/a 
-4.759 
n/a 
n/a 
n/a 
n/a 
-4.759 
n/a 
n/a 
n/a 
n/a 
-4.759 
n/a 
n/a 
n/a 
n/a 
-2.5045 -1.7565 -5.805 0 -1.4985 -5.0075 -2.4945 -3.917 -2.5195 -1.4985 -3.499 -1.7565 -1.4985 -5.133 0 -3.499 -1.7565 -3.8225 0 0 
-4.4235 -6.9325 -5.805 -1.4985 -6.186501 -6.714 -5.7075 -5.385 -3.1695 -4.967 -4.306 -2.4195 -5.976501 -5.133 -3.499 -4.306 -5.142 -3.8225 0 
-11.0323 -6.9325 -8.009001 -6.186501 -7.897501 -9.163 -6.607 -5.6585 -6.877 -5.2225 -4.5175 -6.661001 -5.976501 -8.132501 -4.306 -8.7135 -5.142 -3.8225 
-11.0323 -10.375 -13.0836 -7.897501 -10.4807 -10.349 -6.897501 -9.0185 -7.2145 -5.4195 -8.183001 -6.661001 -8.6555 -8.9445 -8.7135 -8.7135 -5.142 
-14.4748 -15.4496 -14.7946 -10.4807 -11.6667 -10.6395 -10.0705 -9.1175 -7.4115 -8.921 -8.183001 -9.756501 -9.7165 -13.6568 -8.7135 -8.7135 
-6.09 -3.7075 -1.7565 -3.833 0 -5.0075 -1.7565 -7.2955 -3.499 -1.7565 -1.4985 -4.3445 -2.7415 -4.645 0 
-10.4345 -4.51 -5.6515 -3.833 -5.0075 -5.9815 -8.142 -9.764 -4.306 -2.4195 -5.1035 -7.633 -5.6165 -4.645 
-11.237 -9.751501 -5.6515 -9.621 -5.9815 -13.6666 -10.7773 -10.7064 -4.5175 -6.624001 -8.325001 -10.0815 -5.6165 
-16.4785 -9.751501 -10.6465 -10.918 -13.6666 -16.3019 -11.7197 -10.9179 -8.530001 -8.872001 -10.7837 -10.0815 
-16.4785 -14.8325 -11.9435 -18.6031 -16.3019 -17.2443 -11.9312 -14.9304 -10.702 -11.3747 -10.7837 
-3.499 -1.7565 -1.4985 -4.3445 -2.4945 -4.645 -2.5195 -1.4985 -5.0075 -3.499 -1.7565 -4.698 0 -2.5045 -3.543 -4.77 0 
-4.306 -2.4195 -5.1035 -7.568 -6.212501 -6.767001 -3.1695 -6.186501 -7.944 -4.306 -5.5475 -4.698 -2.5045 -5.323 -8.317 -4.77 
-4.5175 -6.624001 -8.1805 -9.654 -7.6545 -7.320501 -8.150001 -9.5465 -8.025001 -6.29 -5.5475 -6.7045 -5.323 -8.4855 -8.317 
-8.530001 -8.919001 -10.434 -11.1226 -8.2805 -12.8732 -11.7902 -9.68 -8.492001 -6.29 -7.347 -9.481501 -8.4855 -8.4855 
-10.213 -10.622 -11.9026 -11.7486 -13.9606 -16.5134 -11.9237 -10.601 -8.492001 -8.3695 -10.264 -12.9136 -8.4855 
-3.3435 -3.6835 -2.264 -5.0075 -1.7565 -4.698 -3.499 -4.5985 
-5.2295 -6.305501 -7.8415 -5.9815 -5.5475 -7.202001 -9.112 
-8.2335 -12.492 -9.150001 -8.977 -7.9515 -13.4672 
-14.7226 -13.8005 -12.4199 -11.6336 -15.0109 
-16.0311 -17.0704 -15.0765 -18.693 
