-4.759 
n/a 
n/a 
n/a 
n/a 
-4.759 
n/a 
n/a 
n/a 
n/a 
-4.759 
n/a 
n/a 
n/a 
n/a 
-4.759 
n/a 
n/a 
n/a 
n/a 
-1.934 -3.9655 -1.4985 -3.4795 -2.4945 -4.103 -1.756 -3.7075 -2.186 -1.934 -3.383 -6.3855 
-5.6155 -5.832 -5.2115 -5.6685 -6.621 -5.8135 -5.7245 -5.825 -4.0835 -5.5185 -8.5835 
-7.045001 -8.7325 -6.773 -8.039001 -7.495 -10.61 -8.0605 -7.291 -6.8535 -10.1 
-9.243501 -8.934 -8.160501 -8.454 -12.7001 -12.946 -9.504001 -10.8806 -12.3808 
-9.333 -9.403 -8.526501 -14.3017 -15.0361 -14.3895 -13.469 -16.4079 
-3.741 -2.186 -1.4985 -3.1715 -1.7565 -1.4985 -4.6985 -2.5045 -4.617 -2.264 -1.8085 -4.197 -1.7565 -3.7685 -2.4285 -4.2875 0 -4.703 -2.4285 -4.3895 0 -4.808 -2.4285 -4.433 0 -3.908 -2.4285 -4.89 
-5.827001 -3.339 -3.994 -4.207 -2.4195 -5.1995 -6.7425 -5.784 -6.2845 -3.5925 -5.5055 -5.3625 -5.614 -5.923 -6.165 -4.2875 -4.703 -6.4895 -6.305 -4.3895 -4.808 -7.461 -7.047501 -4.433 -3.908 -6.51 -7.528501 
-7.580501 -6.1375 -4.613 -4.719501 -6.2165 -7.101 -9.094501 -7.4005 -6.8735 -5.661 -5.896 -9.5175 -7.838 -6.4935 -6.165 -6.930501 -6.4895 -6.8265 -6.305 -9.067501 -7.461 -9.2515 -7.047501 -8.860001 -6.51 -8.347 
-9.359501 -6.5595 -5.3785 -7.5205 -8.093 -9.357 -11.1638 -8.06 -7.9215 -5.9775 -10.494 -12.0451 -8.0205 -6.4935 -8.753 -8.447001 -6.8265 -6.8265 -10.4265 -10.4115 -9.2515 -9.2515 -12.1565 -11.7542 -8.347 
-9.389501 -7.1915 -7.6645 -9.619 -10.054 -11.2991 -11.8233 -9.5865 -8.224 -10.7025 -13.0216 -12.2276 -8.0205 -9.054 -8.9905 -8.85 -6.8265 -10.4675 -10.4555 -12.202 -9.2515 -14.7353 -15.0507 -13.5912 
-1.4985 -3.4795 -1.7565 -3.9655 -2.186 -4.682 -1.756 -1.4985 -3.7075 -2.186 -3.962 -2.5045 -3.299 -2.5045 -1.4985 -4.392 0 
-5.2115 -4.599 -5.618001 -6.0775 -6.444 -6.2255 -3.0405 -4.6235 -5.825 -5.363 -5.124 -5.387 -6.325001 -3.1915 -5.0065 -4.392 
-5.652 -6.3875 -7.6035 -11.0215 -7.534501 -7.506001 -6.186 -5.975501 -8.676001 -5.938 -8.227 -8.08 -6.976501 -6.7745 -5.0065 
-8.450001 -8.1555 -12.6155 -12.112 -8.427501 -10.8587 -7.053 -8.771001 -9.610001 -9.176001 -11.005 -9.038501 -10.532 -6.7745 
-10.7025 -13.5467 -13.706 -13.005 -12.0404 -11.7257 -10.6335 -9.776001 -12.9214 -12.14 -11.9635 -12.6382 -10.532 
-3.5455 -3.9655 -1.4985 -3.4795 -2.4945 -4.103 -1.756 -3.7075 -2.186 -3.93 -1.934 -4.392 
-6.23 -5.832 -5.2115 -5.6685 -6.621 -5.8135 -5.7245 -5.825 -5.657001 -5.612 -6.862 
-7.805501 -8.7325 -6.773 -8.039001 -7.495 -10.61 -8.0605 -8.656 -6.701 -10.27 
-10.341 -8.934 -8.160501 -8.454 -12.7001 -12.946 -11.0231 -8.974 -11.5384 
-10.7135 -9.403 -8.526501 -14.3017 -15.0361 -15.9086 -11.3411 -15.1278 
