-4.759 
n/a 
n/a 
n/a 
n/a 
-4.759 
n/a 
n/a 
n/a 
n/a 
-4.759 
n/a 
n/a 
n/a 
n/a 
-4.759 
n/a 
n/a 
n/a 
n/a 
-6.899 -3.4075 -4.0085 -3.9665 -2.742 -5.197 -6.818 -3.5035 -1.756 -3.333 
-10.4765 -6.3745 -5.933 -6.371 -9.128 -13.301 -10.071 -4.74 -5.3565 
-13.4435 -7.538501 -8.150001 -13.2108 -17.4856 -16.554 -11.4531 -5.9205 
-14.6075 -9.372001 -15.2636 -21.5684 -20.7386 -17.9361 -12.6336 
-16.441 -16.957 -23.6212 -24.8214 -22.1207 -19.1166 
-6.899 -3.4075 -4.0085 -3.6215 -2.186 -1.4985 -3.441 -3.6215 -1.7695 -4.3455 -3.5035 -1.756 -3.333 
-10.4765 -6.3745 -5.2395 -5.5965 -3.339 -4.77 -6.3955 -5.6005 -4.706 -7.594 -4.74 -5.3565 
-13.4435 -8.880501 -6.8545 -7.114 -7.087 -7.644 -8.194501 -7.993001 -7.735 -7.628 -5.9205 
-15.9495 -10.7949 -8.351 -11.2212 -10.2755 -9.134501 -10.4105 -10.45 -7.7565 -7.6335 
-17.8639 -12.2914 -12.713 -14.4097 -11.766 -11.4321 -12.8675 -10.4725 -7.76 
-4.426 -1.7565 -1.4985 -3.6115 -4.7285 -4.1555 -3.147 -9.1765 -2.229 -3.4075 -4.0085 -3.6215 -4.992 -1.4985 -4.1265 -2.229 -3.5035 -1.756 -3.333 -2.4265 -2.186 -1.4985 -3.699 -3.5435 -1.934 -6.6585 0 
-5.47 -2.4195 -4.081 -6.5495 -8.4455 -5.77 -13.1717 -11.6847 -5.1175 -6.3745 -5.2395 -8.875001 -5.94 -4.572001 -4.834 -5.3825 -4.74 -5.3565 -5.874001 -3.292 -3.339 -5.264 -7.368 -5.3395 -7.809 -6.6585 
-5.9535 -5.180501 -6.670501 -9.978001 -9.541501 -15.9357 -15.6799 -14.5732 -7.991 -8.880501 -10.403 -9.956501 -9.192 -4.963 -7.7355 -6.6495 -5.9205 -7.462 -6.759501 -4.5995 -6.9335 -8.9505 -10.107 -12.1717 -7.809 
-8.462501 -7.797 -10.054 -11.0524 -19.7072 -18.4439 -18.5684 -17.4467 -10.9998 -14.3434 -11.4845 -13.2085 -10.3895 -7.882501 -9.502001 -7.976501 -8.338501 -8.3915 -8.123501 -8.527 -11.1928 -11.8813 -17.1492 -12.1717 
-10.2375 -11.2985 -11.1648 -21.2181 -22.2154 -21.3324 -21.4419 -20.4555 -16.4627 -15.4249 -14.7365 -14.406 -13.309 -9.961 -10.599 -10.6957 -8.819501 -9.518001 -12.1606 -12.7559 -14.1236 -18.9235 -17.1492 
-6.1785 -3.4075 -4.0085 -3.9665 -2.186 -3.535 -3.5435 -4.454 -1.7695 -2.925 -4.132 -3.5035 -1.756 -3.333 -1.934 -1.4985 -3.59 0 
-8.9055 -6.3745 -5.933 -5.825 -6.8505 -7.6155 -7.205501 -6.1295 -5.921501 -7.277501 -8.457001 -4.74 -5.3565 -5.1705 -2.6125 -4.268 -3.59 
-12.7953 -7.538501 -7.4445 -10.9497 -11.3798 -10.028 -8.727 -10.7025 -8.484001 -12.1947 -9.948 -5.9205 -6.8655 -5.606 -4.955501 -4.268 
-13.9593 -8.98 -12.8264 -15.479 -13.7923 -11.8469 -13.3808 -13.265 -13.8796 -13.6857 -10.379 -7.2475 -7.382 -8.1615 -4.955501 
-15.4008 -14.4963 -17.3557 -17.8915 -15.6112 -16.5007 -15.9433 -18.6606 -15.3706 -14.1167 -11.706 -7.680501 -8.536 -8.1615 
