-4.759 
n/a 
n/a 
n/a 
n/a 
-4.759 
n/a 
n/a 
n/a 
n/a 
-4.759 
n/a 
n/a 
n/a 
n/a 
-4.759 
n/a 
n/a 
n/a 
n/a 
-5.583 0 -5.1875 -3.288 -3.594 0 
-5.583 -5.1875 -7.689501 -7.2145 -3.594 
-11.6215 -7.689501 -12.122 -7.2145 
-14.1235 -12.122 -12.122 
-18.556 -12.122 
-3.473 0 -6.53 -2.229 -4.2655 -3.594 
-3.473 -6.53 -8.434 -6.653 -7.0955 
-8.3825 -8.434 -13.3862 -9.786501 
-10.8861 -13.3862 -16.5197 
-15.8383 -16.5197 
-3.74 0 -5.1875 -3.594 
-3.74 -5.1875 -8.472 
-10.4855 -8.472 
-13.77 
n/a 
-3.717 0 -5.1875 -4.3705 -3.594 
-3.717 -5.1875 -7.598001 -7.124001 
-8.769 -7.598001 -9.519501 
-11.6317 -9.519501 
-13.5532 
