-4.759 
n/a 
n/a 
n/a 
n/a 
-4.759 
n/a 
n/a 
n/a 
n/a 
-4.759 
n/a 
n/a 
n/a 
n/a 
-4.759 
n/a 
n/a 
n/a 
n/a 
-15.8485 -3.5435 -4.742 -9.6455 -4.3035 
-18.27 -8.554001 -15.2813 -14.0724 
-23.5179 -19.6317 -19.7082 
-34.5956 -24.0586 
-39.0225 
-9.2915 0 -6.557 -4.109 -3.3825 
-9.2915 -6.557 -9.3225 -6.012 
-16.0955 -9.3225 -9.6475 
-18.861 -9.6475 
-19.186 
-14.049 -3.5435 -2.229 -3.213 -3.3825 -3.655 
-16.6061 -4.973001 -4.994 -7.253 -6.726 
-18.1501 -7.8325 -9.160001 -11.1975 
-21.0096 -12.4807 -13.5709 
-25.6578 -16.8916 
-13.436 -5.74 -4.109 -3.3825 -3.922 
-10.973 -8.8245 -6.012 -5.7355 
-13.5135 -9.0725 -7.323 
-10.7485 -9.108001 
-10.7215 
