-4.759 
n/a 
n/a 
n/a 
n/a 
-4.759 
n/a 
n/a 
n/a 
n/a 
-4.759 
n/a 
n/a 
n/a 
n/a 
-4.759 
n/a 
n/a 
n/a 
n/a 
-9.814501 -4.311 -4.5545 -1.934 -7.942501 0 -3.8655 -2.186 -4.8165 -1.4985 -3.188 -3.0835 -4.1955 -9.132501 -5.2885 -3.3635 
-14.7785 -7.651 -6.0685 -9.003501 -7.942501 -3.8655 -5.968 -6.0555 -6.0005 -3.619 -6.215 -7.915 -14.337 -14.675 -8.2445 
-17.8084 -10.5745 -13.8286 -9.003501 -8.956 -5.968 -10.533 -7.4025 -8.363001 -6.9565 -11.7179 -18.2207 -19.8795 -17.631 
-20.8165 -18.3346 -13.8286 -9.769001 -11.1437 -10.533 -11.88 -9.887001 -12.2745 -13.0158 -22.0236 -23.7632 -22.8355 
-28.5766 -18.3346 -14.5941 -11.9567 -15.7087 -11.88 -14.3645 -13.9735 -18.3338 -23.3215 -27.5661 -26.7192 
-1.934 -3.3635 -5.2885 -4.8165 -3.8655 -4.672 -4.5545 -2.5045 -4.441 -4.6015 
-4.921 -8.120501 -8.289001 -8.790501 -6.607 -7.6285 -7.212501 -7.5585 -8.825001 
-9.375501 -11.3998 -12.7292 -12.4872 -9.778001 -11.4289 -12.7771 -12.2633 
-12.7108 -15.84 -16.4259 -15.6582 -13.6412 -16.9935 -17.4819 
-17.151 -19.5367 -19.5969 -19.5214 -19.2058 -21.6983 
-1.934 -4.672 -4.311 -4.5545 -1.7695 -8.9215 -3.0835 -3.9675 -3.5015 0 -1.756 -5.2885 -1.934 -3.3635 -4.7615 -1.4985 -3.509 0 
-5.7705 -8.123501 -7.651 -6.7225 -11.6732 -12.2564 -7.9265 -7.395 -3.5015 -1.756 -6.959 -7.134 -4.921 -9.182501 -5.398 -4.917 -3.509 
-10.041 -9.1695 -10.634 -17.3342 -15.0081 -17.0994 -11.705 -7.395 -5.087 -6.959 -8.417 -9.27 -10.354 -10.2045 -9.335501 -4.917 
-11.1506 -12.5705 -21.2457 -20.6691 -19.8511 -20.8779 -11.705 -8.837001 -11.0606 -8.417 -10.1225 -14.8172 -11.376 -14.142 -9.335501 
-14.5516 -23.1822 -24.5806 -25.5121 -23.6296 -20.8779 -13.147 -15.3174 -12.5186 -10.1225 -16.2377 -15.8392 -15.3135 -14.142 
-1.4985 -4.311 -4.1385 -2.5045 -4.672 0 -3.8655 -2.7415 -4.3215 -2.5045 -3.188 -2.229 -3.0835 -4.2465 -3.6445 -2.3345 -5.2885 -2.264 -3.3635 0 
-4.9505 -7.455501 -6.214 -6.814 -4.672 -3.8655 -6.652 -5.758 -6.389 -6.2815 -4.279 -4.6705 -7.9265 -7.5995 -6.021 -6.7305 -7.638 -6.2465 -3.3635 
-7.8765 -9.118501 -10.181 -6.814 -5.712 -6.652 -9.487 -7.098001 -9.903501 -6.997 -5.6045 -8.674 -10.4265 -9.822001 -11.12 -8.5845 -12.3031 -6.2465 
-9.143001 -13.6415 -10.181 -8.6365 -8.5795 -9.487 -10.3625 -10.688 -10.4465 -8.862 -9.7465 -11.4394 -14.155 -15.0872 -12.974 -13.5114 -12.3031 
-13.7264 -13.6415 -12.1651 -11.7164 -11.8019 -10.3625 -13.9525 -11.231 -12.3115 -13.273 -12.8145 -15.1679 -19.4202 -16.9412 -17.9009 -13.5114 
