-4.759 
n/a 
n/a 
n/a 
n/a 
-4.759 
n/a 
n/a 
n/a 
n/a 
-4.759 
n/a 
n/a 
n/a 
n/a 
-4.759 
n/a 
n/a 
n/a 
n/a 
-4.426 -1.7565 -1.4985 -3.0835 -4.7285 -4.1555 -3.147 -4.57 -1.7565 -4.628 -4.743 
-5.47 -2.4195 -3.535 -6.042 -8.4455 -5.77 -8.9255 -5.9245 -6.107501 -4.7515 
-5.9535 -4.6785 -6.335501 -9.523001 -9.541501 -11.6895 -10.5824 -10.9331 -6.281001 
-8.021 -7.476501 -10.0095 -10.7035 -15.461 -13.3464 -15.591 -11.1066 
-9.983001 -11.3061 -11.3 -16.623 -17.1179 -18.355 -15.7645 
-6.6585 -2.229 -4.116 
-9.037001 -6.6425 
-13.6919 
n/a 
n/a 
-4.67 -1.7565 -4.628 -4.743 0 
-6.639 -6.107501 -4.7515 -4.743 
-11.5846 -6.281001 -4.7515 
-11.7581 -6.281001 
-11.7581 
-4.628 -5.939 -4.9985 
-5.9615 -12.0821 
-12.1656 
n/a 
n/a 
