-4.759 
n/a 
n/a 
n/a 
n/a 
-4.759 
n/a 
n/a 
n/a 
n/a 
-4.759 
n/a 
n/a 
n/a 
n/a 
-4.759 
n/a 
n/a 
n/a 
n/a 
-2.872 0 -2.9805 -4.424 -1.934 -14.8375 
-2.872 -2.9805 -5.500501 -5.195 -17.105 
-4.6545 -5.500501 -6.1885 -21.9538 
-7.401 -6.1885 -23.3391 
-8.200001 -23.3391 
-2.872 -2.9805 -2.7415 -4.424 -1.934 -5.246 -4.747 
-4.6545 -4.004 -8.262 -5.195 -8.398001 -10.5305 
-5.722 -9.145501 -9.086 -10.259 -12.2855 
-10.7595 -9.811001 -14.2718 -12.5575 
-11.425 -14.9334 -16.5703 
-4.013 -2.9805 -4.424 -1.934 -5.246 -3.9055 
-5.614 -5.500501 -5.195 -8.398001 -9.566 
-8.311 -6.1885 -10.259 -10.348 
-8.854 -11.6443 -12.209 
-14.3752 -13.5943 
-2.872 -2.9805 -4.424 -1.934 -4.747 -5.246 
-4.6545 -5.500501 -5.195 -6.006001 -10.1845 
-7.401 -6.1885 -9.823 -11.3305 
-8.200001 -9.927501 -12.619 
-11.235 -13.5049 
