-4.759 
n/a 
n/a 
n/a 
n/a 
-4.759 
n/a 
n/a 
n/a 
n/a 
-4.759 
n/a 
n/a 
n/a 
n/a 
-4.759 
n/a 
n/a 
n/a 
n/a 
-3.4225 -1.4985 -4.4605 -2.186 -3.699 -3.6885 -2.0935 -4.0325 -1.4985 -4.5675 
-6.5985 -6.107 -7.2295 -4.636 -6.8325 -5.407001 -6.043 -6.269 -5.37 
-11.6544 -8.457001 -10.082 -9.434 -8.108 -9.811001 -9.592501 -10.5745 
-14.0044 -11.3557 -14.88 -10.7797 -12.554 -13.3605 -13.9518 
-16.9031 -16.1537 -16.2257 -15.2257 -16.1035 -17.7198 
-4.335 -2.229 -3.3875 -2.489 -3.4225 -3.0415 -5.358 -4.732 -2.3335 -1.7695 -4.397 -1.756 -4.101 -2.5045 -1.8085 -3.515 -3.0415 -3.0365 -2.7415 -1.8085 -3.845 -4.4685 -4.4825 0 
-5.852 -6.014501 -3.7975 -6.658 -7.9065 -8.5985 -7.179501 -7.120501 -5.0415 -5.136 -5.876 -5.32 -6.5365 -3.3625 -4.817 -6.49 -5.1375 -4.2225 -3.891 -3.9645 -10.0785 -9.1435 -4.4825 
-10.4585 -6.559 -7.8455 -9.1905 -13.8239 -9.9645 -9.706 -10.553 -6.525001 -6.504 -9.468 -7.705501 -7.614501 -5.855 -7.637 -8.374001 -6.3495 -4.725 -5.861 -10.5035 -14.7535 -9.1435 
-11.2962 -10.6875 -10.427 -15.4587 -15.1899 -12.5604 -13.2687 -12.0365 -7.8415 -9.9635 -11.8517 -8.9525 -9.779501 -8.150001 -9.467 -9.441501 -6.987 -6.1765 -13.1676 -15.1785 -14.7535 
-15.4247 -13.269 -16.8184 -16.8247 -17.7858 -16.1231 -14.7522 -13.353 -11.5084 -12.3436 -13.0987 -11.1455 -12.2073 -9.8315 -10.5875 -10.036 -7.772501 -14.4891 -17.8426 -15.1785 
-2.925 -3.331 -1.7695 -4.1665 -2.0935 -1.4985 -5.434 -1.7565 -2.5685 -4.4605 -3.43 -4.4685 -1.934 -5.86 
-4.8455 -3.669 -5.055 -4.934 -2.9725 -7.868 -8.304501 -3.938 -6.823 -8.1035 -9.1575 -5.5765 -8.337501 
-5.0985 -6.363 -5.5915 -5.498 -9.464001 -9.009001 -10.223 -8.113501 -10.3895 -14.0642 -9.965 -9.225 
-8.304501 -6.7425 -6.176 -12.4775 -10.6755 -11.2629 -14.5047 -11.8748 -16.58 -14.8717 -13.6135 
-8.833 -7.343 -13.2979 -13.689 -12.9294 -15.5446 -18.266 -18.0653 -17.3875 -18.5202 
-3.0365 -2.7415 -1.8085 -4.4685 -1.934 -1.4985 -4.019 0 -3.851 -1.7695 -1.4985 -4.9325 -5.358 -2.0935 -1.4985 -4.0375 -1.7565 -2.5685 -4.4605 0 
-4.2225 -3.891 -5.7975 -5.5765 -2.6125 -5.0065 -4.019 -3.851 -4.0015 -2.7955 -6.131001 -10.862 -5.943 -2.9725 -5.0015 -5.415501 -3.938 -6.823 -4.4605 
-4.725 -7.5625 -6.3525 -6.3335 -5.996 -5.0065 -7.6945 -4.0015 -4.5775 -7.441501 -12.6115 -11.447 -6.5465 -6.6155 -5.943 -7.149001 -8.113501 -6.823 
-7.6095 -7.909 -6.9525 -8.998501 -5.996 -9.112501 -7.7445 -4.5775 -9.455 -14.123 -13.1965 -12.0505 -10.2865 -7.381001 -7.3145 -11.7717 -8.113501 
-7.9465 -8.443501 -9.472501 -8.998501 -9.7775 -9.1575 -8.178 -9.455 -16.2759 -14.708 -13.8 -15.7905 -11.052 -8.847501 -11.9808 -11.7717 
