-4.759 
n/a 
n/a 
n/a 
n/a 
-4.759 
n/a 
n/a 
n/a 
n/a 
-4.759 
n/a 
n/a 
n/a 
n/a 
-4.759 
n/a 
n/a 
n/a 
n/a 
-3.188 -3.518 -3.308 -3.86 0 -3.688 -4.554 -3.188 -3.518 -3.7205 -3.86 
-7.135 -7.8365 -8.351 -3.86 -3.688 -8.867001 -9.1415 -7.135 -8.7445 -9.43 
-11.7519 -13.4607 -8.351 -8.157001 -8.867001 -13.6667 -13.4119 -12.6599 -14.6764 
-17.3761 -13.4607 -13.6064 -13.6586 -13.6667 -17.9371 -18.9368 -18.5918 
-17.3761 -18.7161 -19.108 -18.4583 -17.9371 -23.462 -24.8687 
-4.338 -1.7565 -4.1865 -7.498 -1.7565 -4.1865 -3.16 -4.617 -3.688 
-5.28 -6.2625 -12.806 -10.239 -6.2625 -6.669 -9.5895 -7.805 
-10.6095 -15.5274 -14.271 -15.5921 -8.891001 -13.5979 -12.8771 
-20.2984 -16.917 -19.6005 -18.2206 -16.2439 -16.8855 
-21.264 -22.2465 -22.229 -25.5735 -19.5315 
-3.188 -4.0005 -3.16 -4.142 0 -3.688 -4.554 -3.432 -3.898 
-4.969501 -5.2365 -8.599 -4.142 -3.688 -8.867001 -7.925 -7.3875 
-5.246 -10.1505 -8.599 -8.150001 -8.867001 -12.4502 -12.5251 
-10.1505 -10.1505 -13.0182 -14.6626 -12.4502 -17.0503 
-10.1505 -16.1461 -19.5308 -18.2458 -17.0503 
-3.188 -4.0005 -3.432 -3.893 
-4.969501 -7.203 -6.660501 
-8.4455 -11.1347 
-12.5914 
n/a 
