-4.759 
n/a 
n/a 
n/a 
n/a 
-4.759 
n/a 
n/a 
n/a 
n/a 
-4.759 
n/a 
n/a 
n/a 
n/a 
-4.759 
n/a 
n/a 
n/a 
n/a 
-4.617 0 -10.6925 0 -5.943501 0 
-4.617 -10.6925 -10.6925 -5.943501 -5.943501 
-15.7037 -10.6925 -16.636 -5.943501 
-15.7037 -16.636 -16.636 
-21.6472 -16.636 
-4.617 0 -6.762 -5.994 0 -5.943501 0 
-4.617 -6.762 -9.207001 -5.994 -5.943501 -5.943501 
-11.0805 -9.207001 -9.207001 -10.575 -5.943501 
-13.5255 -9.207001 -13.9218 -10.575 
-13.5255 -13.9218 -13.9218 
-11.7515 0 -5.943501 0 
-12.1457 -5.943501 -5.943501 
-16.0257 -5.943501 
-16.0257 
n/a 
-4.617 -8.7825 -5.994 0 -5.943501 0 
-13.7937 -15.0709 -5.994 -5.943501 -5.943501 
-20.0821 -15.0709 -10.575 -5.943501 
-20.0821 -19.6519 -10.575 
-24.6631 -19.6519 
