-4.759 
n/a 
n/a 
n/a 
n/a 
-4.759 
n/a 
n/a 
n/a 
n/a 
-4.759 
n/a 
n/a 
n/a 
n/a 
-4.759 
n/a 
n/a 
n/a 
n/a 
-3.571 -3.7075 -1.7565 -6.2935 -1.7565 -3.7075 -2.186 -4.554 -2.3345 -1.4985 -3.949 -1.7565 -4.983 -2.186 -5.52 -2.3345 -1.4985 -4.6625 -1.7565 -4.365 -3.2 
-6.351 -4.51 -6.959 -7.3205 -5.7275 -5.825 -5.002501 -5.106 -3.233 -5.016 -4.7425 -7.086 -7.295 -7.6 -6.808001 -3.233 -5.6815 -5.9705 -5.782001 -5.4195 
-6.948 -11.586 -8.665001 -11.4835 -8.22 -9.865 -5.2015 -6.383501 -6.8695 -5.125 -9.9405 -8.772 -12.9856 -8.908 -7.846001 -7.506001 -6.12 -10.8642 -7.427501 
-14.7838 -13.6416 -14.1721 -14.8604 -12.4388 -10.1124 -7.1415 -9.750001 -6.977 -10.6215 -11.6265 -14.4872 -14.2936 -9.7155 -12.3386 -8.576 -11.2193 -12.5097 
-16.5528 -18.5152 -17.1704 -19.0792 -12.6862 -12.0524 -10.2475 -9.8345 -12.7237 -12.3075 -17.3417 -15.7952 -15.1011 -14.2493 -13.4086 -13.8351 -12.8648 
-1.934 -3.571 -3.7075 -2.0935 -4.7195 -5.2005 -3.326 -1.4985 -3.9035 -1.7565 -1.4985 -3.7075 -3.7345 -1.7695 -3.197 -1.4985 -3.7515 -1.7565 -1.4985 -3.7075 
-4.9705 -6.351 -4.666 -6.6195 -10.0445 -9.787001 -5.3015 -5.498 -4.616 -2.4195 -4.6235 -8.026 -5.4305 -3.9565 -4.291 -4.705501 -4.6045 -2.4195 -4.6235 
-7.8985 -7.397501 -8.8035 -12.6041 -14.6286 -11.8983 -9.530001 -6.046 -4.895 -5.468501 -8.696501 -10.3815 -7.783501 -4.7825 -8.264001 -4.844501 -5.7455 -5.468501 
-9.554001 -11.743 -15.3719 -17.1882 -16.7399 -16.1268 -10.0655 -6.3415 -8.616 -9.4195 -11.221 -12.7345 -8.6005 -8.519 -8.682001 -5.9585 -8.343 
-13.9837 -18.3114 -19.956 -19.2995 -20.9684 -16.6623 -10.492 -9.517 -12.828 -11.9964 -13.574 -13.5515 -12.476 -9.087501 -9.183001 -8.795501 
-1.4985 -3.7515 -1.7565 -3.7075 -2.186 -4.3215 -2.3345 -1.4985 -4.7295 -4.969 -1.934 -3.7075 0 
-4.705501 -4.6045 -5.7275 -5.825 -5.745501 -5.1005 -3.233 -5.615001 -6.7685 -6.127501 -6.1845 -3.7075 
-4.844501 -9.3215 -8.22 -10.0285 -6.357501 -5.379 -7.706 -7.843501 -7.889 -11.0948 -6.1845 
-10.2695 -12.0344 -12.6023 -10.6395 -6.821001 -10.459 -9.4525 -8.912001 -13.2147 -11.0948 
-12.9824 -16.4167 -13.2133 -11.957 -12.5836 -12.7055 -10.16 -14.4617 -13.2147 
-3.3255 -3.571 -7.7795 -4.3395 -3.7075 -3.833 -4.449 -4.969 -1.756 -4.6305 -1.4985 -3.784 -3.7515 -1.7565 -3.7075 -1.934 -1.4985 -4.365 -3.3975 0 
-6.3265 -10.119 -13.3046 -7.807001 -8.006001 -9.1525 -7.3 -6.1315 -6.01 -5.7585 -4.6165 -6.029 -4.6045 -5.7275 -6.0775 -2.6125 -5.4465 -8.682001 -3.3975 
-13.2151 -16.5175 -16.7721 -12.5917 -13.8897 -12.1471 -8.495501 -11.1467 -7.0385 -8.6295 -6.3795 -6.306 -9.3215 -7.926001 -6.692 -6.366 -9.406 -8.682001 
-19.6136 -19.985 -21.5568 -18.4754 -16.8843 -13.3426 -13.6967 -12.1752 -10.022 -10.597 -6.5435 -11.6624 -11.7404 -8.381001 -8.656501 -10.4945 -9.406 
-23.0811 -24.7697 -27.4405 -21.47 -18.0798 -18.5438 -14.7252 -15.1587 -11.9895 -10.693 -12.0483 -14.0813 -12.1954 -10.5881 -13.627 -10.4945 
