-4.759 
n/a 
n/a 
n/a 
n/a 
-4.759 
n/a 
n/a 
n/a 
n/a 
-4.759 
n/a 
n/a 
n/a 
n/a 
-4.759 
n/a 
n/a 
n/a 
n/a 
0 -1.934 -3.539 -3.3635 -2.9805 -4.369 -3.7015 -4.5185 -9.746 0 -3.7555 -3.7925 0 -4.037 -1.756 -4.645 -1.7695 -4.285 -3.545 
-1.934 -5.011 -5.2625 -6.203 -8.926001 -7.257001 -8.198501 -15.2625 -9.746 -3.7555 -8.002501 -3.7925 -4.037 -5.766 -6.3775 -5.484001 -6.204501 -6.5315 
-5.011 -6.534 -8.069501 -12.8629 -12.066 -12.072 -19.3521 -15.2625 -13.6641 -8.002501 -8.002501 -8.022 -5.766 -9.312 -7.3515 -10.3605 -9.247001 
-6.534 -8.3 -14.8502 -16.0029 -16.881 -23.2256 -19.3521 -19.1806 -17.9111 -8.002501 -12.6478 -10.4945 -9.312 -10.576 -12.5322 -10.554 
-8.3 -15.0651 -17.9902 -20.8179 -28.0346 -23.2256 -23.2702 -23.4276 -17.9111 -12.6478 -15.1203 -14.0405 -10.576 -15.7567 -12.7257 
-3.986 -3.9955 -1.4985 -4.219 -3.7925 0 -4.037 -2.5045 -3.705 -3.3635 
-6.5985 -5.0175 -5.129 -8.634501 -3.7925 -4.037 -6.101 -6.8525 -5.4315 
-7.2615 -6.9585 -9.622 -8.634501 -8.022 -6.101 -11.46 -10.041 
-7.985001 -11.9517 -9.622 -13.3418 -10.8088 -11.46 -14.6485 
-13.1298 -11.9517 -14.6221 -16.1286 -16.1678 -14.6485 
-3.5455 -1.4985 -3.539 -3.3635 -4.219 0 -3.986 -4.369 -3.7015 -4.5185 -6.3305 -1.756 -3.0465 -3.7925 0 -1.7565 -4.1855 -1.756 -4.4275 -3.222 -1.4985 -4.698 0 
-3.91 -5.719501 -5.2625 -6.5575 -4.219 -3.986 -8.741501 -7.257001 -8.198501 -11.847 -8.355 -4.477 -7.478001 -3.7925 -1.7565 -5.711 -6.14 -6.068 -5.144 -3.7835 -5.740001 -4.698 
-7.420001 -7.4065 -8.181001 -6.5575 -7.303 -8.741501 -11.9149 -12.072 -15.9366 -13.8715 -11.224 -8.178 -7.478001 -5.573501 -5.711 -7.12 -10.316 -6.6265 -5.940001 -8.0365 -5.740001 
-8.851001 -8.272 -8.181001 -9.816 -12.4705 -11.9149 -16.7299 -19.8101 -17.9611 -16.7405 -14.925 -8.178 -8.084001 -9.355 -7.12 -11.813 -10.9711 -7.2335 -10.6735 -8.0365 
-9.473001 -8.272 -11.6743 -15.0515 -15.6439 -16.7299 -24.468 -21.8346 -20.8301 -20.4415 -14.925 -8.280001 -12.8091 -10.9836 -11.813 -12.4681 -11.5781 -12.1552 -10.6735 
0 -1.934 -1.4985 -3.539 -3.3635 -4.492 0 -3.986 -2.7415 -4.645 -1.7695 -1.4985 -4.285 -3.545 -3.275 0 -5.7825 -4.5185 -5.928 0 
-1.934 -2.6125 -5.719501 -5.2625 -8.359501 -4.492 -3.986 -6.0125 -5.6165 -5.484001 -2.7955 -4.774 -6.5315 -7.2685 -3.275 -5.7825 -9.646501 -6.836 -5.928 
-2.6125 -6.3675 -7.4065 -9.6955 -8.359501 -7.538 -6.0125 -7.218 -6.170001 -5.949501 -6.0745 -6.723001 -10.66 -7.2685 -9.8035 -9.646501 -10.0245 -6.836 
-6.3675 -7.955501 -12.4931 -9.6955 -10.564 -9.5185 -7.218 -8.284 -6.377501 -9.226501 -7.941 -11.2957 -10.66 -14.351 -13.6285 -10.0245 -10.0245 
-7.955501 -13.3853 -12.4931 -12.8168 -13.8799 -11.02 -8.284 -8.597 -9.687 -9.343501 -12.9377 -11.2957 -17.7425 -18.176 -14.0065 -10.0245 
