-4.759 
n/a 
n/a 
n/a 
n/a 
-4.759 
n/a 
n/a 
n/a 
n/a 
-4.759 
n/a 
n/a 
n/a 
n/a 
-4.759 
n/a 
n/a 
n/a 
n/a 
-3.4765 -3.929 -4.7855 -2.674 -4.657 -3.147 -3.436 -4.3075 -3.7515 0 -1.4985 -4.891 -5.6025 -2.4945 -4.7815 -1.7695 -2.674 -5.78 -2.5195 -1.4985 -1.4985 -4.5735 -5.3625 -1.7565 -3.502 -3.75 -4.317 -3.8745 0 
-4.589 -8.280001 -6.294 -5.782 -6.3745 -5.85 -8.552501 -5.822001 -3.7515 -1.4985 -5.983001 -6.6165 -6.914001 -6.052 -5.3125 -3.8225 -6.9535 -6.151 -3.1695 -4.935 -5.271 -7.8275 -5.8455 -4.9855 -5.0795 -5.846001 -8.612501 -3.8745 
-8.689501 -9.1085 -8.4525 -7.0245 -8.1285 -11.5865 -9.734 -5.822001 -5.693501 -5.983001 -8.727001 -8.147 -9.715 -6.081 -6.0265 -7.7995 -7.176 -6.7695 -6.5285 -8.7325 -7.972501 -8.01 -8.243 -6.653 -6.633 -9.142501 -8.612501 
-9.470501 -11.3338 -10.1345 -9.335501 -14.1284 -12.768 -9.734 -7.546 -10.1115 -8.727001 -10.3885 -11.2074 -9.749001 -6.7515 -8.52 -7.928 -7.8975 -10.0005 -10.3475 -11.5372 -8.1005 -10.513 -10.103 -7.343 -9.217501 -9.142501 
-11.6978 -13.0158 -12.5059 -15.3882 -15.3099 -12.768 -12.3788 -12.433 -13.0591 -10.3885 -13.4489 -11.2414 -10.164 -9.3415 -8.5425 -8.663001 -11.6099 -14.1889 -13.1522 -11.6652 -10.6255 -12.373 -10.8554 -10.3805 -9.217501 
-3.4765 -3.929 -3.1385 -2.4945 -3.8245 -2.5195 -4.3075 -3.7515 0 -2.4265 -2.186 -3.264 -2.3335 -2.925 -2.674 -4.339 -3.8515 -2.5195 -3.0365 -1.7695 -3.502 -3.75 -3.994 -3.8375 
-4.589 -6.896501 -4.588 -5.751 -6.387 -6.9335 -5.822001 -3.7515 -2.4265 -3.292 -5.316 -4.533 -4.0295 -4.1785 -5.694 -6.284 -4.4615 -5.2895 -5.136001 -5.535 -5.0795 -5.276 -8.345 
-7.3585 -7.805 -6.897501 -8.509501 -11.5194 -8.324 -5.822001 -6.289001 -3.292 -5.862 -6.1675 -5.917 -5.151 -7.085001 -7.246 -6.503 -7.444 -6.536 -9.3415 -7.2295 -5.751 -10.259 
-8.229501 -10.0675 -9.583 -14.0163 -12.9099 -8.324 -8.4665 -6.814 -5.862 -6.1755 -7.8465 -7.235001 -8.114 -8.593 -7.3935 -8.9145 -9.193001 -9.5465 -11.1738 -7.577 -10.513 
-10.3405 -13.0674 -15.2952 -15.4068 -12.9099 -11.3941 -9.163501 -9.1815 -6.1755 -7.8545 -9.017 -10.084 -9.6195 -8.713 -10.3885 -10.064 -12.2489 -11.4294 -11.5213 -12.7372 
-2.4265 -2.186 -4.7815 -2.3335 -4.7855 -3.0695 -4.657 -3.436 -4.3075 -3.7515 -2.4945 -9.43 -1.7565 -3.502 -3.75 -4.317 -3.8745 0 
-3.292 -5.5035 -5.3995 -6.275001 -6.7115 -5.7825 -7.1325 -8.552501 -5.822001 -6.409 -13.3527 -9.514 -4.9855 -5.0795 -5.846001 -8.612501 -3.8745 
-6.001 -6.1675 -8.490001 -8.6625 -8.787001 -7.9055 -12.7554 -9.734 -8.756001 -17.6722 -13.4367 -13.6152 -6.653 -6.633 -9.142501 -8.612501 
-6.17 -9.3555 -11.0483 -10.396 -10.5035 -13.9936 -13.9369 -13.5888 -20.248 -17.7562 -17.5379 -15.2827 -7.343 -9.217501 -9.142501 
-9.356 -12.1796 -12.7818 -12.1125 -16.5916 -15.1751 -17.7917 -25.0808 -20.332 -21.8574 -19.2054 -15.9727 -10.3805 -9.217501 
-2.5195 -4.5735 -3.4795 -4.7855 -4.657 -2.872 -7.291501 -3.8745 -4.2215 -6.6045 -2.925 -2.4945 -5.3545 
-6.318501 -7.4725 -9.046 -8.0775 -7.0535 -10.9575 -12.0724 -7.092501 -11.9512 -8.569 -3.7675 -7.6965 
-8.588501 -10.757 -12.596 -10.7944 -15.2908 -15.7384 -15.2904 -16.8274 -13.9157 -9.3715 -8.4565 
-12.0632 -14.307 -15.3129 -19.0317 -20.0717 -18.9564 -25.0253 -18.7919 -14.7182 -14.1243 
-15.6132 -17.0239 -23.5502 -23.8126 -23.2897 -28.6913 -26.9898 -19.5944 -19.471 
