-4.759 
n/a 
n/a 
n/a 
n/a 
-4.759 
n/a 
n/a 
n/a 
n/a 
-4.759 
n/a 
n/a 
n/a 
n/a 
-4.759 
n/a 
n/a 
n/a 
n/a 
-3.6215 -1.7565 -4.455 -3.074 -3.383 -3.699 
-3.936 -5.759501 -7.695001 -5.617001 -5.014 
-6.6655 -8.988501 -10.7194 -6.780001 
-9.9425 -12.0247 -11.8824 
-12.9787 -13.1877 
-4.455 -3.6215 -3.074 -3.17 -3.699 0 
-6.969501 -6.476501 -6.6185 -4.663 -3.699 
-9.844501 -10.7565 -8.5105 -4.663 
-14.1245 -12.6485 -8.5105 
-16.0165 -12.6485 
-8.750501 -2.186 -8.0935 -2.871 
-10.884 -9.163501 -10.2865 
-17.8615 -11.7841 
-20.4821 
n/a 
-3.5005 -4.455 -3.6215 
-7.528501 -6.969501 
-10.515 
n/a 
n/a 
