-4.759 
n/a 
n/a 
n/a 
n/a 
-4.759 
n/a 
n/a 
n/a 
n/a 
-4.759 
n/a 
n/a 
n/a 
n/a 
-4.759 
n/a 
n/a 
n/a 
n/a 
-1.4985 -3.859 -4.126 -3.644 -4.5315 -4.177 
-4.4795 -6.577001 -7.955001 -8.944 -8.585001 
-6.798 -10.8524 -13.258 -13.1907 
-11.345 -16.1554 -17.5047 
-16.648 -20.4021 
-3.859 -9.495001 -3.458 -4.5315 
-14.1435 -11.6125 -7.4455 
-15.4976 -15.281 
-19.1661 
n/a 
-3.859 -3.717 0 -2.7455 -4.5315 -4.177 0 
-6.966001 -3.717 -2.7455 -7.9975 -8.585001 -4.177 
-6.966001 -6.571 -7.9975 -12.4518 -8.585001 
-10.5975 -12.7756 -12.4518 -12.4518 
-16.8021 -17.2299 -12.4518 
-3.859 -3.892 0 -3.402 -2.915 -2.7455 -4.5315 
-7.612 -3.892 -3.402 -6.0975 -4.0865 -7.9975 
-7.612 -6.8025 -6.0975 -7.317 -9.618501 
-10.2865 -9.153501 -7.317 -13.5754 
-13.0413 -10.7498 -13.5754 
