-4.759 
n/a 
n/a 
n/a 
n/a 
-4.759 
n/a 
n/a 
n/a 
n/a 
-4.759 
n/a 
n/a 
n/a 
n/a 
-4.759 
n/a 
n/a 
n/a 
n/a 
-2.872 -2.4265 -2.186 -3.383 -3.689 -1.934 -8.088 -3.59 0 
-4.062 -3.292 -4.438 -7.358 -5.870501 -10.468 -12.0826 -3.59 
-4.7985 -5.166 -8.009001 -8.96 -14.9101 -14.4626 -12.0826 
-6.554501 -9.592 -9.300501 -18.177 -18.9047 -14.4626 
-11.0137 -10.7595 -18.5705 -22.1716 -18.9047 
-2.872 -2.3615 -3.371 -2.4945 -4.9575 -1.934 -6.864 -4.0965 
-4.6665 -7.099501 -5.5365 -6.084001 -6.873501 -9.2825 -8.968 
-10.354 -9.147 -8.9385 -8.021 -14.6462 -11.5747 
-12.4015 -12.6302 -9.852501 -16.2711 -16.9384 
-15.8847 -13.5442 -19.416 -18.5633 
-2.872 -1.934 -6.864 -5.2875 -3.2775 -4.182 -2.4945 -3.383 -4.5345 0 
-4.659 -9.2825 -8.533 -8.847501 -6.6105 -5.959 -4.732 -5.8805 -4.5345 
-12.6893 -10.761 -12.3548 -12.5663 -7.6175 -8.291 -6.897501 -5.8805 
-14.1678 -14.5828 -16.0736 -13.5733 -9.969001 -10.586 -6.897501 
-17.9896 -18.3016 -17.0806 -15.9248 -12.264 -10.586 
-1.934 -1.4985 -12.16972 -3.59 -2.3615 -3.319 -1.7565 -5.009 -3.152 -3.689 -3.8225 
-2.6125 -14.76202 -15.75972 -6.0655 -4.9575 -4.165 -6.285501 -6.9835 -5.8975 -6.213 
-16.27022 -18.35202 -18.23522 -8.788 -5.092 -8.29 -8.485001 -9.797501 -7.990001 
-19.86022 -20.82752 -20.95772 -8.801001 -9.571 -10.5865 -11.3376 -11.7648 
-22.33572 -23.55002 -20.97072 -13.3056 -11.8849 -13.4391 -13.3049 
