-4.759 
n/a 
n/a 
n/a 
n/a 
-4.759 
n/a 
n/a 
n/a 
n/a 
-4.759 
n/a 
n/a 
n/a 
n/a 
-4.759 
n/a 
n/a 
n/a 
n/a 
-3.995 -2.229 -8.2235 -7.087 -4.3395 
-5.324 -10.082 -15.9171 -9.892 
-14.4902 -17.8738 -18.7221 
-22.282 -20.6788 
-25.087 
-3.995 -2.229 -4.6465 -3.4425 -7.087 0 -7.087 0 -7.087 0 -4.486 
-5.324 -7.153 -5.7965 -11.117 -7.087 -7.087 -7.087 -7.087 -7.087 -4.486 
-10.085 -8.3385 -13.9752 -11.117 -9.299001 -7.087 -9.299001 -7.087 -9.3715 
-11.4863 -16.8074 -13.9752 -13.329 -9.299001 -9.299001 -9.299001 -9.3715 
-19.9552 -16.8074 -16.1872 -13.329 -10.173 -9.299001 -11.9433 
-2.0935 -3.995 -2.229 -5.8815 -7.087 -4.486 
-5.767 -5.324 -7.7535 -9.7705 -9.3715 
-7.6755 -8.274 -10.4675 -12.558 
-10.7443 -10.476 -13.255 
-12.9463 -13.2635 
-7.087 -2.186 -3.2955 -1.7695 -4.85 -4.5905 -5.8815 
-8.906 -4.348001 -3.9425 -5.204 -10.9575 -10.4265 
-10.76 -4.837 -5.952 -11.5901 -16.7935 
-11.249 -6.696001 -12.5277 -17.4261 
-13.108 -13.6411 -18.3637 
