-4.759 
n/a 
n/a 
n/a 
n/a 
-4.759 
n/a 
n/a 
n/a 
n/a 
-4.759 
n/a 
n/a 
n/a 
n/a 
-4.759 
n/a 
n/a 
n/a 
n/a 
-3.691 -3.6075 -4.445 -5.155 -4.2215 -3.616 -3.5485 
-7.677501 -8.1705 -10.0855 -9.529501 -7.757 -5.8215 
-12.8267 -14.0738 -14.46 -13.2944 -9.029501 
-18.73 -18.4483 -18.2249 -14.5669 
-23.1045 -22.2132 -19.4974 
-21.548 -4.5085 0 -3.691 -2.229 -4.1205 -4.445 0 -3.616 -4.385 -2.5195 -4.567 0 
-21.5228 -4.5085 -3.691 -5.0855 -5.7835 -6.434 -4.445 -3.616 -7.4115 -6.6545 -6.352 -4.567 
-22.3442 -8.5045 -5.0855 -8.458 -8.3525 -6.434 -8.698 -7.4115 -9.474001 -9.762 -6.352 
-24.9067 -9.5795 -8.458 -9.992001 -8.3525 -11.4638 -12.9435 -9.474001 -12.6577 -9.762 
-25.1167 -13.4722 -9.992001 -9.992001 -13.3535 -15.7093 -15.006 -12.6577 -12.6577 
-3.691 0 -2.229 -4.2165 -4.445 -2.186 -3.616 -4.385 -1.7565 -8.093 
-3.691 -2.229 -5.901 -6.9965 -6.545 -5.979 -7.4115 -5.5725 -10.419 
-5.0855 -5.901 -9.175 -9.014001 -10.1505 -10.468 -9.4905 -15.4144 
-9.742001 -9.175 -11.2265 -12.9489 -14.8281 -12.547 -19.3506 
-13.1434 -11.2265 -15.1614 -17.6265 -16.9071 -22.4071 
-6.8295 -4.5085 0 -3.691 -2.229 -4.1205 -4.445 -2.7415 -1.8085 -3.616 -4.1105 -2.5195 -4.567 0 
-6.879 -4.5085 -3.691 -5.0855 -5.7835 -6.434 -6.895 -3.891 -5.1065 -6.222 -6.1825 -6.352 -4.567 
-6.879 -8.5045 -5.0855 -8.458 -8.3525 -8.712501 -8.246 -6.9245 -6.832 -8.324 -9.462501 -6.352 
-9.441501 -9.5795 -8.458 -9.992001 -10.435 -10.007 -11.4593 -8.3975 -8.7075 -10.7595 -9.462501 
-9.651501 -13.4722 -9.992001 -13.2115 -11.7295 -13.2203 -12.9323 -9.882501 -11.1958 -10.7595 
