-4.759 
n/a 
n/a 
n/a 
n/a 
-4.759 
n/a 
n/a 
n/a 
n/a 
-4.759 
n/a 
n/a 
n/a 
n/a 
-4.759 
n/a 
n/a 
n/a 
n/a 
-1.4985 -4.3225 -2.9705 -3.6845 -3.595 -3.9035 
-5.8325 -6.779 -6.2615 -5.4585 -8.530001 
-8.097 -9.683001 -8.4385 -10.001 
-11.204 -11.9846 -13.0926 
-13.5056 -16.6387 
-3.9795 -4.081 -4.3225 -1.7695 -3.595 
-9.078001 -8.6765 -6.157001 -4.741 
-13.8927 -9.0745 -9.969501 
-14.2907 -13.3988 
-18.615 
-4.3225 -2.9705 -4.706 -3.595 -3.9035 
-6.779 -6.92 -6.41 -8.530001 
-9.9305 -7.491 -9.139501 
-10.5905 -10.702 
-13.8015 
-3.4635 -4.1455 -2.4945 -3.7555 -3.9795 
-7.692 -5.869 -7.723001 -8.91 
-8.7215 -11.6953 -13.1719 
-14.8626 -17.1442 
-20.3115 
