-4.759 
n/a 
n/a 
n/a 
n/a 
-4.759 
n/a 
n/a 
n/a 
n/a 
-4.759 
n/a 
n/a 
n/a 
n/a 
-4.759 
n/a 
n/a 
n/a 
n/a 
-3.0415 0 -2.8705 -4.1355 -3.8725 -2.3345 -3.8725 -2.915 -3.6845 -2.3345 -3.1335 
-3.0415 -2.8705 -7.0015 -8.763 -4.892 -4.9005 -7.5435 -7.01 -7.035 -6.0765 
-5.995 -7.0015 -12.4264 -9.557 -4.905 -7.755 -12.1797 -9.8505 -11.3466 
-10.389 -12.4264 -13.2204 -9.562 -7.7565 -12.8744 -15.0202 -14.2717 
-15.8139 -13.2204 -13.2254 -12.9915 -12.8819 -15.7149 -19.4414 
-3.0415 -2.3335 -1.4985 -3.1335 -3.307 -4.298 -3.098 -1.4985 -3.845 -2.4285 -3.8725 -2.3345 -3.8725 -3.645 
-4.132 -3.3515 -4.5045 -5.3285 -7.93 -6.877501 -4.514 -5.428 -6.181001 -6.6415 -4.892 -4.9005 -7.089 
-4.91 -6.1815 -6.884 -9.331 -11.0297 -8.875001 -8.054501 -8.39 -10.0065 -8.106501 -4.905 -8.863501 
-7.9485 -8.8255 -9.790001 -12.6121 -13.0272 -12.6115 -11.2313 -12.4565 -13.3989 -8.1225 -8.864 
-10.3405 -12.0165 -13.2759 -14.6096 -16.7637 -15.7883 -15.2978 -15.8489 -13.4149 -12.0281 

n/a 
n/a 
n/a 
n/a 
-3.0415 0 -1.4985 -3.845 -3.4025 -3.098 -4.3375 -2.3345 -1.4985 -3.5495 
-3.0415 -1.4985 -5.428 -8.807501 -6.8905 -6.9055 -5.426 -3.233 -4.612 
-4.5735 -5.428 -10.2865 -12.5489 -11.4532 -8.511001 -6.0735 -6.0315 
-8.7915 -10.2865 -14.0279 -17.1116 -13.0587 -9.4705 -8.3105 
-13.6906 -14.0279 -18.5906 -18.7171 -14.0182 -11.7239 
