-4.759 
n/a 
n/a 
n/a 
n/a 
-4.759 
n/a 
n/a 
n/a 
n/a 
-4.759 
n/a 
n/a 
n/a 
n/a 
-4.759 
n/a 
n/a 
n/a 
n/a 
-1.934 -5.011 -9.014501 -4.0415 -3.3195 -1.4985 -12.16972 0 
-6.341 -14.7559 -13.1906 -7.7795 -5.814 -14.76202 -12.16972 
-16.5511 -18.932 -16.9286 -10.9936 -19.74052 -14.76202 
-20.7272 -22.67 -20.1427 -24.92012 -19.74052 
-24.4652 -25.8841 -34.06922 -24.92012 
-1.934 -5.011 0 -5.2545 -3.7905 -1.4985 -4.257 -5.8725 -4.1445 
-6.341 -5.011 -5.2545 -9.229501 -4.969 -5.0245 -10.1265 -8.9685 
-6.341 -9.3605 -9.229501 -10.1045 -8.8015 -11.5062 -13.3535 
-9.818001 -13.5221 -10.1045 -14.0706 -15.8842 -14.7332 
-14.0374 -14.3971 -14.0706 -21.1533 -19.1112 
-1.934 -5.011 -5.2545 -2.7415 -4.648 -2.5045 -6.0045 -2.0935 -12.16972 -4.0415 0 
-6.341 -9.3605 -6.742001 -5.5585 -5.8555 -8.7805 -8.168501 -15.25422 -16.21122 -4.0415 
-9.818001 -9.993501 -8.831 -6.4705 -12.9739 -10.093 -21.76902 -19.29572 -16.21122 
-10.6005 -10.4095 -10.328 -14.0087 -14.2864 -24.02812 -25.81052 -19.29572 
-11.0165 -13.4329 -18.1638 -15.3212 -28.22152 -28.06962 -25.81052 
-1.934 -5.011 -5.2545 -4.0415 -4.085 -4.0745 -1.934 -12.16972 0 
-6.341 -9.3605 -9.611 -8.638 -8.6805 -5.4675 -15.11012 -12.16972 
-9.818001 -13.9036 -14.2741 -13.4819 -10.586 -19.25822 -15.11012 
-14.4189 -18.5667 -19.118 -15.3874 -24.37672 -19.25822 
-19.082 -23.4106 -21.0235 -29.17812 -24.37672 
