-4.759 
n/a 
n/a 
n/a 
n/a 
-4.759 
n/a 
n/a 
n/a 
n/a 
-4.759 
n/a 
n/a 
n/a 
n/a 
-4.759 
n/a 
n/a 
n/a 
n/a 
-2.5195 -4.208 -4.153 -1.7695 -4.4485 -4.153 
-6.384 -6.7115 -6.192 -6.737 -6.742001 
-8.982 -9.044001 -10.586 -8.6525 
-10.4115 -13.6068 -10.707 
-14.9743 -13.7278 
-2.5195 -4.208 -1.7695 -4.4485 -4.153 -4.747 0 
-6.384 -6.456 -6.737 -6.742001 -8.8465 -4.546 
-7.5915 -7.898 -8.6525 -8.657001 -6.706 
-8.63 -9.7825 -9.821501 -8.1265 
-10.8639 -10.672 -9.790501 
-2.5195 -4.4175 -2.1715 -4.6945 -4.4485 -5.0045 
-7.040501 -6.199 -6.7925 -8.677501 -8.040501 
-9.323501 -10.598 -11.0795 -11.743 
-14.4769 -15.9551 -15.5146 
-19.3762 -19.9264 
-4.4175 -2.1715 -1.7695 -2.543 -4.153 
-6.199 -4.454 -4.76 -7.898 
-8.915 -5.6645 -10.442 
-10.7495 -11.8211 
-16.9061 
