-4.759 
n/a 
n/a 
n/a 
n/a 
-4.759 
n/a 
n/a 
n/a 
n/a 
-4.759 
n/a 
n/a 
n/a 
n/a 
-4.759 
n/a 
n/a 
n/a 
n/a 
-3.5515 -1.7565 -6.946 -3.9485 -2.356 -8.110001 0 
-5.0325 -8.436 -10.862 -4.311 -10.2755 -8.110001 
-12.2572 -12.6766 -11.2245 -12.6515 -10.2755 
-16.4978 -13.0391 -19.565 -12.6515 
-16.8603 -21.3796 -19.565 
-8.110001 -2.356 -6.946 
-10.703 -9.5605 
-17.9075 
n/a 
n/a 
-22.6075 -2.356 -6.946 
-23.9826 -9.5605 
-29.0259 
n/a 
n/a 
-8.110001 -2.7415 -3.918 -2.356 -1.4985 -4.6875 -1.7565 -4.221 -3.2895 -2.0935 -2.5685 
-9.8325 -6.377501 -6.205501 -3.1615 -6.1945 -4.9665 -5.7355 -6.037 -5.6595 -3.987 
-13.5497 -8.095 -6.842 -7.896501 -6.565 -9.357 -7.28 -6.853 -6.776 
-15.2672 -8.659 -11.8392 -8.238 -10.034 -10.61 -7.902 -7.408 
-15.8312 -13.6902 -12.1807 -10.5635 -11.4738 -11.232 -8.448 
