-4.759 
n/a 
n/a 
n/a 
n/a 
-4.759 
n/a 
n/a 
n/a 
n/a 
-4.759 
n/a 
n/a 
n/a 
n/a 
-4.759 
n/a 
n/a 
n/a 
n/a 
-4.9405 -1.4985 -4.92 -1.7565 -4.649 0 
-6.4985 -5.650001 -5.7975 -6.545001 -4.649 
-11.096 -5.9255 -11.62 -6.545001 
-11.3715 -11.9432 -11.62 
-17.3892 -11.9432 
-2.3085 -4.657 -6.0815 -1.7695 -4.649 
-7.897 -11.8795 -8.5425 -6.7605 
-15.3203 -14.3405 -13.7951 
-17.7813 -19.5931 
-23.0339 
-2.3085 -3.5745 -3.2345 -2.925 -1.7695 -4.649 
-4.534 -6.2175 -4.836 -3.71 -6.7605 
-6.9505 -8.3135 -6.2045 -8.976501 
-8.97 -10.2352 -12.3316 
-11.0745 -16.3623 
-4.966 -5.2445 -1.7695 -4.649 
-8.7685 -7.306 -6.7605 
-10.688 -13.0104 
-16.3924 
n/a 
