-4.759 
n/a 
n/a 
n/a 
n/a 
-4.759 
n/a 
n/a 
n/a 
n/a 
-4.759 
n/a 
n/a 
n/a 
n/a 
-4.759 
n/a 
n/a 
n/a 
n/a 
-3.034 -2.3585 -3.047 -1.4985 -3.995 -2.5195 -4.3645 -2.3335 -3.61 -4.683 -3.6065 0 -2.3335 -3.757 -5.42 -3.995 -5.201 -2.186 -3.4635 -1.934 -4.834 -2.9635 
-3.972 -4.553 -4.095 -4.712 -6.299 -6.7215 -7.286 -5.816 -7.374001 -6.2795 -3.6065 -2.3335 -5.0775 -8.974501 -10.007 -9.621 -7.237 -5.495 -6.286 -7.4975 -8.0085 
-5.83 -5.5575 -7.698 -6.7015 -9.4495 -10.1385 -11.2871 -8.8625 -8.421 -6.2795 -6.5005 -5.0775 -9.634501 -13.6329 -15.7292 -11.7388 -10.8768 -7.462501 -12.5015 -11.254 
-6.5625 -8.805 -8.822001 -9.8985 -12.9719 -14.1396 -14.3336 -10.411 -8.421 -8.945001 -8.709001 -9.634501 -14.3707 -19.3551 -17.847 -15.3786 -12.8443 -14.014 -16.258 
-9.9305 -10.088 -12.5482 -13.5673 -16.973 -17.1861 -15.8821 -10.411 -10.66 -11.3519 -13.6056 -14.3707 -20.0929 -21.4729 -21.4868 -17.3461 -19.3958 -17.7705 
-4.4525 -2.5195 -1.4985 -5.3955 0 -1.4985 -3.995 -2.186 -3.962 -7.403501 -2.186 -3.995 -2.186 -4.1205 -5.179 0 
-7.224501 -3.1695 -6.679501 -5.3955 -1.4985 -4.712 -5.7465 -5.363 -10.3655 -8.669001 -6.5515 -5.7465 -5.007 -8.4785 -5.179 
-7.816501 -7.924 -6.679501 -6.9785 -4.712 -6.1195 -8.857 -11.269 -11.4165 -12.914 -9.312 -8.7685 -9.216001 -8.4785 
-12.784 -7.924 -8.1925 -9.5255 -6.1195 -9.099001 -15.2324 -12.3233 -16.6716 -15.2341 -12.4302 -13.1737 -9.216001 
-12.784 -9.154501 -10.7175 -11.1174 -9.099001 -15.58 -16.0959 -17.5784 -18.4931 -18.3523 -16.8354 -13.1737 
-3.135 -4.127 -5.5665 -5.0235 -3.6065 -3.8975 -3.2775 -2.5045 -4.6625 0 -5.143 0 -5.3095 -2.4285 -4.202 -2.0935 -2.985 -4.962 0 
-6.804 -7.377001 -9.814501 -7.791 -6.5555 -5.9565 -3.678 -7.1625 -4.6625 -5.143 -5.143 -5.3095 -7.226501 -6.5075 -6.415 -4.3315 -7.712 -4.962 
-9.925 -10.4185 -10.4375 -9.814501 -8.046 -5.9675 -7.362 -7.1625 -7.7665 -5.143 -9.82 -7.226501 -8.646 -8.4945 -8.3125 -9.104501 -7.712 
-10.4225 -10.447 -10.451 -10.3445 -8.0605 -8.171 -7.362 -9.555 -7.7665 -9.82 -10.4215 -8.646 -10.2275 -10.2235 -10.403 -9.104501 
-10.451 -10.4605 -10.4645 -10.4105 -10.064 -8.171 -9.616 -9.555 -10.4185 -10.4215 -10.4345 -10.2275 -10.4265 -10.412 -10.403 
-1.4985 -4.7885 -4.35 -1.7565 -1.4985 -3.995 -2.186 -1.8085 -5.8255 -4.848 -6.1915 -4.2205 -5.465 0 -2.9705 -2.186 -6.9855 -2.3345 -1.8085 -4.246 -6.114501 -4.2205 -5.637 -1.4985 -5.465 -2.186 -4.794 -2.5195 -1.4985 -5.637 -2.3345 -1.4985 -12.16972 -6.257 0 
-5.282001 -6.498 -5.3865 -2.4195 -4.712 -5.7465 -3.164 -7.133 -8.070001 -10.119 -9.356001 -8.267 -5.465 -2.9705 -3.89 -7.444 -7.0455 -3.8605 -5.085 -7.684 -9.099001 -8.873501 -7.3965 -6.377501 -6.901 -6.253 -5.6105 -3.1695 -6.3745 -7.9455 -3.233 -14.76202 -18.42672 -6.257 
-6.845 -6.939001 -6.2025 -5.2205 -6.1195 -6.709 -8.151001 -9.2055 -10.586 -10.667 -10.224 -8.267 -7.7155 -3.89 -8.814 -7.4905 -7.8935 -7.022 -8.396501 -10.341 -10.6475 -10.254 -9.5015 -7.3715 -10.2925 -6.526501 -5.9935 -7.9435 -8.729 -9.0575 -16.76452 -21.01902 -18.42672 
-7.153 -7.335001 -8.074501 -6.912 -7.2745 -10.6215 -9.9455 -10.6605 -10.679 -10.6895 -10.224 -10.155 -8.4115 -8.814 -8.871 -8.260501 -10.0185 -10.4585 -10.564 -10.6575 -10.696 -10.643 -9.91 -10.426 -10.3445 -6.735001 -9.9425 -9.699 -9.34 -22.75082 -23.02152 -21.01902 
-7.454 -9.022 -9.300001 -7.9395 -10.6335 -10.6805 -10.6645 -10.6965 -10.7015 -10.6895 -10.669 -10.54 -10.6215 -8.871 -9.589001 -10.2805 -10.665 -10.674 -10.6785 -10.7065 -10.719 -10.677 -10.6525 -10.455 -10.388 -10.316 -10.2735 -10.295 -23.18652 -29.00782 -23.02152 
