-4.759 
n/a 
n/a 
n/a 
n/a 
-4.759 
n/a 
n/a 
n/a 
n/a 
-4.759 
n/a 
n/a 
n/a 
n/a 
-4.759 
n/a 
n/a 
n/a 
n/a 
-3.0835 -3.8625 0 -3.691 -3.515 
-7.3865 -3.8625 -3.691 -7.1815 
-7.3865 -8.144501 -7.1815 
-12.2955 -12.165 
-16.316 
-4.0105 -3.522 0 -3.515 -1.934 -3.691 
-8.1415 -3.522 -3.515 -5.966001 -4.8225 
-8.1415 -7.740001 -5.966001 -8.246 
-12.7531 -8.6155 -8.246 
-13.6286 -11.2255 
-4.0885 -5.3935 0 -3.515 -1.934 -3.691 
-10.985 -5.3935 -3.515 -5.966001 -4.8225 
-10.985 -9.044001 -5.966001 -8.246 
-14.6355 -12.444 -8.246 
-18.0355 -14.724 
-4.0105 -4.867 0 -3.515 -1.934 -3.691 
-9.665001 -4.867 -3.515 -5.966001 -4.8225 
-9.665001 -9.4275 -5.966001 -8.246 
-14.4051 -12.0907 -8.246 
-17.0683 -14.3707 
