-4.759 
n/a 
n/a 
n/a 
n/a 
-4.759 
n/a 
n/a 
n/a 
n/a 
-4.759 
n/a 
n/a 
n/a 
n/a 
-4.759 
n/a 
n/a 
n/a 
n/a 
-5.1845 -4.245 -2.186 -3.7515 -3.533 -3.277 -3.3435 -1.7565 -3.17 -3.6975 -4.245 -1.934 -3.188 
-7.991 -6.276501 -5.8505 -7.5315 -6.4985 -7.2115 -4.7005 -5.268 -4.1885 -7.123 -5.906001 -5.387 
-9.797501 -10.151 -9.153501 -10.5975 -10.575 -8.672501 -7.922501 -7.180501 -8.692 -8.5815 -9.654 
-13.672 -13.9084 -12.4539 -14.674 -12.036 -12.1877 -10.0024 -12.0344 -10.575 -12.5663 
-17.4294 -17.2088 -16.5304 -16.135 -15.5512 -14.2676 -14.8563 -13.9174 -14.5598 

n/a 
n/a 
n/a 
n/a 
-1.4985 -4.245 -1.7565 -5.1845 -2.186 -2.871 -1.7565 -1.4985 -3.2825 -4.245 -1.934 -1.4985 -3.188 -1.756 -3.7515 -1.7565 -2.645 -3.1575 -3.2495 -4.6945 -3.277 0 
-5.305 -6.1035 -6.580501 -7.895 -4.247 -3.5385 -2.4195 -3.712 -7.8785 -5.906001 -2.6125 -3.619 -4.863 -5.6085 -4.6045 -4.8395 -3.72 -5.224 -5.97 -5.913001 -3.277 
-6.4385 -10.2865 -9.5705 -9.252501 -4.411 -3.7675 -4.687 -8.203 -9.2635 -6.5915 -4.377 -5.0875 -9.219501 -6.585 -8.211 -5.076 -5.3995 -7.1945 -6.7335 -5.913001 
-10.7111 -13.2765 -10.957 -9.267 -4.5655 -4.982 -8.7475 -9.361501 -9.653501 -8.4005 -5.659 -9.8065 -10.355 -9.894001 -8.562 -6.5 -7.2825 -7.826001 -6.7335 
-13.7011 -14.663 -10.9715 -9.347501 -5.5725 -10.1585 -9.812501 -9.686001 -9.913501 -9.646001 -10.2485 -10.9976 -13.664 -10.489 -10.504 -8.382501 -7.840001 -7.826001 
-5.1845 -4.245 -2.229 -2.186 -3.4155 -2.0935 -3.17 -3.533 -3.158 
-7.991 -7.2375 -5.1225 -5.0125 -5.12 -4.9215 -8.564 -6.5725 
-11.3029 -10.513 -7.7875 -5.796 -7.896501 -10.2185 -11.8565 
-14.5784 -13.178 -8.726001 -8.517 -13.3851 -13.511 
-17.2434 -14.1165 -11.604 -14.105 -16.6776 
