-4.759 
n/a 
n/a 
n/a 
n/a 
-4.759 
n/a 
n/a 
n/a 
n/a 
-4.759 
n/a 
n/a 
n/a 
n/a 
-4.759 
n/a 
n/a 
n/a 
n/a 
-5.4475 -1.7695 -10.651 -6.178 -2.3345 -8.395 
-6.4375 -13.4027 -17.075 -8.2185 -10.4945 
-18.7721 -19.8267 -19.1155 -16.8625 
-25.1961 -21.8672 -27.7595 
-27.2366 -30.5112 
-8.252501 -9.223001 0 -8.395 -2.229 -4.1035 
-10.3475 -9.223001 -8.395 -9.881001 -6.234 
-10.3475 -17.7722 -9.881001 -13.886 
-18.8967 -19.2582 -13.886 
-20.3827 -23.2632 
-8.521001 -6.178 0 -4.1035 -2.3345 -8.395 
-9.164001 -6.178 -4.1035 -6.013 -10.4945 
-9.164001 -9.319 -6.013 -14.8614 
-12.3826 -11.4535 -14.8614 
-14.5171 -20.3019 
-7.801001 -7.093 0 -8.395 -2.229 -4.1035 
-9.803 -7.093 -8.395 -9.881001 -6.234 
-9.803 -16.045 -9.881001 -13.886 
-18.755 -17.531 -13.886 
-20.241 -21.536 
