-4.759 
n/a 
n/a 
n/a 
n/a 
-4.759 
n/a 
n/a 
n/a 
n/a 
-4.759 
n/a 
n/a 
n/a 
n/a 
-4.759 
n/a 
n/a 
n/a 
n/a 
-1.934 -2.3335 -1.4985 -3.4865 -4.5625 -4.4265 -5.113 -3.8105 -3.0365 -2.186 -2.9995 -3.6615 -1.934 -1.4985 -4.257 -1.7565 -1.4985 -4.1115 -3.4715 
-4.359 -3.3515 -4.9305 -7.795001 -9.189501 -9.943501 -8.791 -5.566 -3.66 -5.3555 -5.4235 -4.437 -2.6125 -5.1765 -5.6825 -2.4195 -4.843 -6.271 
-5.8555 -6.8045 -9.365001 -12.8882 -15.0191 -13.9447 -10.8213 -5.9625 -5.7115 -8.698501 -6.1295 -5.0245 -6.7925 -6.135 -6.104 -5.5165 -7.386001 
-9.572001 -11.4906 -14.5634 -18.7178 -19.0203 -15.975 -11.2178 -6.8165 -8.9375 -9.361501 -6.6245 -8.873501 -7.8665 -6.4925 -8.7385 -8.1435 
-14.2581 -16.689 -20.393 -22.719 -21.0506 -16.3715 -12.0718 -10.2867 -9.5085 -9.668501 -10.7845 -9.057501 -8.274501 -8.984 -11.5993 
-1.4985 -4.395 -2.674 -4.596 -2.0935 -4.2635 -4.8345 -1.934 -4.1115 0 
-5.971001 -6.8665 -8.4185 -6.2875 -7.666 -9.456501 -6.0035 -6.27 -4.1115 
-8.018001 -13.0618 -10.4704 -12.5284 -13.0554 -10.9243 -11.5761 -6.27 
-14.3923 -15.1137 -16.7113 -17.9178 -14.5232 -16.4969 -11.5761 
-16.4442 -21.3546 -22.1007 -19.3856 -20.0958 -16.4969 
-2.5195 -1.4985 -3.4865 -3.9035 -2.925 -3.5435 -1.4985 -4.3355 -4.4845 -4.164 -2.4285 -2.6165 -2.7415 -4.78 
-3.1695 -4.9305 -7.401 -6.8755 -6.788 -4.655 -5.199 -7.106 -9.2005 -5.917 -4.3195 -6.7345 -5.957 
-6.66 -8.686001 -10.434 -10.341 -7.6885 -9.5245 -7.974 -12.2944 -11.1561 -7.703 -7.3865 -10.3398 
-10.7989 -12.1864 -13.8995 -11.4593 -12.6394 -12.3585 -13.3676 -14.25 -12.9421 -10.7025 -11.3928 
-14.2993 -15.6519 -15.0178 -16.4102 -15.4734 -17.7521 -15.3232 -16.036 -15.9416 -14.7088 
-1.8085 -4.015 -3.8875 -2.742 -4.243 -1.4985 -3.6615 -2.3335 -2.186 -4.683 -1.4985 -3.4715 -1.7565 -1.4985 -4.1115 -1.756 -2.4265 -2.742 -3.956 -4.173 -2.0935 -3.874 
-4.5105 -7.012501 -6.226 -6.331 -5.337 -4.9455 -5.446 -3.7085 -5.344 -6.475 -4.574 -6.065001 -2.4195 -4.843 -5.537 -3.949 -4.095 -4.7665 -7.3805 -6.1035 -5.7625 
-7.2995 -9.078001 -9.094501 -6.841001 -7.851 -6.199 -7.663 -6.768001 -7.1285 -9.514501 -6.582001 -6.5695 -5.5165 -6.016 -7.633501 -5.276 -6.298 -8.2085 -8.873501 -10.609 
-9.449 -12.0959 -9.739 -9.571501 -9.293 -8.9265 -9.903 -8.606001 -10.218 -11.7425 -7.085501 -8.2285 -6.6395 -7.865 -8.854 -7.1875 -9.724501 -9.872001 -13.543 
-12.5257 -12.7404 -12.4695 -10.719 -12.3219 -10.374 -11.8946 -11.7771 -12.446 -12.246 -8.562501 -9.198501 -8.706 -8.9235 -11.2413 -10.8596 -10.72 -14.7159 
