-4.759 
n/a 
n/a 
n/a 
n/a 
-4.759 
n/a 
n/a 
n/a 
n/a 
-4.759 
n/a 
n/a 
n/a 
n/a 
-4.759 
n/a 
n/a 
n/a 
n/a 
-2.229 -7.991 0 -9.802 -12.16972 -2.4945 -1.4985 -3.17 -3.962 -4.4495 0 
-10.6605 -7.991 -9.802 -22.17372 -14.66422 -3.9315 -3.7115 -7.8065 -9.665 -4.4495 
-10.6605 -18.2062 -22.17372 -24.66822 -16.10122 -5.324 -8.335001 -13.7951 -9.665 
-20.8757 -30.57792 -24.66822 -26.10522 -17.49372 -9.804501 -14.543 -13.7951 
-33.24742 -33.07242 -26.10522 -27.49772 -21.97422 -16.0125 -14.543 
-3.937 -3.3195 0 -12.16972 0 -8.801001 -2.4945 -1.4985 -4.4715 -3.2955 -3.46 -4.4495 0 
-8.538 -3.3195 -12.16972 -12.16972 -8.801001 -11.8805 -3.9315 -6.572001 -6.646 -8.0655 -6.116 -4.4495 
-8.538 -16.55622 -12.16972 -20.97072 -11.8805 -13.3175 -8.588 -8.349501 -11.846 -10.4185 -6.116 
-21.98712 -16.55622 -20.97072 -24.05022 -13.3175 -17.974 -9.567501 -13.3881 -14.199 -10.4185 
-21.98712 -25.35722 -24.05022 -25.48722 -17.974 -18.9535 -14.6313 -15.7411 -14.199 
-2.229 -3.3195 -1.756 -7.3125 -8.801001 -4.4495 -2.4945 -4.5075 -2.645 0 
-5.3755 -4.768 -8.613001 -10.66 -13.8355 -6.1345 -5.988 -7.125 -2.645 
-6.718 -12.7352 -12.0769 -15.6945 -15.5205 -10.148 -8.411 -7.125 
-14.9478 -16.1991 -17.1114 -17.3795 -19.534 -12.571 -8.411 
-18.4117 -21.2336 -18.7964 -21.393 -21.957 -12.571 
-2.229 -3.3195 0 -9.7395 -9.8555 -2.4945 -1.4985 -4.1745 -4.4495 -2.4945 -4.4715 -3.962 
-5.3755 -3.3195 -9.7395 -20.167 -12.5994 -3.9315 -5.669001 -6.632 -6.1345 -5.7935 -7.4115 
-5.3755 -14.126 -20.167 -22.9109 -14.0364 -8.660001 -8.1835 -8.2925 -9.190001 -8.5375 
-16.73 -24.5535 -22.9109 -24.3479 -18.7649 -10.4675 -9.647 -11.5792 -12.1232 
-27.1575 -27.2974 -24.3479 -29.0764 -20.5724 -11.931 -12.9785 -14.5124 
