-4.759 
n/a 
n/a 
n/a 
n/a 
-4.759 
n/a 
n/a 
n/a 
n/a 
-4.759 
n/a 
n/a 
n/a 
n/a 
-4.759 
n/a 
n/a 
n/a 
n/a 
-4.2815 -3.922 -3.17 -1.7565 -3.5215 0 -10.1435 -3.158 -1.7565 -4.4925 -4.2885 0 
-9.131001 -7.4755 -4.179 -5.2195 -3.5215 -5.947001 -9.9565 -4.71 -6.712501 -10.564 -4.2885 
-12.8265 -8.4895 -8.209001 -5.2195 -10.2467 -10.688 -11.3625 -10.168 -13.3434 -10.564 
-13.8405 -12.9875 -8.209001 -12.6731 -14.9877 -11.3625 -17.2273 -16.7989 -13.3434 
-18.3385 -12.9875 -15.8026 -17.4141 -15.6622 -17.2273 -23.8582 -16.7989 
-1.934 -4.2815 -3.6245 0 -6.0395 -2.925 -1.7565 -4.348 -1.756 -4.1985 -1.7695 -5.4795 -1.934 -5.084 -1.934 -15.0415 -5.102 
-5.399 -7.967501 -3.6245 -6.0395 -6.5245 -4.898 -6.310501 -5.634 -6.342 -4.901 -6.775001 -6.411 -7.862 -6.1425 -17.0365 -20.8777 
-8.5585 -7.967501 -10.1945 -6.5245 -8.1075 -8.660501 -7.3935 -10.5035 -7.166 -10.168 -6.9325 -9.832001 -8.962501 -21.7319 -22.5931 
-8.5585 -14.7143 -10.757 -8.1075 -11.9542 -9.7685 -12.5982 -11.3275 -12.8522 -10.3235 -10.103 -10.378 -24.6555 -26.8931 
-15.4085 -15.2768 -12.34 -11.9542 -13.0622 -14.9962 -13.4222 -17.0137 -13.0077 -13.617 -10.6795 -26.163 -29.8167 
-1.934 -4.2815 -3.922 -1.4985 -3.9665 -1.756 -1.4985 -5.753 -1.7565 -2.5685 -3.772 -2.4945 -3.43 -1.934 -10.1435 0 
-5.399 -9.131001 -4.7665 -5.3745 -5.324 -3.0405 -6.276501 -6.8765 -3.938 -5.792 -5.468 -4.758 -4.639 -7.267 -5.947001 
-9.7995 -10.239 -8.1125 -6.7775 -6.4475 -7.5775 -7.251 -9.459001 -7.114501 -7.257501 -8.209001 -5.9945 -11.381 -8.739 
-10.9855 -13.585 -9.396001 -7.750501 -11.3117 -8.3865 -9.9055 -12.6855 -9.212501 -10.3045 -9.5775 -13.2239 -11.5288 
-14.3315 -14.8685 -10.6885 -12.9165 -12.1207 -11.1584 -13.132 -14.7835 -12.4461 -11.673 -16.9791 -13.2239 
-5.2735 -4.2755 -1.8085 -4.215 -3.6645 -1.7565 -4.176 -3.97 -2.5195 -5.0975 -1.7695 -5.046 
-9.720001 -5.6105 -5.0755 -6.555 -4.613 -5.79 -7.399 -6.660501 -7.441 -7.188001 -7.493001 
-10.72 -8.3125 -6.903 -6.7895 -7.869 -8.3935 -9.986 -12.2008 -7.8215 -8.924001 
-13.422 -10.4778 -7.0495 -10.082 -9.2985 -10.7335 -15.4989 -12.5813 -9.25 
-15.5873 -10.6243 -10.309 -11.5115 -11.7753 -16.2464 -15.8794 -14.0098 
