-4.759 
n/a 
n/a 
n/a 
n/a 
-4.759 
n/a 
n/a 
n/a 
n/a 
-4.759 
n/a 
n/a 
n/a 
n/a 
-4.759 
n/a 
n/a 
n/a 
n/a 
-1.934 -1.4985 -3.997 -4.25 -2.186 -1.8085 -5.508 -4.0045 
-2.6125 -4.921 -7.34 -7.1975 -3.164 -7.164001 -7.724501 
-5.543 -8.3955 -10.1945 -8.335501 -8.589001 -9.59 
-9.469 -10.5225 -11.3325 -13.9469 -10.5035 
-11.6974 -11.6605 -16.9439 -15.8614 
-1.4985 -3.997 -2.186 -4.0885 -5.402 0 
-4.921 -5.642 -5.8685 -10.0165 -4.6725 
-6.2045 -9.757001 -12.1495 -10.316 
-10.4215 -16.6988 -12.2935 
-17.3633 -16.6988 
-3.962 -1.934 -3.562 -2.186 -4.0885 -5.009501 0 
-4.8165 -6.0145 -5.785501 -5.8685 -9.9445 -4.7555 
-8.152 -8.26 -10.66 -10.4575 -9.088 
-10.064 -13.2817 -15.5876 -10.7961 
-15.2133 -18.2093 -15.5876 
-1.4985 -3.997 -3.962 -2.186 -5.402 
-4.921 -7.532001 -6.4815 -8.134501 
-8.587501 -9.83 -12.1985 
-9.8985 -15.924 
-16.1129 
