-4.759 
n/a 
n/a 
n/a 
n/a 
-4.759 
n/a 
n/a 
n/a 
n/a 
-4.759 
n/a 
n/a 
n/a 
n/a 
-4.759 
n/a 
n/a 
n/a 
n/a 
-2.9805 -3.074 -3.989 -1.7695 -4.319 -3.8275 -1.934 -3.333 -1.7695 -3.7085 -3.788 -4.9385 -4.088 0 
-4.8805 -6.313 -4.551 -4.9595 -7.924001 -5.2615 -3.9835 -4.022 -4.19 -8.958501 -7.6195 -9.842001 -4.088 
-8.134501 -6.748 -7.49 -8.4245 -9.450001 -7.531 -4.0425 -6.002501 -9.2335 -12.9304 -12.7996 -9.842001 
-8.498501 -10.044 -10.586 -9.6405 -11.8031 -7.5645 -6.0105 -11.345 -13.2574 -18.1105 -12.7996 
-11.9377 -13.14 -12.256 -12.0988 -11.8366 -9.2345 -11.3712 -15.3689 -18.4375 -18.1105 
-2.9805 -2.7415 -1.7695 -4.7995 -1.934 -1.4985 -3.8275 -1.7695 -3.7085 -1.4985 -3.788 -4.706 -5.4765 -3.074 0 
-4.004 -4.604 -5.770501 -7.002001 -2.6125 -4.726 -5.9455 -4.19 -4.704 -5.8555 -7.0235 -8.521501 -8.694 -3.074 
-6.2705 -7.9635 -7.642001 -7.657001 -5.815001 -6.684501 -8.141001 -5.0195 -9.0605 -10.1265 -11.313 -12.2946 -8.694 
-10.037 -10.361 -8.137001 -10.322 -7.849 -8.9755 -8.717 -9.2845 -13.3833 -14.416 -15.0861 -12.2946 
-12.4345 -10.856 -11.0092 -12.356 -9.856001 -9.605 -13.2364 -13.6175 -17.6728 -18.1891 -15.0861 
-1.7695 -5.4435 -3.091 -4.6335 0 -2.9805 -3.43 -1.7695 -3.013 -3.8275 -2.356 -3.769 0 
-5.798501 -7.9855 -6.576 -4.6335 -2.9805 -5.2875 -4.647 -3.7215 -8.012501 -5.674 -5.021501 -3.769 
-8.09 -11.8757 -6.576 -7.0695 -5.2875 -7.014 -7.1215 -8.616501 -9.649 -8.9805 -5.021501 
-12.0254 -11.8757 -8.272 -9.168 -7.014 -9.690001 -12.2641 -9.9055 -12.9747 -8.9805 
-12.0254 -13.5717 -10.4345 -11.0213 -9.690001 -15.0972 -13.5531 -13.2874 -12.9747 
-1.7695 -3.7085 -2.925 -1.4985 -5.3475 -1.934 -3.6075 -4.5165 0 -2.9805 -3.251 -1.7695 -4.7995 -1.934 -3.8275 
-4.19 -4.8545 -4.202 -6.386001 -6.4315 -5.5115 -7.666 -4.5165 -2.9805 -4.429 -4.3285 -5.770501 -7.002001 -5.911 
-5.207 -5.473 -9.1485 -7.9395 -9.701501 -8.171 -7.666 -7.312 -4.429 -5.6435 -8.2185 -7.642001 -10.575 
-6.732 -11.8341 -10.6918 -11.2997 -12.4046 -8.171 -9.8785 -8.856501 -5.6435 -9.956 -10.4105 -11.4118 
-12.6283 -13.3774 -14.052 -14.0028 -12.4046 -10.3345 -11.5456 -10.0445 -9.956 -12.148 -14.1803 
