-4.759 
n/a 
n/a 
n/a 
n/a 
-4.759 
n/a 
n/a 
n/a 
n/a 
-4.759 
n/a 
n/a 
n/a 
n/a 
-4.759 
n/a 
n/a 
n/a 
n/a 
-3.8275 -2.6165 -4.434 -1.934 -4.142 -3.892 0 
-6.8225 -7.2025 -5.81 -5.173 -6.371 -3.892 
-9.793501 -8.606501 -9.6675 -8.215 -6.371 
-11.2637 -12.6026 -12.8067 -8.215 
-15.2598 -15.7418 -12.8067 
-4.567 -3.935 -3.8275 -2.264 -5.933 
-6.932 -7.451 -5.147 -8.193001 
-11.059 -8.3725 -12.2356 
-11.9805 -16.5203 
-20.1283 
-3.4765 -1.934 -1.4985 -3.5455 -1.4985 -3.8275 -3.5745 -2.6165 -4.3095 -1.7695 -3.498 0 
-4.9925 -2.6125 -4.554 -6.1155 -4.726 -7.186 -4.114 -5.5185 -4.519 -4.8045 -3.498 
-5.4645 -5.298 -6.45 -9.147 -7.7285 -7.596 -6.316 -5.680501 -7.541 -4.8045 
-8.459001 -6.969501 -9.286501 -12.3511 -8.103001 -9.708501 -6.4845 -9.095501 -7.541 
-9.453501 -9.7915 -12.5626 -12.7256 -10.138 -10.0025 -9.8915 -9.095501 
-4.5165 -3.152 -2.6165 -4.4945 -1.934 -4.142 -4.418 -3.6245 0 
-7.168 -4.6295 -6.379001 -5.8805 -5.173 -6.9785 -8.26 -3.6245 
-8.641001 -8.192 -8.017501 -10.1225 -7.798501 -10.5975 -8.26 
-12.4161 -9.4545 -12.7747 -12.9942 -11.6141 -10.5975 
-13.6786 -14.3433 -15.6464 -16.8098 -11.6141 
