-4.759 
n/a 
n/a 
n/a 
n/a 
-4.759 
n/a 
n/a 
n/a 
n/a 
-4.759 
n/a 
n/a 
n/a 
n/a 
-4.759 
n/a 
n/a 
n/a 
n/a 
-2.9805 -3.8535 -3.251 -4.07 -3.3195 -2.0935 -3.2295 -4.2405 -4.674 -1.756 -4.994 -4.3225 0 
-6.844501 -7.186 -7.2935 -8.028 -5.3015 -4.9135 -6.4865 -6.409 -5.601501 -6.1365 -8.631001 -4.3225 
-10.223 -12.1597 -9.606501 -9.887501 -7.5 -7.3745 -7.965 -6.8045 -6.2835 -9.708 -8.631001 
-15.2419 -14.4727 -10.7195 -12.3128 -10.119 -9.224001 -9.295 -7.612 -9.76 -9.708 
-17.5549 -15.5857 -13.1448 -14.9318 -12.0701 -11.0832 -9.442 -11.4173 -9.76 
-2.9805 -3.43 -3.6675 -3.251 -3.3195 -1.7695 -2.645 -3.1575 -4.554 -4.3225 0 
-5.2875 -7.995 -6.282001 -7.285501 -5.492001 -4.8565 -3.72 -6.729501 -9.702001 -4.3225 
-9.583 -10.8839 -8.304001 -9.328501 -8.459001 -5.397 -6.830501 -10.718 -9.702001 
-12.8913 -12.9059 -10.9516 -12.5245 -9.154 -8.205501 -10.7175 -10.718 
-14.9133 -15.5535 -14.1476 -13.2195 -12.0743 -12.3417 -10.7175 
-2.9805 -4.96 -3.941 -3.3195 -2.0935 -2.645 -3.1575 -4.554 -4.3225 0 
-6.9405 -9.422501 -6.1545 -5.3015 -3.883 -3.72 -6.729501 -9.702001 -4.3225 
-11.3894 -9.712 -7.023 -7.436501 -4.941 -6.830501 -10.718 -9.702001 
-11.6789 -9.944 -9.9455 -7.9585 -8.411 -10.7175 -10.718 
-11.9109 -13.0401 -10.4155 -11.8521 -12.6284 -10.7175 
-2.645 -3.1575 -4.2405 -4.674 -4.994 -3.7955 -3.941 -3.3195 -4.96 
-3.72 -6.198501 -6.409 -6.478001 -9.7535 -8.403 -6.1545 -6.952001 
-6.441 -7.8125 -7.6105 -11.9385 -14.3978 -9.476501 -9.495001 
-7.931001 -8.442 -13.6794 -16.5828 -15.4713 -12.911 
-8.594001 -15.0823 -18.3237 -17.6563 -18.9058 
