-4.759 
n/a 
n/a 
n/a 
n/a 
-4.759 
n/a 
n/a 
n/a 
n/a 
-4.759 
n/a 
n/a 
n/a 
n/a 
-4.759 
n/a 
n/a 
n/a 
n/a 
-8.3895 -2.925 -2.674 -3.845 -1.7565 -4.931 -3.7015 -5.891 -1.756 -3.9655 -3.84 -1.756 -3.7015 -1.7565 -5.984 
-12.3485 -4.1785 -7.2815 -4.13 -6.318 -6.0895 -8.538 -7.0585 -5.0755 -8.132 -4.8045 -5.708 -7.623 -6.8335 
-10.131 -8.6675 -7.4975 -8.885501 -7.5105 -10.2485 -9.599001 -9.748501 -9.196 -9.18 -9.456 -9.077001 -12.993 
-14.2015 -8.891001 -12.4272 -10.229 -11.9597 -11.4145 -12.3678 -13.869 -9.853001 -13.6691 -13.0286 -14.693 
-14.5262 -13.8369 -13.7707 -14.6562 -13.1257 -14.1833 -16.4883 -14.526 -14.6401 -17.2417 -18.6446 
-5.42 -1.4985 -5.891 -3.2 -2.8645 -3.1125 -5.7385 -3.851 -1.7695 -5.5485 0 -3.9655 -3.2895 0 -1.756 -4.931 -3.7015 -3.8475 -5.9345 0 
-6.6125 -6.9925 -6.864 -5.436 -3.5345 -7.205 -8.184 -4.0015 -7.432001 -5.5485 -3.9655 -6.2105 -3.2895 -1.756 -6.6565 -6.0895 -7.509 -10.3225 -5.9345 
-12.3167 -7.262001 -8.731501 -5.9925 -7.5965 -9.2405 -8.194 -8.925 -7.432001 -9.2675 -6.2105 -6.2105 -4.799 -6.6565 -7.9975 -9.7075 -14.4142 -10.3225 
-12.5862 -8.932501 -9.257 -8.966001 -9.5845 -9.254001 -13.2501 -8.925 -11.7394 -11.6755 -6.2105 -6.9535 -9.2875 -7.9975 -11.8565 -16.7255 -14.4142 
-14.2567 -9.402 -12.5083 -11.0952 -9.6025 -14.3163 -13.2501 -13.4938 -14.1474 -11.6755 -6.9535 -12.263 -10.329 -11.8565 -18.8745 -16.7255 
-5.42 -3.564 -8.092 -3.8275 0 -8.092 -1.7695 -3.97 -1.756 -4.763 -1.7565 -5.5475 -3.307 0 -4.042 -4.293 0 
-9.0595 -13.514 -12.5927 -3.8275 -8.092 -9.6065 -6.263501 -5.137 -6.621 -5.1985 -7.246 -8.4505 -3.307 -4.042 -7.9215 -4.293 
-19.2785 -18.0147 -12.5927 -13.0255 -9.6065 -14.3303 -7.038501 -10.688 -7.201 -11.51 -10.7495 -8.4505 -7.719501 -7.9215 -7.9215 
-23.7792 -18.0147 -21.7907 -14.54 -14.3303 -15.1053 -12.9625 -11.268 -13.7799 -15.0135 -10.7495 -13.254 -12.7048 -7.9215 
-23.7792 -27.2127 -23.3052 -19.2638 -15.1053 -21.0293 -13.5425 -17.8469 -17.2834 -15.0135 -15.553 -18.2393 -12.7048 
-3.1015 -1.4985 -3.4795 0 -5.891 -3.2 -2.186 -4.846 -6.1395 -3.851 -1.7695 -1.4985 -3.948 -4.246 -3.2775 -2.5045 -3.8475 -3.4625 0 -5.4135 -3.5035 -3.7015 -1.4985 -5.891 0 -5.815 0 -3.8565 -3.898 0 -5.5485 0 
-4.7205 -5.2115 -3.4795 -5.891 -6.864 -4.7335 -6.2215 -9.409 -10.7335 -4.0015 -2.7955 -4.7695 -6.402 -5.6645 -3.678 -6.986 -7.826 -3.4625 -5.4135 -9.646501 -6.5375 -4.3435 -6.9925 -5.891 -5.815 -5.815 -3.8565 -5.199 -3.898 -5.5485 -5.5485 
-8.223001 -5.2115 -10.6215 -6.864 -8.1545 -8.677501 -10.0285 -14.1532 -10.776 -4.5775 -6.037 -7.181001 -7.439001 -5.6715 -8.412001 -10.75 -7.826 -9.908501 -9.646501 -12.7787 -7.5635 -8.989501 -6.9925 -12.6164 -5.815 -8.7375 -5.199 -5.199 -8.961 -5.5485 
-8.223001 -13.2411 -11.5945 -8.1545 -12.3475 -12.5851 -14.7515 -14.1957 -11.352 -7.665 -8.438001 -9.267501 -7.453001 -9.991501 -12.5494 -10.75 -14.7072 -14.2065 -12.7787 -13.8047 -12.5653 -8.989501 -14.4011 -12.6164 -8.7375 -9.397 -5.199 -9.2665 -8.961 
-16.681 -14.2141 -12.885 -12.3475 -16.2551 -17.3081 -14.794 -14.7717 -14.4395 -9.3125 -10.6215 -9.273001 -11.987 -14.4345 -12.5494 -17.6312 -19.0052 -17.3387 -13.8047 -18.8065 -12.5653 -16.6531 -14.4011 -15.5389 -9.397 -9.397 -9.2665 -9.2665 
