-4.759 
n/a 
n/a 
n/a 
n/a 
-4.759 
n/a 
n/a 
n/a 
n/a 
-4.759 
n/a 
n/a 
n/a 
n/a 
-4.759 
n/a 
n/a 
n/a 
n/a 
-1.934 -1.4985 -3.502 -8.2205 -4.6805 -4.3195 -4.0205 
-2.6125 -4.5955 -13.2211 -10.2135 -8.682501 -7.8335 
-5.258 -14.6348 -15.2141 -14.2155 -12.2645 
-15.4095 -16.6278 -19.2161 -17.7975 
-17.4025 -20.6298 -22.7981 
-1.934 -3.502 -9.758 -1.7695 -3.7875 -4.4095 
-4.8155 -14.7586 -11.6353 -5.637 -8.512501 
-17.1595 -16.6359 -15.5028 -10.3475 
-19.0368 -20.5034 -20.2133 
-22.9043 -25.2139 
-3.5455 -3.7575 -9.761001 -4.0205 
-5.799001 -14.5609 -14.0337 
-17.2932 -18.8336 
-21.5659 
n/a 
-3.502 -7.45 -3.9725 -4.425 -4.0205 
-12.4506 -10.341 -8.429501 -7.9265 
-15.3416 -14.798 -12.1478 
-19.7986 -18.5163 
-23.5169 
