-4.759 
n/a 
n/a 
n/a 
n/a 
-4.759 
n/a 
n/a 
n/a 
n/a 
-4.759 
n/a 
n/a 
n/a 
n/a 
-4.759 
n/a 
n/a 
n/a 
n/a 
-2.9805 -2.7415 -1.8085 -3.4155 -4.873 -1.756 -2.664 -4.4605 0 
-4.004 -3.891 -4.0495 -7.6495 -6.2285 -4.3655 -5.953 -4.4605 
-5.075 -5.417 -7.9505 -8.517 -8.0205 -7.5705 -5.953 
-6.6555 -8.822001 -8.709001 -10.2285 -8.911 -7.5705 
-9.324 -9.3765 -10.4185 -11.119 -8.911 
-2.9805 -2.186 -1.8085 -3.2825 -4.873 -1.756 -4.4605 
-4.1635 -3.164 -5.5105 -8.7095 -6.2285 -6.5945 
-5.078001 -6.6745 -11.8551 -10.0375 -7.936501 
-8.618501 -13.5069 -13.1831 -11.8789 
-16.1881 -14.8349 -15.0245 
-2.9805 -2.186 -1.8085 -3.2825 -4.873 -1.756 -4.4605 0 
-4.1635 -3.164 -5.5105 -8.7095 -6.2285 -6.5945 -4.4605 
-5.078001 -6.6745 -11.8551 -10.0375 -7.936501 -6.5945 
-8.618501 -13.5069 -13.1831 -11.8789 -7.936501 
-16.1881 -14.8349 -15.0245 -11.8789 
-2.9805 -2.186 -1.8085 -3.2825 -4.873 -1.756 -4.4605 -3.074 0 
-4.1635 -3.164 -5.5105 -8.7095 -6.2285 -6.5945 -7.901501 -3.074 
-5.078001 -6.6745 -11.8551 -10.0375 -7.936501 -9.6945 -7.901501 
-8.618501 -13.5069 -13.1831 -11.8789 -11.4185 -9.6945 
-16.1881 -14.8349 -15.0245 -15.3609 -11.4185 
