-4.759 
n/a 
n/a 
n/a 
n/a 
-4.759 
n/a 
n/a 
n/a 
n/a 
-4.759 
n/a 
n/a 
n/a 
n/a 
-4.759 
n/a 
n/a 
n/a 
n/a 
-1.4985 -3.905 -4.044 -2.8645 -5.717 -1.4985 -6.688 -4.33 -1.756 -2.9805 -2.8645 -5.478 -2.7455 -2.4265 -1.7695 -1.4985 -3.9725 0 
-5.252501 -8.146501 -6.3605 -7.4715 -6.935 -8.413501 -11.8804 -5.514 -4.3555 -4.3245 -7.0955 -6.109 -4.4735 -4.11 -2.7955 -4.88 -3.9725 
-9.307501 -10.716 -11.3037 -8.211 -14.2918 -13.9387 -13.0644 -7.034 -5.713 -8.465 -7.633501 -7.4735 -6.59 -4.913 -6.1195 -4.88 
-11.9878 -15.6592 -12.0432 -15.8004 -19.817 -15.1227 -14.5844 -8.385501 -9.566 -9.043501 -8.961 -8.808001 -7.664001 -8.018001 -6.1195 
-16.931 -16.3987 -19.6326 -21.3256 -21.001 -16.6427 -15.9359 -12.3783 -10.1775 -10.4558 -10.6215 -9.379001 -10.218 -8.018001 
-1.4985 -5.7925 -4.1585 -1.4985 -6.688 -2.8645 -3.1125 -3.966 
-7.446 -8.89 -5.117 -8.413501 -9.3275 -3.5345 -5.925 
-10.513 -9.380001 -12.816 -9.989 -10.2 -6.377 
-11.003 -17.2 -14.3915 -10.9865 -13.1799 
-18.823 -18.7755 -15.389 -13.9664 
-1.4985 -3.6385 -3.0695 -4.331 -1.7695 -4.2135 -3.1425 -5.4335 -1.4985 -5.3675 -1.756 -2.9805 -4.33 -4.5715 -1.7695 -1.4985 -3.9725 -2.3335 -3.135 -2.871 -5.4335 -1.4985 -5.3675 0 
-4.690001 -4.965 -5.337 -4.593 -5.4335 -7.7485 -10.204 -6.2375 -6.928 -6.618001 -4.3555 -6.051001 -8.491001 -7.033501 -2.7955 -4.88 -6.7065 -4.88 -5.7665 -8.2805 -6.2375 -6.928 -5.3675 
-5.4355 -7.180501 -5.460001 -8.5985 -9.3035 -15.2414 -11.008 -10.6875 -7.983 -9.861001 -7.224 -9.734 -11.4122 -7.9335 -6.1195 -7.213 -9.7375 -7.213 -8.931001 -9.0575 -10.6875 -6.928 
-7.8135 -7.3615 -9.6075 -12.7551 -16.8272 -16.0454 -15.458 -11.7425 -11.6148 -12.7295 -10.995 -13.1332 -12.3122 -11.5759 -7.968 -10.031 -12.0645 -10.354 -9.795501 -13.5769 -10.6875 
-7.9705 -10.7025 -13.9239 -20.2788 -17.6312 -20.4954 -16.513 -15.3743 -14.4833 -16.5005 -14.3942 -14.0332 -15.9546 -13.4244 -10.6465 -12.358 -15.2055 -11.2185 -14.3557 -13.5769 
-1.4985 -5.7925 -2.7415 -4.9465 -2.3615 -6.688 -3.074 -3.8905 -1.7695 -3.9725 -2.3335 -2.7415 -4.9465 -2.3345 -4.87 
-7.446 -7.970501 -6.294001 -7.562 -8.891001 -9.7325 -6.358 -6.88 -6.241001 -6.7065 -4.2725 -6.294001 -6.5295 -6.703 
-9.335 -11.7396 -8.525001 -14.4503 -12.3407 -13.4161 -9.582001 -10.485 -9.055 -7.984 -7.524 -7.472001 -9.582001 
-13.2025 -13.9706 -15.6645 -17.9 -16.0243 -16.6401 -13.301 -13.299 -10.533 -11.4881 -8.6975 -10.19 
-15.4335 -21.1101 -19.1142 -21.5836 -19.2483 -20.3591 -16.115 -14.777 -14.0371 -12.6616 -11.5457 
