-4.759 
n/a 
n/a 
n/a 
n/a 
-4.759 
n/a 
n/a 
n/a 
n/a 
-4.759 
n/a 
n/a 
n/a 
n/a 
-4.759 
n/a 
n/a 
n/a 
n/a 
-4.617 0 -7.949501 -3.0835 -3.7955 -1.934 -6.0115 
-4.617 -7.949501 -11.4454 -6.3835 -5.9925 -7.5935 
-12.9607 -11.4454 -14.7454 -7.8865 -10.001 
-16.4566 -14.7454 -16.2484 -12.2076 
-19.7566 -16.2484 -20.5695 
-4.617 0 0 -10.7225 -3.0835 -3.8195 -1.934 -6.0115 
-4.617 0 -10.7225 -13.806 -6.305 -5.8345 -7.5935 
-4.617 -10.7225 -13.806 -17.0275 -7.505 -9.613501 
-15.7337 -13.806 -17.0275 -18.2275 -11.8594 
-18.8172 -17.0275 -18.2275 -22.5819 
-4.617 -7.949501 0 -12.16972 -3.0835 -3.8195 
-12.9607 -7.949501 -12.16972 -15.25322 -6.305 
-12.9607 -20.53162 -15.25322 -18.47472 
-25.54282 -23.61512 -18.47472 
-28.62632 -26.83662 
-6.551 -6.6355 -3.0835 -6.717 -7.949501 
-12.8075 -11.0145 -9.753501 -15.4159 
-15.3365 -17.6845 -18.6954 
-22.0065 -26.6264 
-30.9484 
