-4.759 
n/a 
n/a 
n/a 
n/a 
-4.759 
n/a 
n/a 
n/a 
n/a 
-4.759 
n/a 
n/a 
n/a 
n/a 
-4.759 
n/a 
n/a 
n/a 
n/a 
-3.433 -1.4985 -4.416 -3.8275 -1.4985 -7.278 0 -7.3085 -9.3395 0 -2.9705 -2.7415 -1.4985 -3.17 -6.4115 -3.5015 -2.186 -3.1125 -5.43 -2.3345 -8.653501 -3.515 -1.934 -1.4985 -3.158 -3.8605 
-4.3795 -8.047501 -8.403001 -5.4605 -9.245501 -7.278 -7.3085 -17.2524 -9.3395 -2.9705 -4.512 -4.063 -3.7115 -8.754 -10.9075 -5.481 -6.9115 -10.004 -6.949 -11.3186 -12.7343 -5.256 -2.6125 -4.178 -7.1925 
-11.1909 -11.8897 -10.9344 -13.7065 -9.245501 -15.3227 -17.2524 -17.2524 -11.0145 -4.512 -5.831 -5.6305 -8.902 -13.4704 -12.887 -10.228 -14.0122 -11.523 -16.4627 -15.3994 -14.4753 -5.782 -5.265 -8.102 
-15.0331 -14.4211 -19.1804 -13.7065 -17.5456 -25.2666 -17.2524 -18.9274 -12.556 -5.831 -7.374001 -10.634 -13.6978 -15.4499 -17.634 -17.3287 -15.5312 -21.0367 -20.5435 -17.1404 -15.0013 -9.003 -8.7735 
-17.5645 -22.6671 -19.1804 -22.0066 -27.4895 -25.2666 -18.9274 -20.4689 -13.875 -7.374001 -12.5695 -15.4298 -15.6773 -20.1969 -24.7347 -18.8477 -25.0449 -25.1175 -22.2845 -17.6664 -18.2223 -12.6611 
-3.2615 -1.4985 -4.6165 -4.5165 0 -4.891 -4.9385 -1.4985 -3.699 -12.16972 -1.934 -3.533 0 
-4.032 -5.7985 -8.803501 -4.5165 -4.891 -9.044001 -5.916501 -5.264 -17.21212 -14.10372 -5.0615 -3.533 
-8.728001 -9.537001 -8.803501 -10.1725 -9.044001 -9.607 -9.084001 -19.31612 -19.14612 -17.23122 -5.0615 
-12.5717 -9.537001 -14.7957 -14.9983 -9.607 -12.7745 -23.27472 -21.25012 -22.27362 -17.23122 
-12.5717 -15.6776 -19.6215 -15.5613 -12.7745 -26.96522 -25.20872 -24.37762 -22.27362 
-3.2615 -2.985 -4.6165 -4.299 -2.925 -8.8225 -2.664 -3.699 -3.5015 -2.5045 -5.17 -4.0655 -3.918 -1.934 -1.4985 -3.158 -3.533 
-5.5625 -7.2865 -8.5205 -7.009 -10.932 -11.9175 -4.654 -6.8615 -5.249 -7.705501 -8.21 -8.428501 -5.666 -2.6125 -4.178 -5.476501 
-10.1715 -11.6251 -11.5181 -15.1868 -14.027 -13.9075 -7.1165 -9.0315 -10.5975 -9.314501 -9.502001 -10.4855 -6.38 -5.265 -5.89 
-14.7007 -14.6227 -19.6959 -18.2818 -16.017 -16.37 -9.1925 -14.5634 -12.2065 -10.6819 -10.4865 -11.5611 -9.191501 -6.391 
-17.6983 -22.8005 -22.7909 -20.2718 -18.4795 -18.446 -14.7216 -16.1724 -13.5739 -11.6664 -11.5621 -14.3726 -10.382 
-3.851 -1.7695 -2.3615 -6.721 -3.8275 0 -1.4985 -3.8275 -3.699 -3.355 -12.16972 -2.7415 -4.9385 -2.3345 -4.891 
-4.0015 -3.736 -9.226001 -10.1765 -3.8275 -1.4985 -4.726 -8.533 -5.462 -16.47072 -14.91122 -6.226501 -5.823501 -7.811501 
-6.14 -10.2535 -12.7673 -10.1765 -5.4605 -4.726 -9.5845 -10.5536 -19.77592 -19.21222 -18.39622 -6.8015 -11.9593 
-12.7631 -14.3908 -12.7673 -11.8095 -7.264 -9.5845 -11.6589 -24.86752 -22.51742 -22.69722 -18.97122 -13.1779 
-16.9004 -14.3908 -14.4003 -13.613 -12.6139 -11.6589 -25.97282 -27.60902 -26.00242 -23.27222 -25.34762 
