-4.759 
n/a 
n/a 
n/a 
n/a 
-4.759 
n/a 
n/a 
n/a 
n/a 
-4.759 
n/a 
n/a 
n/a 
n/a 
-4.759 
n/a 
n/a 
n/a 
n/a 
-2.882 -3.1635 0 -9.3085 -3.8145 -10.174 -9.473001 -3.6515 -6.6585 -3.0605 -3.1385 -4.493 
-5.234 -3.1635 -9.3085 -10.841 -15.0797 -19.7302 -13.3471 -11.3466 -10.382 -6.437 -6.5305 
-5.234 -13.0102 -10.841 -22.1062 -24.6359 -23.6043 -21.0422 -15.0701 -13.7585 -9.123501 
-16.0651 -14.5427 -22.1062 -31.6624 -28.51 -31.2994 -24.7657 -18.4466 -16.445 
-17.5976 -25.8079 -31.6624 -35.5365 -36.2051 -35.0229 -28.1422 -21.1331 
-2.882 -3.1635 0 -1.934 -5.3565 -7.9185 -2.3335 -2.7415 -4.504 -2.9905 -3.961 -1.4985 -6.899 -4.257 -1.934 -9.187 -3.0605 -3.1385 -3.5005 -3.5385 -3.152 -4.493 0 
-5.234 -3.1635 -1.934 -6.88 -13.6362 -10.468 -4.2725 -5.676001 -4.8085 -7.5365 -6.146501 -8.336 -9.082001 -6 -9.810501 -12.5299 -6.437 -5.9425 -6.3935 -5.624 -5.593 -4.493 
-5.234 -5.852 -6.88 -15.6337 -16.1857 -12.407 -7.3885 -5.7935 -10.1949 -9.189 -13.4286 -9.617001 -10.703 -14.5273 -13.1918 -15.9064 -8.475 -7.5885 -8.4905 -7.319 -5.593 
-7.874001 -11.1934 -15.6337 -18.1832 -18.1247 -15.523 -7.596001 -11.5779 -11.8474 -16.7165 -14.7096 -11.3178 -19.2303 -17.9086 -16.5683 -17.9444 -10.468 -9.0305 -9.184 -7.319 
-13.5966 -19.9471 -18.1832 -20.1222 -21.2407 -15.7305 -13.46 -13.2304 -19.3749 -17.9975 -16.4104 -19.8451 -22.6116 -21.2851 -18.6063 -19.9374 -11.91 -9.6595 -9.184 
-2.882 -3.1635 0 -6.899 -4.257 -4.5115 -1.934 -9.3085 -3.8145 -12.16972 -11.0905 -4.493 -3.0605 -3.237 -3.5005 -5.1475 0 
-5.234 -3.1635 -6.899 -9.082001 -7.941 -5.896 -10.041 -10.841 -17.07542 -23.26022 -15.5835 -7.726 -6.916 -6.836 -8.523001 -5.1475 
-5.234 -10.6007 -9.082001 -12.8572 -9.4725 -14.9028 -11.5735 -24.10192 -28.16592 -27.75322 -18.8165 -12.2013 -11.052 -12.3441 -8.523001 
-13.6556 -12.7837 -12.8572 -14.3887 -18.5507 -16.4353 -24.83442 -35.19242 -32.65892 -30.98622 -23.2918 -16.3373 -16.5601 -12.3441 
-15.8386 -16.5589 -14.3887 -23.4669 -20.0832 -29.69622 -35.92492 -39.68542 -35.89192 -35.46152 -27.4278 -21.8454 -16.5601 
-2.882 -2.9965 0 -1.934 -10.638 -3.8145 0 -10.174 0 -9.473001 -3.6515 -5.939 -5.6785 -2.4945 -5.198 0 -2.645 -3.1575 -3.0605 -4.9225 -2.4945 -4.493 
-5.2005 -2.9965 -1.934 -13.5784 -14.4525 -3.8145 -10.174 -10.174 -9.473001 -13.3471 -11.1165 -10.443 -7.4355 -6.884 -5.198 -2.645 -3.72 -6.123 -8.9715 -6.9525 -6.256001 
-5.2005 -5.558001 -13.5784 -17.3929 -14.4525 -15.0797 -10.174 -19.7302 -13.3471 -20.8121 -15.6205 -12.2 -12.1052 -6.884 -8.013 -3.72 -6.359 -12.9478 -11.2621 -9.925 
-7.433001 -17.5522 -17.3929 -17.3929 -25.7177 -15.0797 -19.7302 -23.6043 -20.8121 -25.3161 -17.3775 -16.8697 -12.1052 -9.351 -8.437501 -6.359 -13.514 -15.2384 -14.2346 
-20.205 -21.3667 -17.3929 -28.6581 -25.7177 -24.6359 -23.6043 -31.0693 -25.3161 -27.0731 -22.0472 -16.8697 -14.5722 -9.851 -11.4031 -13.514 -15.8046 -18.2109 
