-4.759 
n/a 
n/a 
n/a 
n/a 
-4.759 
n/a 
n/a 
n/a 
n/a 
-4.759 
n/a 
n/a 
n/a 
n/a 
-4.759 
n/a 
n/a 
n/a 
n/a 
-4.4715 0 -2.925 -3.013 -1.4985 -3.6175 -3.2615 -7.6525 -4.2315 
-4.4715 -2.925 -4.609 -4.488 -4.679501 -6.481 -10.543 -12.4772 
-7.019001 -4.609 -6.311501 -5.8555 -7.373 -14.3285 -15.3677 
-8.750001 -6.311501 -7.755501 -8.442 -15.4353 -19.1532 
-10.0575 -7.755501 -10.6595 -16.8335 -20.26 
-4.4715 -2.925 -6.0955 -3.277 -5.941 -1.756 -3.013 -2.3615 -3.6175 0 
-7.019001 -8.622001 -8.185 -6.7335 -6.921 -4.674 -4.620501 -5.316 -3.6175 
-13.0002 -10.598 -11.8647 -7.8145 -9.5185 -6.879001 -7.0625 -5.316 
-14.9762 -14.2777 -12.9457 -10.2385 -11.7381 -9.054501 -7.0625 
-18.6559 -15.3587 -15.3697 -12.5049 -13.9136 -9.054501 
-3.17 -1.7565 -1.4985 -3.0435 -2.4945 -3.7445 -1.934 -4.151 
-4.179 -2.4195 -4.4865 -6.156 -6.067 -5.29 -6.3335 
-4.497 -5.3475 -7.259 -9.321001 -7.184 -10.4945 
-7.5875 -7.661001 -10.2035 -10.435 -12.7849 
-10.111 -10.2865 -11.3175 -16.3781 
-4.4715 -2.925 -2.4945 -3.737 -4.151 -2.0935 -2.985 -3.4985 0 
-7.019001 -3.7675 -5.325 -8.563001 -6.249 -4.3315 -5.424 -3.4985 
-7.704 -6.339 -10.7846 -9.469001 -8.351501 -7.2665 -5.424 
-10.061 -11.9068 -11.6906 -9.5415 -11.5643 -7.2665 
-16.1416 -12.8128 -11.7631 -14.6803 -11.5643 
