-4.759 
n/a 
n/a 
n/a 
n/a 
-4.759 
n/a 
n/a 
n/a 
n/a 
-4.759 
n/a 
n/a 
n/a 
n/a 
-4.759 
n/a 
n/a 
n/a 
n/a 
-2.5195 -4.723 -1.7695 -3.5905 -4.732 -1.4985 -3.228 -3.1715 -4.304 -4.519 0 -3.858 -9.080501 -2.4285 -10.889 0 -2.4285 -1.4985 -5.0265 -4.085 -3.325 -2.985 -4.132 0 -2.674 -3.9955 -4.4285 -9.312 -3.929 -3.0365 -2.186 -1.8085 -4.794 -3.9225 -1.4985 -4.085 -3.5455 -4.219 0 -3.098 -3.7285 -3.6825 -2.8645 -5.1605 -6.557 0 
-6.8625 -6.7365 -6.087 -8.103001 -5.618001 -3.9575 -7.029 -6.271501 -6.8925 -4.519 -3.858 -12.036 -10.5375 -11.356 -9.038501 -2.4285 -4.002501 -6.196 -8.505501 -6.564 -5.788 -6.383 -4.132 -2.674 -5.6325 -8.657001 -12.586 -10.071 -5.627 -3.66 -3.164 -5.938001 -8.176001 -4.463 -4.7765 -6.808 -7.181001 -4.219 -3.098 -6.607 -6.9145 -5.841001 -6.3835 -10.7335 -6.557 
-7.238 -9.0905 -10.9347 -9.1365 -7.034501 -7.307 -10.1145 -7.9835 -6.8925 -8.501 -12.1725 -15.368 -20.0495 -12.0565 -12.232 -4.002501 -8.761001 -9.6525 -11.2537 -9.1335 -8.071501 -6.383 -7.25 -5.6325 -9.729 -17.1293 -13.4956 -11.357 -6.2205 -4.218 -6.9475 -8.724001 -8.524 -6.783 -7.068 -9.398001 -7.181001 -7.449501 -6.607 -9.774 -8.7775 -9.064 -12.4441 -10.7335 
-9.329 -13.9944 -11.9682 -11.0846 -10.6735 -10.1465 -10.4095 -7.9835 -11.5003 -17.1585 -15.6797 -24.6017 -19.6715 -15.3285 -14.002 -8.761001 -12.4655 -12.4267 -13.8232 -11.5536 -8.071501 -9.215501 -10.071 -9.729 -18.4437 -17.9793 -15.0539 -11.9263 -6.834 -8.5865 -10.2485 -9.006001 -11.3208 -9.8085 -10.5238 -9.398001 -11.3909 -11.4543 -9.774 -11.9588 -12.3589 -15.1272 -12.4441 
-14.2953 -15.0279 -13.9163 -14.7236 -13.513 -10.41 -10.4095 -13.0603 -20.1578 -20.5375 -24.9641 -24.9641 -23.4353 -17.4703 -18.9795 -12.4655 -15.2397 -14.9962 -16.2433 -11.5536 -10.76 -12.0639 -14.1675 -18.4437 -19.2937 -19.5376 -15.6134 -12.5633 -11.3357 -11.5063 -10.5305 -12.2948 -14.3463 -12.4893 -10.5238 -14.0711 -15.3957 -14.6213 -11.9588 -15.5402 -18.4221 -15.1272 
-2.5195 -4.723 -1.7695 -3.5905 -1.4985 -4.356 -4.519 -4.0875 -3.5015 -1.934 -1.4985 -3.1715 -2.8645 -3.9955 -9.080501 -2.4285 -10.889 -3.1495 -3.2495 -4.085 -2.871 0 -2.4285 -2.8965 -2.742 -3.973 -2.356 -4.794 0 -4.389 -3.17 -3.9035 -1.7565 -5.1845 -5.74 -3.352 -3.7435 -4.519 -3.3715 -4.085 -3.613 -4.2285 -1.756 -3.519 -4.794 0 -2.872 -3.5725 -3.7285 -3.6825 -4.1 -3.098 0 
-6.8625 -6.7365 -6.087 -5.1795 -5.410501 -7.781501 -7.759 -5.143 -4.704 -2.6125 -3.994 -5.634 -5.568 -12.34 -10.5375 -11.356 -13.1715 -4.8975 -6.079 -7.3195 -2.871 -2.4285 -4.1405 -6.563 -5.6225 -6.195001 -7.3675 -4.794 -4.389 -7.840501 -6.5365 -4.616 -6.580501 -5.7465 -9.7705 -7.2345 -8.0465 -7.9055 -7.084001 -7.71 -6.6575 -5.408501 -5.649 -8.0985 -4.794 -2.872 -5.087501 -7.1285 -6.9145 -7.137 -7.0635 -3.098 
-7.238 -9.0905 -7.3295 -8.857 -10.341 -12.1359 -7.798501 -5.692 -5.1615 -4.939 -5.978 -8.065001 -14.662 -15.575 -20.0495 -16.285 -14.856 -7.774 -8.211 -7.3195 -4.4275 -4.1405 -8.2395 -9.179501 -8.024 -11.7733 -7.3675 -9.2095 -7.840501 -11.7236 -6.635 -8.771501 -6.961501 -9.7825 -13.653 -8.326 -11.7128 -10.2085 -11.114 -9.443001 -7.6085 -8.643001 -10.281 -8.0985 -7.4835 -5.087501 -9.2305 -10.9121 -8.217501 -10.186 -7.0635 
-9.329 -10.1345 -11.2506 -13.9211 -14.6954 -12.1754 -8.2395 -6.304 -7.447001 -7.429501 -9.4005 -18.2398 -18.637 -25.1591 -24.1432 -18.017 -17.8668 -10.467 -8.211 -8.885 -6.8055 -8.2395 -11.0318 -11.6344 -13.9317 -11.7733 -12.5546 -12.8478 -11.7236 -11.8221 -10.553 -8.782001 -10.5635 -13.665 -14.7445 -12.1265 -14.0158 -14.2385 -12.847 -10.534 -9.238501 -13.8974 -10.281 -11.2942 -10.159 -9.2305 -13.1147 -12.2151 -11.4803 -10.186 
-10.3555 -14.0556 -16.3147 -18.2755 -14.7349 -12.6164 -9.1005 -8.603001 -10.275 -9.972501 -19.7325 -21.6188 -27.9214 -30.0156 -26.1238 -21.3351 -20.5822 -10.467 -10.6215 -10.6345 -9.342501 -11.0318 -13.4867 -17.5421 -13.9317 -16.9604 -16.1929 -16.7309 -11.8221 -15.7401 -10.5705 -12.5116 -14.446 -14.7565 -18.545 -14.4295 -18.0458 -15.9715 -13.938 -12.164 -14.9909 -13.8974 -13.4767 -13.9697 -14.4276 -13.1147 -14.4177 -15.4779 -11.4803 
-1.934 -3.228 -4.723 -1.7695 -3.5905 -4.219 -3.458 -6.848001 -1.756 -8.316 
-5.4695 -9.594501 -6.7365 -6.087 -7.4595 -7.291501 -9.906 -8.3605 -10.1265 
-12.6576 -11.8024 -9.0905 -10.4425 -10.934 -14.4449 -10.1425 -10.3105 
-14.8655 -14.1564 -13.5022 -13.917 -18.0874 -14.6814 -12.3503 
-17.2195 -18.5681 -16.9767 -21.0704 -18.3239 -16.8892 
-2.4265 -2.8645 -3.1125 -3.858 -1.4985 -6.848001 -2.4285 -1.4985 -8.316 0 -2.4285 -1.8085 -4.794 -4.172 -2.3345 -3.858 -1.7565 -3.277 0 -2.3335 -2.8645 -3.1125 -4.389 -1.8085 -4.4285 -1.7565 -4.66 -2.5195 -4.723 -4.732 -4.519 -3.152 -4.005 -1.7695 -1.4985 -3.1715 -4.304 -3.228 -1.934 -3.5905 -4.013 -3.849 -4.085 -2.674 -3.1125 -4.912 -5.9135 -3.5455 -4.304 -4.492 -1.934 -5.1845 -5.74 0 -1.4985 -3.1715 -2.8645 -3.098 -5.4145 -1.8085 -7.411 -4.1 -3.0415 -3.9135 0 
-4.1435 -3.5345 -6.8055 -4.9985 -7.7685 -9.544001 -4.002501 -9.465501 -8.316 -2.4285 -4.126 -5.938001 -7.5035 -5.0445 -5.5625 -5.347 -4.25 -3.277 -2.3335 -4.3785 -3.5345 -7.252 -6.048501 -5.2695 -4.6405 -6.170001 -6.9285 -6.8625 -9.1105 -9.320001 -6.5815 -5.6565 -5.6275 -2.7955 -3.994 -6.271501 -7.477 -5.9865 -5.055 -7.1055 -6.747 -7.224 -5.5405 -3.6315 -7.829 -8.198 -9.106001 -7.168 -7.852 -5.474 -6.564 -5.7465 -5.74 -1.4985 -3.994 -5.634 -5.4205 -8.1395 -6.3875 -7.3905 -10.369 -6.967501 -4.52 -3.9135 
-4.755 -7.453 -8.31 -10.6095 -10.022 -10.272 -12.2381 -9.465501 -10.985 -4.126 -8.286 -8.124001 -7.544 -8.6905 -6.956 -6.320001 -4.25 -5.2055 -4.3785 -4.9985 -7.6655 -8.746 -8.126 -5.427 -7.516 -8.402 -11.8065 -9.377001 -13.8385 -11.6003 -6.982 -6.914001 -6.724 -5.2625 -6.9865 -9.042001 -10.2485 -9.18 -7.949501 -9.5135 -9.725 -8.532001 -7.0635 -8.2555 -10.4945 -11.7655 -12.9017 -11.2026 -8.7665 -10.082 -6.819 -5.7465 -7.656 -3.994 -5.978 -8.1875 -9.668501 -9.254 -12.2925 -8.6955 -10.754 -8.522 -4.52 
-8.759001 -8.83 -14.1546 -10.7225 -10.366 -18.8392 -12.2381 -12.1749 -12.6825 -8.286 -10.7335 -8.143001 -11.7136 -10.361 -7.926001 -6.320001 -6.252501 -7.779 -4.9985 -9.103001 -9.304 -11.3273 -8.460501 -7.7415 -10.316 -13.455 -14.321 -14.1756 -16.1188 -12.0008 -8.66 -8.4715 -9.5725 -7.905 -9.2305 -12.3749 -14.4302 -12.0785 -10.31 -12.5553 -10.65 -9.8295 -12.0799 -10.621 -14.062 -15.5612 -16.9363 -12.1171 -13.8353 -10.1025 -6.819 -7.6635 -9.3055 -5.978 -8.464001 -12.5301 -10.436 -15.4082 -14.7107 -12.4258 -12.5223 -8.522 
-10.176 -14.8976 -14.2676 -11.0665 -18.9624 -18.8392 -14.9475 -13.8724 -16.8425 -10.7335 -10.76 -12.563 -13.3841 -11.331 -7.926001 -8.4175 -8.478001 -8.581 -9.103001 -10.688 -11.8485 -11.6618 -9.213 -10.7479 -15.369 -15.9695 -19.1196 -16.4559 -16.5193 -13.6788 -9.63 -10.7025 -12.4886 -10.494 -12.588 -16.5566 -17.3287 -14.439 -13.5244 -13.4803 -11.9475 -14.8459 -14.4454 -14.1885 -17.8577 -19.5958 -17.8508 -17.1859 -13.8558 -10.1025 -8.13 -9.309501 -10.7035 -8.464001 -12.8418 -13.2976 -16.5902 -17.6912 -17.4966 -14.0159 -12.5223 
