-4.759 
n/a 
n/a 
n/a 
n/a 
-4.759 
n/a 
n/a 
n/a 
n/a 
-4.759 
n/a 
n/a 
n/a 
n/a 
-4.759 
n/a 
n/a 
n/a 
n/a 
-6.031 -3.4635 -3.7695 -3.254 
-8.77 -6.589001 -5.815001 
-12.0805 -10.31 
-15.8015 
n/a 
-3.7695 -3.254 -2.7455 -3.995 -3.5855 
-5.815001 -6.0205 -6.8005 -5.545 
-9.2115 -10.8183 -8.137 
-14.3297 -12.1548 
-15.6662 
-3.968 -1.7565 -4.297 -2.7455 -8.408501 
-5.4235 -6.04 -6.718 -10.6055 
-8.3225 -8.682501 -15.7038 
-11.3376 -17.7725 
-20.4276 
-3.254 -2.0935 -5.101 -3.5855 
-5.068501 -7.2345 -8.061001 
-10.66 -10.4595 
-13.885 
n/a 
