-4.759 
n/a 
n/a 
n/a 
n/a 
-4.759 
n/a 
n/a 
n/a 
n/a 
-4.759 
n/a 
n/a 
n/a 
n/a 
-4.759 
n/a 
n/a 
n/a 
n/a 
-4.3235 -1.934 -5.203 -4.4225 -10.2885 -5.5025 -4.673 -5.1845 -3.1385 -1.7695 -3.502 -3.976 0 -4.908 0 -11.854 0 -1.756 -7.147501 
-5.264 -6.5035 -9.925501 -16.4256 -16.0974 -10.2755 -10.504 -7.4095 -4.6115 -5.535 -4.3935 -3.976 -4.908 -4.908 -12.7762 -12.7762 -1.756 -9.248 
-10.7335 -11.8044 -21.9286 -22.2345 -20.8704 -16.1065 -12.729 -8.9575 -8.863001 -6.165 -4.3935 -7.448 -4.908 -19.259 -12.7762 -14.4087 -9.244 
-16.0344 -23.8075 -27.7375 -27.0075 -26.7014 -18.3315 -14.277 -13.4168 -9.409 -6.165 -8.096001 -7.448 -19.259 -19.259 -14.4087 -22.2773 
-28.0375 -29.6164 -32.5105 -32.8385 -28.9264 -19.8795 -18.7363 -13.9628 -9.409 -9.682501 -8.096001 -22.6542 -19.259 -20.8915 -22.2773 
-5.3345 -1.934 -6.448 -2.3345 -4.065 -4.9795 -3.5435 -6.4735 -3.152 -4.3155 -1.7695 -1.4985 -3.959 -3.502 -3.976 0 -4.908 0 -4.933 0 -4.7845 0 
-6.396 -8.402 -8.337001 -6.219 -6.884501 -7.250501 -10.068 -8.1625 -6.024 -4.928 -2.7955 -5.5 -6.755 -4.3935 -3.976 -4.908 -4.908 -4.933 -4.933 -4.7845 -4.7845 
-13.2158 -10.304 -12.4705 -8.619 -8.186001 -14.2394 -11.757 -10.0375 -6.5845 -5.7845 -6.960001 -8.811001 -7.568 -4.3935 -7.448 -4.908 -8.368001 -4.933 -8.8025 -4.7845 
-15.1178 -14.4375 -14.8705 -10.7025 -15.3369 -15.9284 -13.632 -10.58 -7.074501 -10.2375 -9.986001 -10.1675 -7.568 -8.096001 -7.448 -8.368001 -8.368001 -8.8025 -8.8025 
-19.2513 -16.8375 -16.954 -17.8534 -17.0259 -17.8034 -14.1745 -11.5446 -11.6509 -13.2635 -11.7189 -10.1675 -10.3035 -8.096001 -9.880501 -8.368001 -9.925501 -8.8025 
-1.934 -5.203 0 -3.5645 -3.9675 -4.559 -13.18 -2.4945 -4.673 -1.7695 -6.903 0 -10.9655 0 -10.9935 0 -9.518001 
-6.5035 -5.203 -3.5645 -9.156501 -9.061501 -18.5785 -15.928 -5.3605 -5.009501 -9.132 -6.903 -10.9655 -10.9655 -10.9935 -10.9935 -9.518001 
-6.5035 -9.495501 -9.156501 -14.4749 -24.3622 -20.9815 -18.794 -5.431 -13.4534 -9.132 -18.6103 -10.9655 -21.959 -10.9935 -20.5115 
-11.3744 -15.2051 -14.4749 -29.7756 -25.6832 -23.8475 -18.8645 -14.4481 -13.4534 -20.8977 -18.6103 -21.959 -21.959 -20.5115 
-17.084 -20.5235 -29.7756 -31.0966 -28.5492 -23.918 -27.8816 -14.4481 -25.2191 -20.8977 -29.6038 -21.959 -31.477 
-3.17 -4.528 0 -3.5455 -1.4985 -6.448 -1.4985 -4.5665 -4.065 -3.5435 -3.43 -8.27 -3.6955 -1.7695 -3.959 -3.115 -3.502 -3.976 0 -4.908 0 -4.933 -1.756 -4.7845 0 
-6.686501 -4.528 -3.5455 -3.91 -6.72 -7.625 -5.3025 -10.1035 -6.1265 -6.837 -12.9932 -12.3923 -4.4705 -6.2225 -6.08 -7.028 -4.3935 -3.976 -4.908 -4.908 -4.933 -6.8845 -6.9905 -4.7845 
-6.686501 -6.9835 -3.91 -7.922501 -7.764501 -10.2485 -11.6577 -12.165 -8.727 -16.7336 -17.1155 -13.1673 -9.351001 -7.492 -7.997 -7.636001 -4.3935 -7.448 -4.908 -8.368001 -6.8845 -9.04 -6.9905 
-9.282001 -7.185 -7.922501 -8.927501 -10.503 -17.5269 -13.7192 -14.7655 -18.7686 -20.8559 -17.8905 -18.0478 -9.879001 -9.448 -8.212 -7.636001 -8.096001 -7.448 -8.368001 -9.133501 -9.04 -9.04 
-9.524 -11.7005 -8.927501 -11.694 -17.686 -19.5884 -16.3197 -24.8071 -22.8909 -21.6309 -22.771 -18.5758 -11.835 -9.7085 -8.212 -10.609 -8.096001 -9.880501 -9.133501 -10.504 -9.04 
