-4.759 
n/a 
n/a 
n/a 
n/a 
-4.759 
n/a 
n/a 
n/a 
n/a 
-4.759 
n/a 
n/a 
n/a 
n/a 
-4.759 
n/a 
n/a 
n/a 
n/a 
-3.251 -3.584 -3.325 -3.8275 -1.934 -6.6585 -4.2655 -3.6885 -2.3615 -2.95 -2.871 -1.7565 -3.188 -3.3715 -3.695 -4.0415 -3.9665 
-7.2465 -7.459001 -7.645 -5.2615 -7.809 -11.136 -8.436501 -6.068501 -4.4645 -5.9425 -3.5385 -5.13 -6.5985 -7.755501 -7.924 -6.334 
-11.7435 -12.0978 -9.816501 -9.859 -12.7437 -15.307 -11.3563 -7.8005 -7.297501 -6.502 -7.183001 -9.658001 -11.3745 -12.2201 -10.8927 
-16.3823 -14.2693 -14.5968 -14.8513 -16.9147 -18.2268 -13.0883 -10.451 -7.7605 -10.7175 -12.9572 -14.5372 -15.8391 -15.1888 
-18.5538 -19.0496 -19.5891 -19.0223 -19.8345 -19.9588 -15.7388 -10.914 -11.918 -16.6357 -17.8364 -19.0018 -18.8078 
-3.2615 -4.101 -3.8275 0 -3.851 -1.7695 -4.3705 -3.6885 -3.1015 -2.4265 -2.186 -3.188 -2.229 -2.871 -1.7565 -1.4985 -4.4665 -4.7265 -3.9665 0 
-7.41 -7.710001 -3.8275 -3.851 -4.0015 -6.2995 -8.3025 -6.413 -4.9345 -3.292 -6.3455 -4.279 -5.068 -3.5385 -2.4195 -4.729 -10.5392 -8.387 -3.9665 
-11.7544 -7.710001 -7.8585 -4.0015 -7.7645 -10.8153 -11.2316 -7.917 -5.716 -7.766 -7.093 -8.079 -5.509501 -3.7675 -5.4655 -10.9295 -14.1997 -8.387 
-11.7544 -12.1976 -7.9085 -7.7645 -12.9689 -13.7444 -12.7356 -8.623501 -9.938001 -8.943501 -10.064 -8.974001 -5.718 -5.6445 -12.099 -14.59 -14.1997 
-16.242 -12.2476 -11.9163 -12.9689 -15.898 -15.2484 -13.4421 -13.0469 -11.1411 -12.3985 -10.124 -8.999001 -7.4525 -12.3774 -15.7595 -14.59 
-3.2615 -1.4985 -4.6895 -3.8275 -1.756 -1.4985 -3.288 -4.5165 -1.934 -1.4985 -3.59 -3.1015 -2.4265 -3.7905 -2.871 -1.7565 -1.4985 -3.17 -4.7265 -3.9665 -3.9225 -1.4985 -3.188 -4.707 0 
-4.032 -5.682 -7.198501 -5.1855 -3.0405 -4.3455 -9.595 -6.12 -2.6125 -4.268 -6.6825 -4.9345 -6.357 -5.622 -3.5385 -2.4195 -3.7115 -8.392 -8.387 -7.679501 -4.463 -3.619 -8.818501 -4.707 
-8.657001 -7.435501 -9.144001 -6.0845 -5.7105 -11.1489 -11.3777 -6.9085 -4.955501 -7.0235 -8.235001 -9.2675 -8.2465 -5.739 -3.7675 -4.4355 -8.726 -12.0741 -12.4692 -8.192 -6.5165 -10.228 -8.818501 
-10.5009 -9.431001 -10.5865 -9.7935 -12.7231 -12.9316 -12.1662 -9.5175 -7.615001 -8.606501 -12.8448 -11.2588 -8.455001 -5.8675 -4.622 -9.724501 -12.5473 -16.1563 -12.9817 -10.523 -14.6231 -10.228 
-12.4964 -10.6885 -14.2955 -16.8813 -14.5058 -13.7201 -14.7752 -12.2922 -9.106001 -13.3165 -14.8361 -11.4673 -8.6295 -6.38 -10.138 -13.6684 -16.6295 -16.6688 -15.3127 -18.6078 -14.6231 

n/a 
n/a 
n/a 
n/a 
