-4.759 
n/a 
n/a 
n/a 
n/a 
-4.759 
n/a 
n/a 
n/a 
n/a 
-4.759 
n/a 
n/a 
n/a 
n/a 
-4.759 
n/a 
n/a 
n/a 
n/a 
-4.1975 -1.7565 -4.6845 -3.683 -1.7565 -4.6845 0 
-6.0075 -5.661 -9.5185 -7.767 -5.661 -4.6845 
-10.9458 -10.1545 -13.7005 -11.9429 -5.661 
-15.4393 -14.5019 -17.8764 -11.9429 
-19.7867 -18.6778 -17.8764 
-4.3375 -4.179 -2.4945 -3.4635 -1.4985 -4.065 -4.179 -1.756 -1.4985 -4.493 -4.179 -2.4945 -3.402 -2.264 -9.5495 -4.179 0 
-6.7405 -5.893001 -6.1285 -4.6325 -4.824 -7.9725 -5.011001 -3.0405 -5.7995 -6.3885 -5.893001 -4.92 -3.793 -12.116 -15.4705 -4.179 
-8.4755 -10.442 -6.8425 -8.193001 -8.988501 -9.0605 -6.4875 -7.4075 -7.3255 -7.831 -7.966001 -5.014 -14.7718 -18.8395 -15.7657 
-13.2151 -11.156 -10.3675 -12.6509 -9.863501 -10.168 -10.016 -9.422 -8.446 -10.5225 -8.085001 -16.57 -21.1203 -18.8395 
-13.9291 -14.681 -14.8254 -13.5259 -11.0068 -13.6965 -10.763 -10.3965 -11.6271 -10.591 -19.8768 -22.7497 -21.1203 
-4.3375 -4.179 -4.3895 -2.3345 -3.6085 -3.866 0 -4.969 -1.7565 -4.179 -9.240001 0 -12.16972 0 
-6.7405 -8.654001 -4.6785 -6.0665 -6.941501 -3.866 -4.969 -6.809 -5.678 -14.6592 -9.240001 -12.16972 -12.16972 
-11.6889 -9.104501 -8.4535 -10.4647 -6.941501 -9.908501 -6.809 -11.5941 -16.6914 -14.6592 -21.70472 -12.16972 
-12.1394 -12.9001 -13.1783 -10.4647 -14.1814 -11.8697 -11.5941 -22.6075 -16.6914 -27.12392 -21.70472 
-15.935 -17.6249 -13.1783 -17.7046 -16.1426 -16.6548 -22.6075 -22.6075 -29.15612 -27.12392 
-3.4985 -4.3375 -4.179 -2.4945 -4.979 -1.934 -4.4165 -2.356 -1.4985 -4.065 -3.6835 0 -4.058 -4.179 -3.61 -3.8825 -1.7695 -2.3335 -1.7565 -9.5495 
-8.203 -6.7405 -5.893001 -6.9415 -6.53 -5.5415 -5.7255 -3.1615 -4.824 -7.182 -3.6835 -4.058 -7.0015 -8.2675 -6.687 -4.5575 -4.46 -4.618 -10.5625 
-10.4265 -8.4755 -9.142501 -7.7495 -10.3815 -5.757 -6.0345 -6.448 -8.363001 -7.182 -8.434 -7.0015 -11.7432 -11.7233 -6.873 -5.6335 -5.4005 -13.6319 
-12.1615 -11.9156 -10.0785 -11.7262 -10.4005 -6.0685 -9.469 -10.031 -8.363001 -10.586 -11.7979 -11.7432 -15.199 -11.9093 -8.566501 -5.963 -14.7812 
-15.6016 -12.8516 -14.1366 -11.7452 -11.0458 -9.507 -13.181 -10.031 -11.9002 -13.9499 -16.5396 -15.199 -15.385 -13.6028 -8.929 -15.6704 
