-4.759 
n/a 
n/a 
n/a 
n/a 
-4.759 
n/a 
n/a 
n/a 
n/a 
-4.759 
n/a 
n/a 
n/a 
n/a 
-4.759 
n/a 
n/a 
n/a 
n/a 
-4.7545 0 -3.545 0 -4.156 0 -3.3165 
-4.7545 -3.545 -3.545 -4.156 -4.156 -3.3165 
-8.0515 -3.545 -8.615 -4.156 -8.0065 
-8.0515 -8.615 -8.615 -8.0065 
-14.1333 -8.615 -12.9033 
-3.668 0 -2.8195 0 -4.156 0 -3.3165 
-3.668 -2.8195 -2.8195 -4.156 -4.156 -3.3165 
-7.283501 -2.8195 -7.294001 -4.156 -8.0065 
-7.283501 -7.294001 -7.294001 -8.0065 
-12.1134 -7.294001 -12.2935 
-4.2165 0 -7.7935 0 -5.3295 0 -4.2995 
-4.2165 -7.7935 -7.7935 -5.3295 -5.3295 -4.2995 
-12.3334 -7.7935 -13.5968 -5.3295 -9.692 
-12.3334 -13.5968 -13.5968 -9.692 
-18.1367 -13.5968 -17.9593 
-6.458 0 -3.545 0 -4.2725 0 -3.3165 
-5.3945 -3.545 -3.545 -4.2725 -4.2725 -3.3165 
-10.5171 -3.545 -8.578501 -4.2725 -7.421 
-10.5171 -8.578501 -8.578501 -7.421 
-15.6934 -8.578501 -11.9584 
