-4.759 
n/a 
n/a 
n/a 
n/a 
-4.759 
n/a 
n/a 
n/a 
n/a 
-4.759 
n/a 
n/a 
n/a 
n/a 
-4.759 
n/a 
n/a 
n/a 
n/a 
-1.934 -5.0345 -3.8275 -4.8165 -2.3345 -9.256001 
-6.337 -8.494 -7.618 -6.311 -11.9211 
-9.600501 -10.2235 -8.545501 -16.846 
-11.525 -11.4946 -19.2773 
-12.7961 -22.2264 
-1.934 -5.0345 -1.4985 -4.662 -1.7565 -7.1585 -3.8275 -2.5195 -3.982 0 
-6.337 -6.71 -5.515 -5.68 -8.913 -11.4034 -6.468 -5.826 -3.982 
-7.296 -11.0671 -6.0925 -13.5647 -13.4687 -14.0439 -9.227 -5.826 
-11.8129 -11.6446 -14.224 -18.1204 -16.1092 -16.8029 -9.227 
-12.3904 -19.7761 -18.7797 -20.7609 -18.8682 -16.8029 
-1.934 -5.0345 -10.738 -4.3215 -3.8275 
-6.337 -16.4427 -15.0595 -9.013 
-18.1294 -20.7642 -19.751 
-22.4509 -25.4557 
-27.1424 
-9.256001 -3.8275 -4.746 -2.5195 -3.982 -1.934 -5.0345 
-13.1227 -7.7165 -7.065001 -5.826 -5.9555 -6.337 
-17.0117 -10.0005 -9.6555 -7.5165 -8.778001 
-19.2957 -12.7874 -11.346 -10.019 
-22.0826 -14.4779 -13.8485 
