-4.759 
n/a 
n/a 
n/a 
n/a 
-4.759 
n/a 
n/a 
n/a 
n/a 
-4.759 
n/a 
n/a 
n/a 
n/a 
-4.759 
n/a 
n/a 
n/a 
n/a 
-4.462 -5.265 
-8.406 
n/a 
n/a 
n/a 
-4.462 0 -5.9225 0 -3.914 0 -4.1215 
-4.462 -5.9225 -5.9225 -3.914 -3.914 -4.1215 
-9.366501 -5.9225 -10.784 -3.914 -8.910501 
-9.366501 -10.784 -10.784 -8.910501 
-14.435 -10.784 -15.7805 
-4.462 0 -9.4875 0 -5.308 0 -5.0785 
-4.462 -9.4875 -9.4875 -5.308 -5.308 -5.0785 
-15.1161 -9.4875 -15.1649 -5.308 -10.4115 
-15.1161 -15.1649 -15.1649 -10.4115 
-20.7935 -15.1649 -20.2684 
-4.462 0 -5.9225 0 -3.914 0 -4.1215 
-4.462 -5.9225 -5.9225 -3.914 -3.914 -4.1215 
-9.366501 -5.9225 -10.784 -3.914 -8.910501 
-9.366501 -10.784 -10.784 -8.910501 
-14.435 -10.784 -15.7805 
