-4.759 
n/a 
n/a 
n/a 
n/a 
-4.759 
n/a 
n/a 
n/a 
n/a 
-4.759 
n/a 
n/a 
n/a 
n/a 
-4.759 
n/a 
n/a 
n/a 
n/a 
-2.5195 -2.3615 -4.0325 -3.995 -4.6985 -4.3805 -3.957 -1.7565 -1.4985 -4.4515 
-4.4095 -6.114 -9.047001 -7.5765 -9.6635 -7.934 -4.676 -2.4195 -5.0235 
-8.200001 -11.7659 -12.8257 -12.7913 -13.3754 -8.3175 -5.031 -5.680501 
-14.0115 -15.5446 -18.0405 -16.5032 -13.7589 -8.531501 -8.467501 
-17.7902 -20.7594 -21.7524 -16.8867 -13.9729 -12.1682 
-1.4985 -4.031 -2.3085 -2.7415 -3.8115 -1.7695 -5.083 -3.0415 -3.4915 -1.934 -1.4985 -4.678 -3.188 -2.7415 -3.433 -2.3085 -3.757 -4.876 -2.356 -2.857 -4.0695 -3.778 0 -2.9705 -2.186 -5.8605 -4.4025 -3.1385 -1.756 -4.101 -2.356 -2.985 -4.678 -4.2685 -3.4985 -4.0515 -1.4985 -6.483 -1.756 -2.645 -4.5205 -3.1335 -1.934 -1.4985 -3.4425 
-4.771 -5.359 -3.8685 -5.0165 -3.8325 -5.2635 -7.489 -4.39 -5.4385 -2.6125 -6.1415 -8.360001 -5.910501 -5.76 -4.5595 -5.0825 -7.4135 -5.798501 -4.561 -6.551001 -5.1595 -3.778 -2.9705 -3.89 -7.8975 -9.515501 -6.72 -4.6325 -5.43 -5.7885 -4.4615 -7.452 -7.123501 -7.080501 -5.844501 -5.160501 -6.732 -7.6685 -3.898 -5.87 -6.467 -5.0035 -2.6125 -4.4545 
-5.856 -6.877 -5.4545 -5.0235 -6.669 -7.756001 -7.759501 -6.1705 -5.9445 -7.1225 -9.415001 -11.5067 -9.2305 -6.6335 -6.9655 -8.882501 -7.956 -7.7605 -8.630501 -8.0555 -5.1595 -6.3255 -3.89 -9.533501 -11.7953 -11.9248 -8.5585 -6.721 -7.0415 -7.751501 -8.901501 -8.396 -9.514501 -9.0495 -6.877 -9.783001 -7.791 -10.1145 -6.745501 -7.989 -7.996 -5.602 -4.866 
-7.356 -8.184 -5.46 -7.618001 -8.37 -8.184 -8.602 -6.8305 -11.0439 -9.687 -12.6061 -14.8267 -9.851001 -9.111 -10.9213 -9.3955 -10.092 -11.9752 -10.041 -8.0555 -7.8885 -7.0955 -9.533501 -13.4313 -14.2046 -13.7633 -9.764 -8.2635 -8.785501 -10.6735 -9.857 -10.485 -11.6683 -10.1005 -10.411 -10.4975 -10.163 -13.1102 -8.610001 -9.6485 -8.421 -7.5565 
-8.697001 -8.184501 -8.176001 -9.2445 -8.546 -8.881001 -9.5515 -11.8477 -13.6084 -12.9079 -15.9261 -15.4472 -12.8611 -13.2636 -11.4343 -11.8037 -14.3067 -13.3857 -10.041 -10.4115 -8.5315 -13.2082 -13.4313 -15.8406 -16.0431 -14.9688 -11.6717 -10.0575 -11.8539 -11.629 -11.946 -12.9364 -12.7193 -13.9277 -11.4293 -12.6937 -13.1797 -14.9747 -10.2865 -10.2885 -10.146 
-2.264 -4.4525 -2.3615 -4.9375 -3.3755 0 -3.995 -4.6985 -3.639 -1.4985 -4.4515 
-6.533501 -5.535501 -7.138 -9.8105 -3.3755 -3.995 -7.5765 -8.247 -5.152 -5.0235 
-7.902501 -10.0345 -12.4172 -9.8105 -8.175501 -7.5765 -11.3748 -10.354 -9.401501 
-12.2551 -16.4647 -12.4172 -14.6105 -12.1122 -11.3748 -13.4818 -14.6035 
-18.6853 -16.4647 -17.2172 -18.5472 -15.9105 -13.4818 -17.7313 
-17.125 -2.7295 -3.61 -2.5195 -2.3615 -5.1795 -1.4985 -3.995 -2.229 -4.6985 -4.3805 -3.957 -1.7565 -1.4985 -3.3365 -4.4515 
-20.629 -5.1655 -6.536 -4.4095 -7.808001 -6.601 -4.712 -5.324 -6.2995 -9.6635 -7.934 -4.676 -2.4195 -4.3335 -5.861 
-23.0782 -8.4875 -8.538 -9.2745 -9.0885 -7.531 -5.586 -6.49 -11.7071 -13.3754 -8.3175 -5.031 -5.66 -6.5515 
-25.9562 -10.001 -13.7328 -10.16 -10.1565 -9.463 -6.6835 -12.0872 -15.419 -13.7589 -8.531501 -8.0885 -7.258 
-27.2587 -15.2762 -14.6183 -11.228 -12.0885 -10.7581 -12.3979 -15.7991 -15.8025 -13.9729 -11.7892 -10.5855 
