-4.759 
n/a 
n/a 
n/a 
n/a 
-4.759 
n/a 
n/a 
n/a 
n/a 
-4.759 
n/a 
n/a 
n/a 
n/a 
-4.759 
n/a 
n/a 
n/a 
n/a 
-1.934 -3.5315 -3.13 0 -1.934 -1.4985 -4.524 -3.188 -4.0905 -3.711 -1.4985 -4.9455 -4.156 -4.909 -4.767 -5.346 -2.8645 -6.6775 -5.441 -2.0935 -1.4985 -4.361 -9.2045 -8.649 -2.9905 -1.7695 -3.535 -4.236 -2.3345 -1.4985 -4.6285 -4.519 -6.3475 0 
-5.027 -5.56 -3.13 -1.934 -2.6125 -5.7065 -7.9785 -6.126 -6.856 -5.6155 -5.759501 -8.913 -9.210001 -10.375 -10.477 -7.4015 -7.47 -10.622 -7.680501 -2.9725 -5.8175 -9.606501 -18.0497 -9.1875 -4.444 -5.5315 -7.2875 -6.7335 -3.233 -5.4515 -5.576 -9.371 -6.3475 
-7.869501 -5.56 -5.7655 -2.6125 -6.876 -9.158001 -8.602 -8.399501 -8.5935 -8.959001 -9.927501 -14.9922 -14.9122 -16.085 -12.7129 -10.041 -11.9719 -12.8615 -8.352 -7.351501 -11.2242 -18.5193 -18.5882 -9.573501 -7.9145 -9.2285 -9.7845 -7.9925 -6.9325 -6.1335 -9.956 -9.371 
-7.869501 -8.2115 -6.583 -6.876 -10.3155 -10.2925 -13.2703 -10.5865 -12.1146 -13.7362 -16.2387 -20.6944 -20.6222 -18.3209 -15.3524 -14.7585 -14.2114 -13.533 -13.0118 -13.0546 -20.137 -19.0578 -18.9742 -13.2018 -12.1315 -11.8187 -10.736 -12.1374 -7.415 -10.292 -9.956 
-10.621 -8.972501 -11.0965 -10.3155 -11.6338 -13.9122 -15.4573 -14.1076 -16.8918 -20.0474 -21.9409 -26.4044 -22.8581 -20.9604 -20.0699 -16.998 -14.8829 -18.1928 -18.7149 -21.9674 -20.6755 -19.4438 -22.6025 -17.4188 -14.7217 -12.7702 -14.8809 -12.6199 -11.9635 -10.292 
-3.5315 -3.13 0 -4.909 -5.494 -8.209001 -4.6285 -3.985 -2.0935 -5.094 -2.0935 -1.4985 -4.361 -10.002 -1.7565 -2.5685 -4.6285 -4.519 -4.925 -4.3705 -4.6245 -2.264 -1.4985 -4.759 -1.7565 -3.188 -4.0905 -3.193 0 
-5.56 -3.13 -4.909 -9.7995 -14.3672 -13.4517 -9.3515 -5.2525 -8.087501 -5.819 -2.9725 -5.8175 -16.063 -10.1305 -3.938 -7.595 -5.576 -8.6105 -8.478001 -8.453 -6.662001 -2.9195 -5.8915 -5.3575 -5.13 -6.126 -6.580501 -3.193 
-5.56 -8.5345 -9.7995 -18.7363 -19.6099 -18.1747 -10.7345 -10.396 -9.571501 -6.941 -7.351501 -17.6807 -16.1915 -13.2882 -8.541 -8.486501 -10.0745 -10.1995 -12.9739 -10.688 -7.245501 -7.601001 -6.23 -7.7235 -7.9635 -6.8005 -6.580501 
-11.8683 -13.7052 -18.7363 -23.979 -24.3329 -19.5577 -15.878 -11.968 -10.084 -10.4585 -19.5111 -17.8092 -19.3492 -17.8912 -9.536 -13.2222 -11.6635 -15.5564 -15.2089 -11.2715 -12.2722 -7.791001 -8.4665 -9.3625 -8.135 -6.8005 
-17.039 -22.642 -23.979 -28.702 -25.7159 -24.7012 -17.45 -12.4805 -14.2399 -22.6181 -19.6396 -20.9669 -23.9522 -18.8862 -14.3671 -14.8112 -17.0204 -17.7914 -15.7924 -16.2982 -12.4622 -10.107 -9.693501 -9.375001 -8.135 
-3.5315 -3.13 0 -3.188 -3.613 -3.193 -4.005 -1.934 -4.524 -3.3155 -4.767 -4.909 -12.16972 -4.6285 -8.7635 -3.1385 -5.217 -5.2735 -2.0935 -1.4985 -4.361 -5.178 -3.8535 -1.7695 -3.5385 0 
-5.56 -3.13 -3.188 -6.8525 -8.818501 -7.166 -4.808 -5.59 -7.4425 -9.416 -9.4935 -18.17712 -16.79822 -10.8415 -12.4054 -8.422501 -10.5535 -5.546 -2.9725 -5.8175 -5.6165 -9.787001 -5.1985 -5.346 -3.5385 
-5.56 -6.8875 -6.8525 -12.7548 -13.2103 -7.911 -7.407001 -7.867001 -13.855 -14.5569 -23.24442 -22.80562 -23.01122 -14.4834 -17.6894 -13.9216 -10.826 -5.965001 -7.351501 -7.342 -10.564 -10.6375 -8.3335 -5.346 
-9.93 -11.5178 -12.7548 -17.1466 -13.9553 -9.9975 -10.096 -14.2879 -18.9959 -28.30782 -27.87292 -29.01862 -26.65312 -19.7674 -23.1885 -14.1941 -11.245 -10.233 -8.835501 -12.8503 -11.7729 -13.7725 -8.3335 
-14.6471 -17.4201 -17.1466 -17.8916 -16.0418 -12.7505 -16.5169 -19.4288 -32.74682 -32.93632 -34.08592 -32.66052 -31.93712 -25.2665 -23.461 -14.6131 -15.513 -11.8162 -14.5488 -14.0592 -14.9079 -13.7725 
-3.5315 -3.13 0 -1.934 -4.524 -3.188 -4.0905 -3.193 -5.377 0 -4.909 -9.134001 -4.767 -6.035 -6.1755 -2.0935 -4.361 -5.662 -2.3345 -1.4985 -4.519 -5.3585 0 -2.0935 -1.4985 -3.5385 0 
-5.56 -3.13 -1.934 -5.59 -7.9785 -6.126 -6.580501 -7.335501 -5.377 -4.909 -10.523 -14.0738 -12.1042 -13.6947 -8.569 -6.036 -8.843 -7.863 -3.233 -5.3625 -6.8995 -5.3585 -2.0935 -2.9725 -4.694 -3.5385 
-5.56 -5.7655 -5.59 -8.642 -8.602 -6.8005 -10.5975 -7.335501 -10.3225 -10.523 -15.4628 -21.411 -19.7639 -16.0882 -13.0519 -11.19 -11.0978 -9.033001 -6.8195 -8.1405 -6.8995 -7.0495 -2.9725 -5.8355 -4.694 
-8.2115 -9.734 -8.642 -8.7145 -8.603001 -10.6605 -10.5975 -12.7832 -15.9365 -15.4628 -22.8 -29.0707 -22.1574 -20.5711 -18.2059 -13.4448 -12.2678 -12.6601 -9.429001 -8.1405 -8.999001 -7.987 -5.8355 -5.8355 
-12.3844 -12.818 -8.7145 -8.7155 -13.4344 -10.6605 -16.0452 -18.3972 -20.8763 -22.8 -30.4597 -31.4642 -26.6403 -25.7251 -20.4607 -14.6148 -15.8949 -15.2696 -9.429001 -10.3345 -9.8505 -11.2402 -5.8355 
