-4.759 
n/a 
n/a 
n/a 
n/a 
-4.759 
n/a 
n/a 
n/a 
n/a 
-4.759 
n/a 
n/a 
n/a 
n/a 
-4.759 
n/a 
n/a 
n/a 
n/a 
-3.6075 -4.571 0 -4.3225 -2.4945 -3.881 -2.3345 -3.6445 -4.2695 -1.934 -2.985 -4.5 -3.914 0 
-10.058 -4.571 -4.3225 -7.5225 -5.6575 -4.5275 -6.3125 -7.694 -5.4675 -4.111 -4.699 -8.5155 -3.914 
-10.058 -6.773 -7.5225 -10.233 -6.4265 -8.782001 -8.331 -8.816 -6.7415 -5.962 -8.8475 -8.5155 
-12.26 -11.5622 -10.233 -11.0588 -11.5284 -9.0305 -9.101501 -9.9876 -7.666501 -10.2185 -8.8475 
-17.0492 -14.2727 -11.0588 -16.1607 -11.7769 -10.7342 -10.2731 -10.9126 -13.0608 -10.2185 
-1.4985 -3.814 -3.4795 -4.169 -3.3785 -1.4985 -4.116 -3.2895 -1.756 -5.6795 -1.756 -2.925 -3.3785 -1.4985 -5.279 -4.8275 
-4.198 -7.0915 -8.438001 -7.98 -4.6165 -4.6765 -9.156 -4.799 -6.702 -6.5445 -4.2585 -5.193501 -4.6165 -6.132501 -10.4035 
-7.321 -12.6528 -12.6496 -9.185 -7.9535 -9.967001 -10.0325 -9.4825 -8.008 -9.1475 -6.447001 -6.3555 -8.281 -12.4162 
-13.2353 -16.8644 -13.8546 -12.646 -13.5834 -11.1487 -14.7832 -10.9031 -10.1345 -11.4612 -7.708 -9.9055 -15.3329 
-17.4469 -18.0694 -17.3156 -18.2759 -14.7651 -15.8994 -16.2038 -13.0296 -12.4482 -12.7222 -11.3612 -16.7492 
-1.934 -3.45 -3.4795 -1.4985 -3.602 -2.264 -1.8085 -4.015 -3.7695 -2.264 -1.4985 -4.3225 -2.4285 -3.7775 -3.522 -2.4945 -3.881 -2.3345 -4.2695 0 
-5.009 -5.6655 -5.2895 -5.410501 -5.077 -3.5925 -4.5105 -6.5705 -6.1 -2.9195 -5.644501 -6.814 -6.301001 -7.351501 -6.184 -5.6575 -4.5275 -6.075 -4.2695 
-5.997 -6.951 -8.3745 -6.922501 -6.801001 -5.852 -6.698501 -8.776501 -6.7955 -7.894001 -7.2615 -9.514501 -10.195 -10.674 -8.5895 -6.4265 -7.2535 -6.075 
-7.0895 -10.1626 -11.1905 -8.992001 -8.370501 -7.088 -8.8915 -9.212501 -12.3674 -10.2325 -10.6728 -13.9241 -13.6483 -13.0795 -10.085 -8.329 -7.2535 
-10.3113 -12.9786 -13.26 -9.813001 -8.650001 -9.625 -9.3035 -15.035 -14.7059 -13.6438 -15.0824 -17.3774 -16.0538 -14.575 -11.9875 -8.329 
-1.934 -4.5735 -3.8405 -4.609 -4.795 0 -4.3225 0 -3.321 -3.9355 -2.4945 -3.881 -2.3345 -1.4985 -3.486 -4.6145 -4.269 0 
-5.86 -7.679 -8.886001 -9.6075 -4.795 -4.3225 -4.3225 -3.321 -7.834 -5.6745 -5.6575 -4.5275 -3.233 -3.5655 -9.1105 -8.606501 -4.269 
-9.1615 -13.1051 -14.0119 -9.6075 -10.533 -4.3225 -7.837501 -7.834 -9.2805 -7.921 -6.4265 -5.9195 -5.455 -9.225 -12.9467 -8.606501 
-15.034 -18.231 -14.0119 -15.9557 -10.533 -7.837501 -12.8009 -9.2805 -11.6356 -9.389 -6.8805 -7.448 -10.757 -13.187 -12.9467 
-20.1599 -18.231 -20.3601 -15.9557 -14.048 -12.8009 -14.2474 -11.6356 -13.1036 -10.244 -8.774 -13.5188 -14.719 -13.187 
