-4.759 
n/a 
n/a 
n/a 
n/a 
-4.759 
n/a 
n/a 
n/a 
n/a 
-4.759 
n/a 
n/a 
n/a 
n/a 
-4.759 
n/a 
n/a 
n/a 
n/a 
-4.817 -1.7565 -3.898 
-5.825 -5.228 
-8.070001 
n/a 
n/a 
-6.371 -11.0555 
-18.3617 
n/a 
n/a 
n/a 
-6.371 -15.8725 -1.7565 -3.898 
-23.1787 -16.8805 -5.228 
-24.1867 -19.1255 
-26.4317 
n/a 
-6.371 -11.0555 0 -3.098 -1.7565 -1.4985 -3.452 0 0 -7.491 -3.898 0 
-18.3617 -11.0555 -3.098 -4.3615 -2.4195 -4.4485 -3.452 0 -7.491 -12.303 -3.898 
-18.3617 -14.1535 -4.3615 -4.731 -5.267 -4.4485 -3.452 -7.491 -12.303 -12.303 
-21.4597 -15.417 -4.731 -7.4465 -5.267 -4.4485 -12.0138 -12.303 -12.303 
-22.7232 -15.7865 -7.4465 -7.4465 -5.267 -13.4475 -16.8258 -12.303 
