-4.759 
n/a 
n/a 
n/a 
n/a 
-4.759 
n/a 
n/a 
n/a 
n/a 
-4.759 
n/a 
n/a 
n/a 
n/a 
-4.759 
n/a 
n/a 
n/a 
n/a 
-3.2615 -2.3335 -4.8095 -4.2225 -2.4945 -4.0555 -1.7695 -3.8735 -2.5195 -3.5155 -1.7565 -3.2495 -4.6525 -1.7565 -3.994 -1.756 -6.165 
-5.0495 -7.404 -7.721001 -5.862 -8.481001 -4.7475 -5.578001 -6.612 -5.295 -4.8955 -4.5605 -5.752 -5.1545 -5.779 -5.313 -8.403 
-10.0995 -9.6885 -9.765 -12.4527 -9.513 -7.797 -7.428501 -9.797001 -6.9845 -7.6825 -7.6095 -6.167 -9.948001 -6.722 -10.2135 
-12.384 -11.8851 -16.4325 -13.4847 -12.6357 -9.1485 -11.0807 -11.4823 -10.0815 -10.185 -8.171 -11.4599 -11.0488 -11.7437 
-14.5806 -18.5526 -17.4645 -16.6074 -13.9872 -12.9451 -12.766 -14.5793 -12.584 -11.0759 -13.6467 -12.5607 -16.0705 
-1.4985 -4.2225 -4.066 -2.5195 -5.4785 -4.417 0 
-5.456 -8.404501 -4.976 -7.4515 -10.66 -4.417 
-9.573 -9.1315 -10.4268 -13.2558 -10.66 
-10.33 -14.6139 -16.2311 -13.2558 
-15.8124 -20.4182 -16.2311 
-3.2615 -2.3335 0 -5.328 -3.152 -3.9535 -4.0225 -4.33 -3.8735 -3.3255 -1.4985 -3.2495 -4.6525 -1.7565 -1.4985 -3.4155 -6.165 -3.3155 -3.8755 -1.934 -1.4985 -4.317 -3.9035 
-5.0495 -2.3335 -5.328 -7.76 -6.693501 -6.7915 -7.1365 -7.859001 -7.1315 -3.8945 -4.1915 -5.752 -5.1545 -2.4195 -4.4155 -8.5775 -8.2635 -7.722001 -5.2035 -2.6125 -5.569 -8.7085 
-5.0495 -8.0705 -7.76 -11.5899 -10.3213 -9.254001 -11.7199 -10.688 -7.8605 -7.0015 -5.996 -6.167 -5.327 -5.211 -8.667 -10.6475 -12.934 -9.075001 -5.851 -6.5955 -9.594501 
-11.2093 -9.659501 -11.5899 -15.2177 -12.7838 -14.2652 -14.5489 -11.417 -11.1905 -9.5655 -6.3805 -6.291 -8.4075 -9.153001 -10.66 -15.318 -14.287 -9.643001 -9.2235 -10.218 
-12.7983 -13.4894 -15.2177 -17.6802 -17.795 -17.0942 -15.2779 -14.747 -13.7545 -9.837501 -6.454 -9.5235 -12.6837 -10.703 -15.3305 -16.671 -14.855 -13.0921 -14.018 
-3.882 -1.934 -4.317 -4.418 -5.328 -5.1835 -3.3255 -1.4985 -5.7445 -1.934 -4.945 -1.4985 -3.7575 -1.7565 -6.165 
-5.1945 -6.201 -7.7945 -10.396 -10.564 -7.643001 -3.8945 -6.783501 -7.1285 -7.598 -7.305 -4.9525 -4.4575 -7.977001 
-10.0445 -9.119 -13.9927 -15.632 -13.0235 -8.259001 -8.16 -8.0895 -13.2953 -9.7185 -11.0686 -5.345 -10.204 
-13.4049 -15.3984 -19.2287 -18.0915 -13.6395 -12.7189 -9.5085 -14.5341 -15.4158 -13.4821 -11.4611 -11.5495 
-19.6843 -20.6344 -21.6882 -18.7075 -18.0994 -14.0674 -16.1433 -16.6546 -19.1794 -13.8746 -17.6656 
