-4.759 
n/a 
n/a 
n/a 
n/a 
-4.759 
n/a 
n/a 
n/a 
n/a 
-4.759 
n/a 
n/a 
n/a 
n/a 
-4.759 
n/a 
n/a 
n/a 
n/a 

n/a 
n/a 
n/a 
n/a 
-2.8705 -3.7435 -4.9695 -2.9995 -4.4715 -1.7695 -3.3785 -1.4985 -4.708 -1.7565 -8.328501 -4.708 -3.7075 
-6.1775 -9.119501 -8.7065 -7.585 -6.728001 -4.1685 -4.6165 -5.6385 -6.672 -10.1855 -13.4163 -8.444 
-12.2323 -13.1239 -13.4848 -9.308001 -9.774 -5.3175 -9.313001 -7.3675 -15.4456 -15.4109 -17.1523 
-16.2367 -17.9022 -15.2078 -12.734 -10.589 -10.442 -10.486 -16.2637 -20.671 -19.1469 
-21.015 -19.6252 -18.6338 -13.549 -15.7135 -11.8464 -19.8836 -21.4891 -24.407 
-3.1495 -2.4945 -1.4985 -4.029 -4.8695 -2.3345 -8.620501 -1.7695 -3.6035 -3.8105 -3.0365 -2.186 -1.8085 -4.05 -2.4285 -2.6165 0 
-4.459 -3.9315 -5.353001 -9.028501 -5.5145 -10.2085 -10.932 -4.918 -6.27 -5.566 -3.66 -3.164 -5.739 -5.7485 -4.3195 -2.6165 
-5.194 -7.1375 -9.328001 -9.236501 -14.8883 -12.52 -14.0805 -6.488 -7.9735 -5.9625 -4.218 -6.538 -6.798501 -8.142 -4.3195 
-8.1355 -11.6063 -9.581501 -18.6715 -17.1998 -15.6685 -15.6505 -8.157001 -8.291 -6.347 -8.323501 -8.5315 -9.158501 -8.142 
-12.6099 -11.8598 -19.1805 -20.983 -20.3483 -17.2385 -17.3195 -8.517 -8.615001 -10.3955 -9.738001 -9.8395 -9.158501 
-1.7695 -5.42 -1.4985 -5.859 -1.7565 -2.9995 -4.05 
-5.670001 -6.5975 -6.183001 -6.152 -4.063 -6.1515 
-6.883 -10.134 -6.245 -8.349501 -7.5045 
-10.3155 -10.1485 -8.4665 -12.1508 
-10.3255 -12.4214 -12.3466 
