-4.759 
n/a 
n/a 
n/a 
n/a 
-4.759 
n/a 
n/a 
n/a 
n/a 
-4.759 
n/a 
n/a 
n/a 
n/a 
-4.759 
n/a 
n/a 
n/a 
n/a 
-1.934 -4.6585 -4.2085 -4.2225 -3.72 -3.5035 -2.7415 -4.548 -1.934 -3.8735 
-5.8095 -8.6075 -7.103001 -8.356001 -6.736501 -5.9375 -5.784 -5.764 -4.885 
-10.621 -12.2122 -11.8977 -11.8059 -9.219001 -7.8995 -6.6285 -8.894501 
-14.2257 -17.0069 -15.3476 -14.2884 -10.7025 -8.47 -10.142 
-19.0204 -20.4568 -17.8301 -15.7719 -11.273 -12.1097 
-1.756 -3.074 -3.8055 -1.4985 -3.683 -4.08 -2.0935 -4.282 -4.2225 0 
-4.566 -6.094501 -4.870501 -4.9055 -6.0045 -5.439001 -6.4485 -6.007 -4.2225 
-7.604 -7.182 -8.724501 -7.615 -7.39 -10.7495 -7.7635 -6.007 
-8.620501 -11.1782 -11.5676 -9.2275 -13.3597 -12.0645 -7.7635 
-12.7139 -14.0213 -13.1801 -15.5912 -14.6747 -12.0645 
-4.2085 -3.3435 -3.913 -3.685 -2.7415 -4.196 -1.934 -3.8735 -2.3345 -1.4985 -3.158 -4.6585 0 
-7.738501 -7.158 -5.5595 -5.987 -5.228 -5.016 -4.885 -6.384501 -3.233 -4.178 -7.08 -4.6585 
-11.9544 -7.605 -7.9855 -8.403501 -5.583 -8.250501 -6.8215 -7.5225 -6.0985 -8.09 -7.08 
-12.4014 -9.910501 -9.9975 -8.891001 -9.0825 -9.712 -7.986501 -9.243501 -10.381 -8.09 
-14.7069 -11.9943 -10.5175 -12.5113 -10.647 -10.0985 -9.563001 -13.7832 -10.381 
-1.934 -4.6585 -4.282 -3.3435 -3.913 -3.5035 -4.349 
-5.8095 -9.0595 -6.3725 -7.158 -6.6055 -6.681001 
-10.6785 -10.5645 -8.3825 -10.022 -9.333 
-12.1835 -12.5745 -10.75 -12.7495 
-14.1935 -14.942 -13.4775 
