-4.759 
n/a 
n/a 
n/a 
n/a 
-4.759 
n/a 
n/a 
n/a 
n/a 
-4.759 
n/a 
n/a 
n/a 
n/a 
-4.759 
n/a 
n/a 
n/a 
n/a 
-9.447001 -3.38 -4.145 -2.871 -4.6245 0 -4.145 -12.16972 -3.958 -8.450001 0 -7.4475 -7.4475 0 -8.7215 -4.297 -4.282 -2.186 -6.859 -1.934 -3.9375 -2.3615 -3.3755 -3.917 -2.3615 -3.098 0 
-13.5206 -5.1535 -7.3245 -7.021501 -4.6245 -4.145 -17.43812 -16.12772 -13.466 -8.450001 -7.4475 -10.5535 -7.4475 -8.7215 -13.4195 -9.0565 -7.055 -7.9235 -8.521501 -6.0665 -5.7305 -4.8525 -8.6 -6.4005 -5.7775 -3.098 
-15.2941 -8.0635 -12.0598 -7.021501 -9.6815 -17.43812 -21.39612 -25.63572 -13.466 -16.4555 -10.5535 -10.5535 -16.8168 -13.4195 -18.179 -12.2121 -13.0407 -9.755501 -12.9092 -8.9045 -9.137501 -9.785001 -11.2791 -9.400001 -5.7775 
-18.2041 -13.1116 -12.0598 -12.6305 -23.10102 -21.39612 -30.90412 -25.63572 -21.4715 -19.5615 -10.5535 -19.9228 -21.5148 -18.179 -21.3346 -18.1978 -14.8727 -14.2656 -15.7472 -12.4887 -14.3934 -12.5499 -14.2786 -9.400001 
-23.2522 -13.1116 -17.6688 -26.05002 -27.05902 -30.90412 -30.90412 -33.64122 -24.5775 -19.5615 -19.9228 -24.6208 -26.2743 -21.3346 -27.3203 -20.0298 -19.3828 -17.1036 -19.3314 -17.7446 -17.1583 -15.5494 -14.2786 
-10.462 -3.38 -4.145 -4.6245 -2.871 0 -4.145 -4.4685 -3.458 0 -4.1145 -4.1145 0 -4.7035 -2.4265 -2.8645 -5.2055 -1.7565 -4.297 -2.5045 -3.8755 -2.4265 -2.8645 -3.1125 -4.673 -2.356 -2.3615 -3.098 -2.5045 -5.1125 0 
-14.0216 -5.1535 -8.119 -7.896501 -2.871 -4.145 -6.544 -8.1775 -3.458 -4.1145 -6.377 -4.1145 -4.7035 -6.4585 -4.1435 -9.22 -7.64 -6.354001 -6.927001 -6.124001 -6.774 -4.1435 -3.5345 -6.8605 -6.8075 -4.2185 -5.7775 -5.4315 -8.118501 -5.1125 
-15.7951 -10.2085 -11.7614 -7.896501 -7.3475 -6.544 -10.451 -8.1775 -8.251501 -6.377 -6.377 -8.6105 -6.4585 -8.925501 -10.8358 -12.0229 -12.6575 -9.482 -11.1169 -9.22 -8.445001 -4.755 -7.402 -8.557501 -9.085501 -6.896501 -7.844501 -11.5481 -8.118501 
-20.8501 -14.0593 -11.7614 -12.5944 -9.943001 -10.451 -10.451 -13.3688 -10.111 -6.377 -11.679 -11.7547 -8.925501 -15.7844 -13.6387 -17.0404 -15.7855 -13.7803 -14.2129 -11.2762 -9.059001 -8.654 -8.9925 -10.6735 -12.0447 -9.346001 -14.3203 -11.5481 
-24.7009 -14.0593 -16.4593 -15.1899 -14.1856 -10.451 -15.7961 -15.2283 -10.111 -11.679 -14.8232 -14.2217 -15.7844 -18.5873 -18.6562 -20.1684 -20.0838 -16.8763 -16.2691 -11.8902 -13.0814 -10.494 -11.1417 -13.6327 -14.4942 -15.8344 -14.3203 
-9.8795 -3.4075 -4.145 -4.6245 -1.7695 -3.2945 -2.871 -4.145 -4.4685 -1.756 -3.958 -1.7695 -4.1145 -4.1145 -4.9875 0 
-13.3698 -6.6455 -8.119 -6.396 -5.53 -7.0905 -7.3475 -6.544 -5.9555 -5.214 -6.0725 -6.501 -6.377 -8.9525 -4.9875 
-16.6078 -11.2807 -9.9895 -10.7829 -9.144501 -11.9816 -9.943001 -8.055 -9.137 -7.2605 -11.3652 -8.969501 -9.57 -8.9525 
-21.243 -13.1512 -14.5442 -14.3974 -14.2452 -14.5771 -11.7896 -11.4427 -11.4335 -12.784 -13.8337 -12.3193 -9.57 
-23.1135 -17.7059 -18.1587 -19.4981 -16.8407 -16.4237 -15.1773 -13.7392 -16.957 -15.2525 -17.1835 -12.3193 
-1.8085 -4.6245 -9.2865 -1.934 -1.4985 -12.16972 -3.38 -4.145 0 0 -2.9805 -2.7415 -3.264 -1.7695 -4.506 -1.4985 -4.0795 -1.934 -1.4985 -4.145 -4.4685 -2.9705 -2.9805 -3.9375 -2.3615 -4.688 -1.756 -3.0415 -2.4265 -2.7415 -3.9915 -2.5045 0 -4.1145 -4.1145 0 0 
-5.915501 -14.8136 -11.3311 -2.6125 -14.76202 -15.54972 -5.1535 -4.145 0 -2.9805 -4.004 -5.7545 -4.908 -5.162 -5.561 -5.0125 -5.9135 -2.6125 -5.1415 -6.544 -7.046 -4.783 -7.658 -5.7305 -6.132 -6.153501 -4.454 -4.551 -3.681 -8.586 -6.164001 -2.5045 -4.1145 -6.377 -4.1145 0 
-16.9826 -16.8582 -12.0096 -16.27022 -18.14202 -17.32322 -5.1535 -4.145 -2.9805 -4.004 -7.342501 -6.2895 -9.091001 -5.979 -9.7755 -6.6255 -6.574 -6.639 -7.371 -9.1435 -9.986 -10.1691 -9.5655 -8.663 -7.389 -8.814501 -5.8835 -5.7 -9.5895 -9.7375 -6.164001 -7.450001 -6.377 -6.377 -4.1145 
-19.0272 -17.5367 -25.66732 -19.65022 -19.91552 -17.32322 -5.1535 -7.252 -4.004 -7.342501 -7.429 -10.634 -9.631001 -10.006 -11.4217 -7.370501 -9.959001 -8.294001 -9.684 -12.2675 -15.3721 -12.0766 -12.5642 -9.618501 -9.795501 -10.0745 -6.771 -12.0327 -10.8352 -9.7375 -11.3995 -9.828501 -6.377 -6.377 
-19.7057 -31.19442 -29.04732 -21.42372 -19.91552 -17.32322 -8.217501 -8.0935 -7.342501 -7.429 -12.2813 -11.174 -13.837 -11.683 -12.1667 -10.6595 -11.7058 -10.298 -12.7976 -17.6536 -17.2796 -15.0753 -13.5197 -12.1382 -11.1433 -10.962 -13.2501 -13.2784 -10.8352 -15.4434 -13.778 -9.828501 -6.377 
