-4.759 
n/a 
n/a 
n/a 
n/a 
-4.759 
n/a 
n/a 
n/a 
n/a 
-4.759 
n/a 
n/a 
n/a 
n/a 
-4.759 
n/a 
n/a 
n/a 
n/a 
-3.091 -4.235 -3.098 -2.186 -7.2405 -1.756 -3.091 -4.121 -3.098 -2.186 -10.827 0 
-5.1065 -7.7415 -4.7005 -10.7335 -8.863001 -4.2995 -5.304 -7.8435 -4.7005 -14.2234 -10.827 
-8.932 -8.911501 -13.3032 -12.356 -10.61 -6.3055 -9.184 -8.9875 -16.7931 -14.2234 
-9.816501 -17.678 -14.9257 -14.103 -12.616 -9.9405 -9.739 -21.2417 -16.7931 
-18.7394 -19.3005 -16.6727 -16.109 -16.251 -10.722 -22.218 -21.2417 
-4.235 -2.229 -3.098 -2.186 -7.2405 0 -4.121 -2.229 -3.098 -2.186 -10.827 0 
-5.0915 -4.8015 -4.7005 -10.7335 -7.2405 -4.121 -4.7815 -4.8015 -4.7005 -14.2234 -10.827 
-6.6355 -6.132 -13.3032 -10.7335 -11.9685 -4.7815 -6.798501 -6.132 -16.7931 -14.2234 
-7.804 -14.9223 -13.3032 -15.4615 -12.629 -6.798501 -7.939001 -18.4122 -16.7931 
-16.7029 -14.9223 -18.0312 -16.122 -14.646 -7.939001 -20.3816 -18.4122 
-3.091 -4.235 -2.229 -3.098 -2.7415 -7.2405 -1.756 -3.091 -4.121 -12.16972 0 
-5.1065 -5.0915 -4.8015 -5.572001 -11.3478 -8.863001 -4.2995 -5.304 -17.36792 -12.16972 
-5.8285 -6.6355 -6.439 -14.2351 -12.9703 -10.61 -6.3055 -18.92932 -17.36792 
-7.526 -7.72 -15.2877 -15.8576 -14.7173 -12.616 -20.00222 -18.92932 
-8.1385 -16.7147 -16.9102 -17.6046 -16.7233 -26.31272 -20.00222 
-3.091 -4.235 -3.098 -2.186 -7.2405 -1.756 -4.121 -3.098 -2.186 -12.16972 
-5.1065 -7.7415 -4.7005 -10.7335 -8.863001 -5.8445 -7.8435 -4.7005 -15.56612 
-8.932 -8.911501 -13.3032 -12.356 -13.1939 -9.6785 -8.9875 -18.13582 
-9.816501 -17.678 -14.9257 -16.6869 -17.0279 -10.7595 -22.58442 
-18.7394 -19.3005 -19.2566 -20.5209 -18.1089 -24.35642 
