-4.759 
n/a 
n/a 
n/a 
n/a 
-4.759 
n/a 
n/a 
n/a 
n/a 
-4.759 
n/a 
n/a 
n/a 
n/a 
-4.759 
n/a 
n/a 
n/a 
n/a 
-3.668 -4.079 -1.7695 -5.1605 -1.4985 -3.992 -2.6165 -1.934 -4.034 -3.5035 -1.7565 -4.658 0 
-8.186001 -5.261 -7.118501 -6.753 -5.2675 -6.845 -4.552 -5.035 -7.819501 -5.0195 -7.470001 -4.658 
-8.967501 -11.5274 -9.683001 -10.513 -8.795 -8.313001 -8.210001 -9.162001 -9.376 -11.7928 -7.470001 
-15.8719 -14.0919 -13.5352 -14.3489 -10.6228 -12.775 -12.6396 -11.1573 -16.6647 -11.7928 
-18.4364 -17.9441 -17.3711 -16.1767 -15.0848 -17.2046 -14.6349 -18.446 -16.6647 
-2.0935 -3.668 0 -4.034 -3.4405 -2.6165 -2.674 -4.2185 -3.2895 -10.7895 -2.9645 -2.356 -4.3065 
-3.995 -3.668 -4.034 -7.672501 -3.7415 -4.2165 -8.528501 -7.0295 -15.9566 -14.0012 -4.9545 -6.557501 
-3.995 -7.968501 -7.672501 -7.944001 -4.926001 -9.883 -9.4715 -20.0342 -19.1683 -15.9912 -10.396 
-8.0435 -10.459 -7.944001 -8.623001 -10.434 -10.3385 -22.556 -23.2459 -21.1583 -21.4327 
-10.4765 -10.5085 -8.623001 -14.171 -10.701 -23.423 -25.7677 -25.2359 -26.5998 
-2.0935 -3.668 0 -2.9635 -1.7565 -4.835 -4.3435 -2.186 -2.6165 -1.934 -1.4985 -4.1395 -3.2895 -1.7565 -4.034 0 
-3.995 -3.668 -2.9635 -4.6005 -6.7135 -9.923 -5.999 -3.5105 -4.552 -2.6125 -5.3135 -7.231 -4.9075 -5.4725 -4.034 
-3.995 -7.431001 -4.6005 -9.9975 -12.1757 -11.6679 -7.364 -5.3075 -5.1725 -6.514 -8.1005 -8.362 -9.7955 -5.4725 
-7.9465 -9.1055 -9.9975 -15.4597 -13.9206 -13.0329 -9.5485 -5.8215 -9.654 -10.1675 -9.724001 -14.1758 -9.7955 
-10.2985 -14.6577 -15.4597 -17.2046 -15.2856 -15.2174 -10.294 -10.0535 -13.3405 -12.0554 -15.736 -14.1758 
-2.4265 -2.8645 -3.1125 -3.2955 -2.3345 -3.6065 -3.711 -1.756 -5.711 -2.0935 -3.6065 -4.1745 0 -2.356 -3.6065 -1.756 -4.2125 -5.3255 -4.569 0 -1.756 -1.4985 -4.9985 -4.184 -1.7565 -1.4985 -4.339 
-4.1435 -3.5345 -5.0995 -4.534 -5.725 -6.044 -5.016 -7.009 -7.9265 -5.2485 -6.454 -4.1745 -2.356 -5.204 -5.6155 -5.1725 -8.429501 -9.436501 -4.569 -1.756 -3.0405 -5.678 -6.942 -4.726 -2.4195 -4.9215 
-4.755 -5.504 -6.2635 -7.25 -7.4185 -7.2295 -9.9895 -8.8275 -11.6051 -6.702001 -6.454 -6.693 -5.204 -7.8715 -7.6055 -8.793 -10.75 -9.436501 -5.7675 -3.0405 -7.338 -7.5915 -7.150001 -5.6195 -6.0715 
-6.5645 -6.616 -8.72 -8.677 -8.5585 -12.5562 -11.808 -12.9441 -13.0586 -6.702001 -8.757501 -9.1975 -7.8715 -8.9685 -9.236 -11.1643 -10.75 -10.576 -7.159 -7.338 -9.3435 -7.705 -7.7075 -7.7175 
-7.712 -9.271001 -9.8585 -9.867001 -14.0564 -14.3747 -15.9246 -14.3976 -13.0586 -8.932 -9.4735 -11.9158 -8.9685 -10.2925 -11.6373 -11.1643 -11.8895 -11.9675 -10.375 -9.3435 -9.4025 -8.2445 -9.3645 
