-4.759 
n/a 
n/a 
n/a 
n/a 
-4.759 
n/a 
n/a 
n/a 
n/a 
-4.759 
n/a 
n/a 
n/a 
n/a 
-4.759 
n/a 
n/a 
n/a 
n/a 
-2.3345 -1.4985 -3.7075 -4.983 -1.4985 -3.9115 -1.7565 -4.674 -3.5215 -1.7565 -3.995 -2.186 -4.881 -1.934 -1.7695 -3.638 
-3.233 -4.6235 -7.178 -6.8 -5.244 -5.1855 -6.6365 -6.4605 -5.1615 -5.423 -5.7465 -6.005 -6.82 -4.0395 -5.8355 
-6.444 -7.854001 -8.857 -10.8893 -5.598 -10.5425 -8.767 -8.9175 -9.1735 -7.5575 -9.7045 -7.761001 -8.0795 -8.818501 
-9.389001 -9.474501 -12.9971 -11.2433 -11.3732 -12.673 -11.375 -13.3375 -11.696 -11.6537 -11.8691 -9.1195 -10.3675 
-10.219 -13.6486 -13.3511 -17.0185 -13.5037 -15.281 -15.795 -15.86 -15.7922 -13.8183 -13.2276 -11.4263 
-1.934 -3.3935 -6.116 -3.9115 -3.3855 -1.7695 -2.489 -4.164 -2.5045 -3.638 -3.5455 -1.4985 -3.7075 -4.3845 
-5.8545 -8.354501 -8.84 -7.5745 -5.3415 -3.1405 -5.190001 -6.231 -6.3325 -6.990001 -3.91 -4.6235 -9.253501 
-10.4345 -10.7335 -12.6086 -10.1595 -6.519 -5.9325 -6.981 -10.575 -9.656 -7.4195 -8.31 -9.673 
-12.8135 -14.5021 -15.1936 -11.337 -9.021501 -7.664001 -11.6342 -13.8985 -10.188 -12.0683 -13.8875 
-16.5821 -17.0871 -16.3711 -13.8395 -11.7444 -12.4642 -14.9577 -14.4305 -14.9718 -17.6458 
-3.0365 -2.4945 -3.3935 -3.5215 -1.7565 -3.995 -3.9115 -4.221 -1.7565 -6.4925 -2.4945 -5.632 -2.5195 -1.4985 -4.2705 -1.7565 -3.7075 0 
-3.688 -5.922 -6.127501 -5.1615 -5.423 -8.7985 -7.8145 -6.9825 -7.878001 -7.977 -8.3325 -8.424001 -3.1695 -5.383 -5.4125 -5.7275 -3.7075 
-6.988501 -8.040001 -8.729501 -9.1735 -10.204 -12.8361 -11.6182 -13.5598 -9.214001 -14.305 -11.3687 -8.814 -7.1745 -5.585001 -9.434501 -5.7275 
-9.373 -11.5166 -13.0157 -14.3425 -14.2416 -16.6398 -18.1955 -14.8958 -16.1628 -17.3412 -11.7587 -13.4036 -7.431 -9.609501 -9.434501 
-13.3314 -15.8028 -18.1847 -18.3801 -18.0453 -23.2171 -19.5315 -21.8446 -19.199 -17.7312 -16.3483 -13.6601 -11.7237 -9.609501 
-1.4985 -6.224 -4.2105 -2.186 -4.881 -3.222 -4.237 -2.5195 -1.4985 -3.7075 
-6.041 -9.587501 -6.2555 -6.005 -5.6785 -7.1075 -6.1245 -3.1695 -4.6235 
-8.255501 -9.490001 -8.6485 -6.598001 -7.9675 -9.967001 -6.474 -5.905 
-9.250501 -11.364 -8.951501 -8.274501 -11.1508 -10.5375 -7.457 
-11.8449 -11.8114 -11.1218 -11.5302 -11.7213 -11.5205 
