-4.759 
n/a 
n/a 
n/a 
n/a 
-4.759 
n/a 
n/a 
n/a 
n/a 
-4.759 
n/a 
n/a 
n/a 
n/a 
-4.759 
n/a 
n/a 
n/a 
n/a 
-3.7075 -4.3845 -3.2495 -3.8725 -4.889 -3.2955 0 
-9.253501 -8.3005 -5.92 -8.264501 -7.6615 -3.2955 
-13.2039 -10.5865 -9.213 -11.3054 -7.6615 
-15.4899 -13.8795 -12.5069 -11.3054 
-18.7829 -17.1734 -12.5069 
-2.0935 -5.2005 -3.7075 -2.229 -3.8935 -3.0365 -2.4945 -3.2495 -3.9755 -1.7565 -4.982 -2.4945 -1.934 -4.6975 0 
-5.9395 -9.4625 -5.5255 -5.9715 -6.9575 -3.688 -4.891 -5.5315 -4.312 -6.833001 -6.1365 -4.2645 -5.8345 -4.6975 
-9.9405 -11.7917 -9.718 -9.0415 -7.5 -5.0435 -6.181 -5.5925 -8.1975 -8.430501 -8.248501 -7.534 -5.8345 
-12.5581 -15.9842 -12.9964 -9.7155 -8.696501 -6.192 -6.2025 -9.409 -9.361501 -10.168 -11.8024 -7.534 
-16.7506 -19.2626 -13.6704 -10.9854 -9.6955 -6.213 -10.354 -10.2875 -11.1198 -13.7219 -11.8024 
-3.7075 -5.203 -1.756 -4.4835 -4.982 -2.8645 -3.43 
-6.783 -6.5435 -5.4565 -7.817 -8.167001 -4.9155 
-7.664501 -10.9354 -8.932 -11.3516 -10.168 
-12.6164 -14.4109 -12.4882 -13.3526 
-16.0919 -17.9671 -14.4892 
-3.0365 -2.4945 -3.2495 -3.7075 -1.7565 -4.486 -2.186 -3.2955 -2.0935 -3.7075 -3.43 
-3.688 -4.891 -7.9655 -4.51 -5.717 -6.2635 -4.348001 -4.307 -6.0295 -7.569 
-5.0435 -9.277 -9.149 -7.268001 -7.505001 -7.9905 -5.274 -8.7725 -10.7495 
-9.3255 -10.108 -12.0178 -8.658001 -8.8935 -8.944 -9.626501 -13.7265 
-10.1425 -12.9768 -13.4078 -9.345501 -9.8605 -13.4517 -14.7037 
