-4.759 
n/a 
n/a 
n/a 
n/a 
-4.759 
n/a 
n/a 
n/a 
n/a 
-4.759 
n/a 
n/a 
n/a 
n/a 
-4.759 
n/a 
n/a 
n/a 
n/a 
-2.925 -5.2085 -4.1225 -3.8735 -3.6215 -4.122 -3.277 
-7.513 -8.598001 -6.836501 -7.931001 -6.76 -6.4465 
-11.1637 -10.7495 -9.938001 -10.2485 -8.7945 
-13.3152 -13.851 -12.3595 -12.283 
-16.4167 -16.2725 -14.394 
-3.0365 -3.4985 -3.502 -3.8735 -4.122 -3.277 0 
-8.357 -7.9395 -6.2275 -7.963 -6.4465 -3.277 
-12.9918 -11.0022 -10.9756 -10.2805 -6.4465 
-16.0545 -15.7503 -13.2931 -10.2805 
-20.8026 -18.0678 -13.2931 
-2.925 -2.674 -5.1605 -3.2295 -4.122 -3.277 -1.934 -3.502 -3.8735 
-4.1785 -6.8215 -7.0955 -5.713 -6.4465 -4.8125 -4.8155 -6.2275 
-8.2825 -8.562 -10.122 -7.545 -8.036 -7.698501 -6.9265 
-10.168 -11.8881 -11.954 -9.1715 -11.2392 -9.8695 
-13.5411 -13.7201 -13.5805 -12.4245 -13.4102 
-2.925 -5.1605 -2.0935 -4.122 -4.674 -3.277 -1.934 -3.502 -3.8735 
-7.3755 -7.1085 -6.515501 -8.1565 -5.6755 -4.8125 -4.8155 -6.2275 
-8.6265 -9.724501 -9.749001 -8.9175 -7.401 -7.698501 -6.9265 
-11.6717 -14.398 -9.8725 -10.6605 -10.3405 -9.8695 
-16.3452 -14.5215 -11.8069 -13.6 -12.5115 
