-4.759 
n/a 
n/a 
n/a 
n/a 
-4.759 
n/a 
n/a 
n/a 
n/a 
-4.759 
n/a 
n/a 
n/a 
n/a 
-4.759 
n/a 
n/a 
n/a 
n/a 
-1.934 -3.859 -2.9775 -12.16972 -4.023 -4.0445 -8.940001 -3.3235 -3.9205 -4.1585 
-5.832 -7.1455 -16.09242 -16.19272 -8.5915 -14.3189 -12.7067 -4.8795 -9.226501 
-9.887001 -20.70142 -20.11542 -20.76122 -18.8667 -18.0856 -14.2627 -10.4035 
-23.51632 -24.72442 -24.68392 -31.03642 -22.6334 -19.6416 -19.7867 
-27.53932 -29.29292 -34.95912 -34.80312 -24.1894 -25.1656 
-1.934 -1.4985 -3.859 -3.355 0 -2.9805 -3.509 -1.4985 -4.023 -3.9755 -1.7565 -3.7865 -1.756 -3.644 -2.3335 -2.871 -3.2645 -3.659 -3.277 -3.894 -2.356 -6.0755 -5.9885 0 
-2.6125 -4.4795 -6.415501 -3.355 -2.9805 -7.449 -5.3115 -6.6455 -8.9265 -4.312 -5.1075 -4.7705 -5.6485 -4.989501 -4.7635 -5.529 -6.241 -6.921 -5.8105 -4.7015 -8.620501 -6.37 -5.9885 
-5.3215 -6.611501 -6.415501 -6.614 -7.449 -7.958 -10.5975 -11.933 -9.155001 -8.360001 -5.6315 -9.935501 -6.5605 -7.235001 -6.581 -8.205501 -8.912001 -9.7405 -6.958 -11.3288 -8.9505 -6.37 
-7.4995 -6.611501 -9.269001 -10.7595 -7.958 -13.4782 -15.885 -12.1615 -13.2244 -9.030001 -11.6921 -10.8475 -8.936001 -8.415501 -9.0305 -10.8865 -11.8983 -10.888 -13.8033 -11.6588 -8.9505 
-7.4995 -9.3865 -13.4241 -11.2685 -13.4782 -18.7657 -16.1135 -16.2309 -13.8944 -15.7344 -12.6041 -13.223 -10.4185 -11.0444 -11.8843 -13.8728 -13.0458 -17.7333 -14.1333 -11.6588 
-3.859 -3.4715 -3.644 -2.5685 -1.7565 -3.7865 -4.023 -1.7695 -3.254 -3.5795 -8.940001 
-7.144 -7.687 -6.384001 -3.887 -5.1075 -8.465501 -6.305 -4.9115 -7.0295 -13.2687 
-10.213 -10.3815 -7.109001 -9.6975 -10.1035 -10.6095 -10.298 -9.582001 -16.9435 
-13.3399 -11.1065 -13.6329 -14.6179 -12.2475 -14.6025 -14.9685 -19.5756 
-14.0649 -17.6304 -18.5533 -16.7619 -16.2405 -19.273 -24.9621 
-1.934 -3.859 -3.7595 -2.9805 -4.7595 -2.5685 -4.023 -3.7865 -1.934 -5.5415 -2.356 -3.1435 -4.2695 0 
-5.832 -6.993 -7.181001 -6.097 -6.9545 -6.7585 -8.492001 -5.4965 -7.3665 -7.6995 -4.6055 -7.658501 -4.2695 
-9.948001 -9.297001 -9.429501 -8.567 -11.8817 -12.2065 -10.8702 -11.9608 -8.1735 -10.028 -9.4055 -7.658501 
-12.2136 -11.5789 -12.1781 -13.6874 -17.3297 -14.5847 -17.3345 -12.7678 -10.698 -14.828 -9.4055 
-14.4955 -14.3275 -17.2985 -19.1354 -19.7079 -21.049 -18.1415 -15.2923 -15.498 -14.828 
