-4.759 
n/a 
n/a 
n/a 
n/a 
-4.759 
n/a 
n/a 
n/a 
n/a 
-4.759 
n/a 
n/a 
n/a 
n/a 
-4.759 
n/a 
n/a 
n/a 
n/a 
-3.1495 -5.682 -3.9355 -2.4945 -4.1895 -1.7695 -9.6365 -1.7695 -3.659 -1.4985 -4.5735 -4.9405 -3.115 -8.5955 -4.236 0 
-8.4855 -10.2185 -5.6745 -6.3275 -5.1555 -12.3882 -11.5322 -4.3495 -5.1055 -5.271 -8.497001 -7.765 -12.4861 -13.2537 -4.236 
-13.2188 -12.1981 -9.2535 -7.225501 -17.0552 -14.2839 -14.1122 -5.6755 -8.0605 -9.3225 -11.6629 -17.1447 -17.1443 -13.2537 
-15.1984 -15.7771 -9.9235 -18.9448 -18.9509 -16.8639 -15.4382 -8.752001 -12.9042 -12.7586 -21.0426 -21.8029 -17.1443 
-18.7774 -16.4471 -21.818 -20.8405 -21.5309 -18.1899 -18.5147 -13.5599 -16.3403 -22.1383 -25.7008 -21.8029 
-1.4985 -4.3435 -1.7565 -3.9355 -4.2705 -5.1845 -3.1385 -3.659 -3.4155 -4.5735 -5.1845 -5.216 -3.115 -8.283501 -4.5775 
-5.6925 -5.325 -5.442 -8.331501 -9.3435 -7.4095 -6.0055 -7.6855 -7.574 -8.3575 -11.6949 -7.758 -10.7025 -13.3828 
-5.9175 -8.058001 -9.271001 -13.7313 -12.9449 -10.6529 -10.019 -12.406 -11.9858 -15.2767 -14.2369 -15.5545 -15.8018 
-8.507001 -12.1908 -14.9012 -17.3327 -16.1883 -14.6664 -15.0885 -16.8178 -18.905 -17.8187 -22.0334 -20.6538 
-12.9838 -17.821 -18.5026 -20.5761 -20.2018 -19.7359 -19.5003 -23.737 -21.447 -25.6152 -27.1327 
-2.3615 -4.6165 -4.3435 -1.7565 -3.9355 -3.1425 -3.0785 -1.7695 -3.659 -1.4985 -4.5735 -5.216 -3.115 -8.5955 -8.4715 -5.1845 -4.936 
-7.1235 -8.1055 -5.325 -5.442 -6.8835 -5.424 -4.903 -4.3495 -5.1055 -5.271 -9.3715 -7.758 -12.4861 -17.4892 -14.117 -8.961 
-10.9879 -8.972501 -8.058001 -8.3935 -9.036501 -6.469501 -7.2955 -5.6755 -8.0605 -10.328 -12.0955 -17.3381 -21.3798 -23.1347 -17.8935 
-11.8549 -11.7577 -11.3133 -10.4345 -10.2385 -9.519501 -8.908 -8.752001 -13.9097 -13.4444 -21.6756 -26.2318 -27.0253 -26.9112 
-14.6401 -15.013 -13.3543 -11.6365 -13.2885 -10.405 -12.1231 -14.5654 -17.0261 -23.0245 -30.5693 -31.8773 -30.8018 
-8.5955 -2.186 -2.664 -4.5735 -5.7265 -2.0935 -5.1845 -3.1385 -1.756 -2.4265 -3.2955 -1.7695 -3.301 -3.781 -2.3345 -4.078 -1.7565 -3.9355 
-10.115 -3.8555 -5.701 -9.9205 -7.735 -7.298 -7.4095 -4.6325 -3.949 -5.5775 -3.9425 -5.5655 -7.0155 -6.091001 -7.9615 -5.271 -5.442 
-12.0655 -6.6225 -10.733 -12.1028 -13.2969 -9.289001 -8.628 -6.6285 -7.4255 -5.7245 -7.6055 -8.871 -9.774 -12.5676 -8.555 -8.429501 
-14.8325 -12.0425 -12.9153 -17.6647 -15.2879 -10.6269 -10.586 -10.4675 -7.600501 -9.710501 -11.7578 -11.7917 -16.3364 -13.1611 -12.2221 
-20.2525 -14.2248 -18.4772 -19.6557 -16.6258 -12.5849 -14.425 -10.6745 -11.8745 -13.763 -14.6785 -18.3541 -16.9299 -16.8282 
