-4.759 
n/a 
n/a 
n/a 
n/a 
-4.759 
n/a 
n/a 
n/a 
n/a 
-4.759 
n/a 
n/a 
n/a 
n/a 
-4.759 
n/a 
n/a 
n/a 
n/a 
-1.934 -3.5195 -2.1715 -1.4985 -6.5175 -4.0415 -4.3215 -2.3335 -2.925 -2.674 -4.9385 -1.4985 -12.16972 -3.892 -1.7565 -1.4985 -9.3085 -3.8145 0 
-5.009 -5.0275 -4.299 -7.340501 -9.885501 -8.0205 -5.1075 -4.0295 -4.1785 -6.5175 -5.916501 -14.76202 -16.06172 -5.131001 -2.4195 -10.634 -10.841 -3.8145 
-7.914001 -7.3745 -10.459 -10.3815 -13.8645 -8.6005 -6.3015 -5.151 -7.8595 -7.0055 -19.72802 -18.65402 -17.30072 -5.6325 -11.7458 -12.1665 -10.841 
-9.878 -13.8409 -13.5 -14.3605 -14.4445 -9.9565 -7.0125 -8.703501 -8.475 -21.20002 -23.62002 -19.89302 -17.80222 -15.5572 -13.2783 -12.1665 
-16.4048 -16.8819 -17.479 -14.9405 -15.8005 -10.9157 -11.4198 -9.433001 -22.67752 -25.09202 -24.85902 -20.39452 -27.72692 -17.0897 -13.2783 
-3.5195 -2.1715 -9.3085 -3.8145 0 -6.899 -4.257 -3.264 -2.925 -4.9385 -9.284 -3.355 0 
-5.0275 -11.7236 -10.841 -3.8145 -6.899 -9.082001 -7.163 -5.0665 -7.1705 -15.2533 -12.941 -3.355 
-15.981 -13.2561 -10.841 -11.8047 -9.082001 -12.0792 -9.032001 -9.067 -17.7273 -18.9103 -12.941 
-17.5135 -13.2561 -18.8312 -13.9877 -12.0792 -13.9482 -10.7335 -19.8462 -21.3843 -18.9103 
-17.5135 -21.2463 -21.0142 -16.9849 -13.9482 -15.6497 -21.5127 -23.5032 -21.3843 
-7.5855 -2.1715 0 -6.899 -4.0415 -4.9385 -1.4985 -11.0235 -3.892 -1.7565 -12.16972 -3.8145 0 
-9.5315 -2.1715 -6.899 -9.7065 -9.018 -5.916501 -13.6158 -14.9155 -5.131001 -14.87542 -15.98422 -3.8145 
-9.5315 -9.762001 -9.7065 -14.683 -9.886 -18.5818 -17.5078 -16.1545 -18.89792 -18.68992 -15.98422 
-17.3282 -12.5147 -14.683 -15.551 -22.5513 -22.4738 -18.7468 -29.92142 -22.71242 -18.68992 
-20.0809 -17.4912 -15.551 -28.2163 -26.4433 -23.7128 -32.51372 -33.73592 -22.71242 
-3.5195 -2.1715 0 -4.628 -5.939 -3.5435 -4.3215 -2.3335 -2.4265 -5.381 -9.3085 -3.8145 0 -9.284 -3.4425 0 
-5.0275 -2.1715 -4.628 -5.9615 -7.053 -6.5315 -5.1075 -3.913 -7.811 -15.8461 -10.841 -3.8145 -9.284 -10.5035 -3.4425 
-5.0275 -7.223001 -5.9615 -7.0565 -9.414001 -7.214 -5.7225 -9.0865 -18.5225 -17.3786 -10.841 -14.1897 -10.5035 -10.5035 
-10.76 -8.678501 -7.0565 -9.417001 -9.891001 -7.6045 -10.5975 -19.9514 -20.055 -17.3786 -21.2162 -15.4092 -10.5035 
-12.2155 -10.5635 -9.417001 -9.89 -10.1685 -13.0275 -21.4624 -21.4839 -20.055 -27.7538 -22.4357 -15.4092 
