-4.759 
n/a 
n/a 
n/a 
n/a 
-4.759 
n/a 
n/a 
n/a 
n/a 
-4.759 
n/a 
n/a 
n/a 
n/a 
-4.759 
n/a 
n/a 
n/a 
n/a 
-4.1865 -4.698 -2.8645 -3.2495 -4.5375 -5.2565 
-7.3905 -6.5245 -5.3035 -7.603001 -7.622001 
-9.1765 -9.087001 -9.654 -10.1225 
-11.7506 -10.758 -12.2283 
-13.4216 -13.3323 
-4.1865 -4.698 -2.674 -3.2495 -5.0065 
-7.3905 -7.321501 -5.2115 -7.151 
-9.956 -10.1595 -9.003 
-12.9558 -14.2982 
-17.0945 
-3.8735 -2.8645 -3.2495 -6.1555 0 
-6.143 -5.3035 -8.2825 -6.1555 
-8.872 -10.564 -8.2825 
-14.2871 -10.564 
-14.2871 
-3.8735 -2.8645 -3.2495 -6.1555 0 
-6.143 -5.3035 -8.2825 -6.1555 
-8.872 -10.564 -8.2825 
-14.2871 -10.564 
-14.2871 
