-4.759 
n/a 
n/a 
n/a 
n/a 
-4.759 
n/a 
n/a 
n/a 
n/a 
-4.759 
n/a 
n/a 
n/a 
n/a 
-4.759 
n/a 
n/a 
n/a 
n/a 
-3.691 -2.229 -4.0305 -3.131 -3.1385 -4.02 -5.005 -13.65 -3.511 -2.5685 -4.9225 0 
-5.0855 -6.2685 -6.826501 -6.932 -7.271 -10.322 -17.171 -16.4925 -5.9195 -6.688 -4.9225 
-8.4805 -8.940001 -10.2925 -11.6983 -14.1554 -20.2899 -19.7483 -16.4507 -11.3568 -6.688 
-12.1572 -12.9704 -15.2432 -18.5827 -24.1233 -25.4411 -22.3398 -22.071 -11.3568 
-16.1876 -17.9211 -22.1276 -28.5506 -29.2745 -27.8496 -27.7771 -22.071 
-1.4985 -3.5085 -4.02 -2.186 -13.65 -1.934 -3.131 0 
-4.4755 -5.651 -5.624 -15.0355 -14.4955 -4.8435 -3.131 
-6.240001 -7.428 -14.0815 -13.604 -13.106 -4.8435 
-7.6755 -15.7001 -16.1766 -15.9305 -13.289 
-15.8586 -17.7716 -18.3201 -15.9305 
-3.691 -2.229 -4.46 -2.264 -3.131 -3.644 -4.02 -2.5045 -13.65 0 
-5.0855 -5.515 -7.0465 -5.919001 -7.578 -8.668501 -5.8555 -15.5835 -11.7465 
-8.81 -8.975 -11.4731 -11.491 -12.7067 -10.8184 -17.7218 -13.3604 
-12.7894 -13.6316 -17.0451 -16.6197 -14.8566 -22.6847 -17.7218 
-17.446 -19.2036 -22.1738 -18.7696 -26.7229 -22.6847 
-4.4765 -3.277 -3.131 -2.7455 -3.691 0 -13.65 -3.1385 -3.511 -1.934 -3.59 0 
-6.694 -5.989 -6.4725 -6.23 -3.691 -11.7465 -14.986 -5.979 -4.582 -5.832 -3.59 
-8.4905 -8.849001 -10.4444 -6.23 -11.4925 -10.56 -13.8733 -6.5055 -8.070001 -5.832 
-11.6077 -13.4137 -10.4444 -14.2345 -11.716 -14.2092 -14.7357 -10.575 -8.070001 
-16.1724 -13.4137 -18.4489 -15.522 -15.5807 -14.7527 -18.8222 -10.575 
