-4.759 
n/a 
n/a 
n/a 
n/a 
-4.759 
n/a 
n/a 
n/a 
n/a 
-4.759 
n/a 
n/a 
n/a 
n/a 
-4.759 
n/a 
n/a 
n/a 
n/a 
-3.9305 0 -4.1285 -5.0215 -3.32 
-3.9305 -4.1285 -6.6605 -9.568001 
-9.712501 -6.6605 -10.7025 
-12.2445 -10.7025 
-16.2865 
-3.999 0 -3.5485 -4.7455 -3.759 
-3.999 -3.5485 -8.687 -8.608 
-7.7665 -8.687 -13.1501 
-13.5616 -13.1501 
-18.0247 
-3.892 0 -4.042 -5.0215 -3.892 
-3.892 -4.042 -9.9895 -9.639 
-8.99 -9.9895 -15.0152 
-15.6559 -15.0152 
-20.6816 
-4.4675 0 -4.385 -4.361 -3.9035 0 
-4.4675 -4.385 -9.4685 -8.047 -3.9035 
-10.451 -9.4685 -13.3125 -8.047 
-15.5345 -13.3125 -13.3125 
-19.3785 -13.3125 
