-4.759 
n/a 
n/a 
n/a 
n/a 
-4.759 
n/a 
n/a 
n/a 
n/a 
-4.759 
n/a 
n/a 
n/a 
n/a 
-4.759 
n/a 
n/a 
n/a 
n/a 
-7.063 -4.3515 -7.12 -4.3195 -1.4985 -3.757 -1.756 -4.156 -6.219 -6.0945 -4.3195 -1.4985 -4.432 -4.328 0 
-8.706 -8.713 -10.4855 -5.1515 -4.5435 -4.8735 -5.9775 -7.117001 -7.1165 -9.6945 -5.1515 -5.268001 -4.899 -4.328 
-9.1005 -12.2527 -10.703 -7.483 -5.6705 -9.4585 -9.0135 -7.1295 -9.818001 -9.935 -8.031 -5.504 -4.899 
-12.787 -12.4702 -13.6495 -8.4325 -10.4185 -10.675 -9.036 -9.8195 -9.992001 -13.3049 -8.3815 -5.504 
-13.0045 -15.4167 -14.599 -13.6245 -11.635 -10.698 -10.4685 -9.991501 -13.5653 -13.6554 -8.3815 
-6.8655 -2.186 -3.1715 -7.7305 -2.3585 -2.9805 -3.9535 
-9.1435 -6.5675 -12.2054 -11.08 -5.8075 -5.607 
-13.5968 -16.276 -15.5549 -14.529 -8.6905 
-23.3053 -19.6255 -19.0039 -17.412 
-26.6548 -23.0745 -21.8869 
-8.383 -4.3515 -6.2965 -4.3195 -1.4985 -3.757 -1.756 -4.156 -6.219 -4.8955 -4.3195 -1.4985 -4.432 -4.328 0 
-13.0695 -11.4198 -10.6095 -5.1515 -4.5435 -4.8735 -5.9775 -7.117001 -8.391001 -9.104 -5.1515 -5.268001 -4.899 -4.328 
-20.1378 -15.7328 -11.4415 -7.483 -5.6705 -9.4585 -9.0135 -10.025 -13.0613 -9.904 -8.031 -5.504 -4.899 
-24.4508 -16.5648 -13.773 -8.4325 -10.4185 -10.675 -11.6787 -14.6953 -13.8613 -12.8069 -8.3815 -5.504 
-25.2828 -18.8963 -14.7225 -13.6245 -11.635 -13.3306 -16.349 -15.4953 -16.7642 -13.1574 -8.3815 
-12.16972 -4.3515 -6.2965 -4.3195 -1.4985 -3.757 -1.756 -6.219 -2.3585 -1.4985 -4.432 -4.328 0 
-16.52122 -11.4198 -10.6095 -5.1515 -4.5435 -4.8735 -8.4385 -9.47 -4.4835 -5.268001 -4.899 -4.328 
-23.58952 -15.7328 -11.4415 -7.483 -5.6705 -12.983 -11.7677 -12.0634 -8.734 -5.504 -4.899 
-27.90252 -16.5648 -13.773 -8.4325 -14.0146 -16.3122 -14.3611 -16.3139 -9.1035 -5.504 
-28.73452 -18.8963 -14.7225 -17.2206 -17.3438 -18.9056 -18.6116 -16.6834 -9.1035 
