-4.759 
n/a 
n/a 
n/a 
n/a 
-4.759 
n/a 
n/a 
n/a 
n/a 
-4.759 
n/a 
n/a 
n/a 
n/a 
-4.759 
n/a 
n/a 
n/a 
n/a 
-3.1495 -3.7495 -2.4945 -3.074 -4.0515 -8.384001 -3.115 -1.4985 -6.2995 
-5.6505 -5.2295 -4.4205 -6.389 -13.8621 -10.329 -4.2305 -7.564501 
-6.544 -7.028501 -7.428 -16.4492 -15.8071 -11.4445 -10.733 
-8.265 -9.3415 -17.644 -18.3942 -16.9226 -17.947 
-10.5035 -19.5773 -19.589 -19.5097 -23.4251 
-4.685 -2.5195 -2.3615 0 -3.1495 -4.0805 -3.6845 -3.098 -3.4095 -3.074 0 
-5.093 -4.4095 -2.3615 -3.1495 -6.0185 -7.925 -6.9305 -6.9425 -6.8785 -3.074 
-6.587 -4.4095 -6.287 -6.0185 -9.272501 -11.2234 -11.5802 -10.553 -6.8785 
-6.587 -8.5485 -9.742001 -9.272501 -12.5429 -15.8731 -15.1907 -10.553 
-9.161 -12.1187 -13.0624 -12.5429 -17.1926 -19.4836 -15.1907 
-4.426 -1.7565 -1.4985 -3.0835 -4.7285 -4.1555 -3.147 -2.3615 -3.9235 -3.807 -4.0005 -3.787 -1.7565 -3.4605 0 
-5.47 -2.4195 -3.535 -6.042 -8.4455 -5.77 -5.445 -5.7745 -6.832001 -7.619 -4.7805 -4.189 -6.0775 -3.4605 
-5.9535 -4.6785 -6.335501 -9.523001 -9.541501 -8.02 -9.1925 -7.73 -10.977 -8.189 -4.795 -8.089001 -6.0775 
-8.021 -7.476501 -10.0095 -10.7035 -11.7915 -12.1695 -11.7288 -12.1152 -11.547 -8.2655 -8.683001 -8.089001 
-9.983001 -11.3061 -11.3 -12.9535 -15.941 -14.7058 -16.114 -12.6852 -11.6235 -12.4719 -8.683001 
-3.321 -2.4265 -4.851 -1.7695 -3.16 -3.991 
-4.872 -6.514 -5.871 -5.4185 -6.9775 
-9.120001 -7.239 -9.502001 -9.494 
-9.660001 -11.2034 -13.6569 
-13.7204 -15.3583 
