-4.759 
n/a 
n/a 
n/a 
n/a 
-4.759 
n/a 
n/a 
n/a 
n/a 
-4.759 
n/a 
n/a 
n/a 
n/a 
-4.759 
n/a 
n/a 
n/a 
n/a 
-3.0365 -4.0155 -3.535 -3.9035 -1.934 -5.1875 -4.2655 0 
-7.7005 -7.016 -6.7315 -5.7625 -7.1715 -7.408 -4.2655 
-11.134 -8.9585 -8.435 -11.5608 -8.512501 -7.408 
-13.0765 -10.6198 -14.6835 -12.9018 -8.512501 
-14.7378 -16.8683 -16.0245 -12.9018 
-1.4985 -3.8175 -5.92 -6.2055 0 -6.7445 -1.756 -6.8745 0 -3.152 -4.879 -3.2295 -1.8085 -6.1365 -3.8405 -3.5455 -1.4985 -4.0325 -5.1185 -5.872 -1.756 -1.4985 -3.8315 -5.1185 -4.3755 0 
-4.741 -9.454 -8.758 -6.2055 -6.7445 -7.815 -8.277 -6.8745 -3.152 -6.666 -7.6295 -4.564 -6.7445 -7.58 -6.0645 -3.91 -4.801001 -9.409 -8.031 -7.323 -3.0405 -4.604 -7.553 -7.955501 -4.3755 
-10.243 -9.821501 -8.758 -8.836 -7.815 -8.363501 -8.277 -9.445001 -6.666 -9.127501 -8.456 -8.241 -7.675 -9.67 -6.8335 -6.179 -9.641001 -10.244 -9.120501 -8.207001 -6.3995 -7.6165 -9.3435 -7.955501 
-10.5215 -9.821501 -10.223 -9.058001 -8.363501 -8.363501 -9.887501 -10.496 -9.127501 -9.664001 -10.5855 -8.318501 -9.802501 -10.3765 -8.9235 -10.304 -10.2505 -10.4855 -9.949 -10.13 -9.799001 -9.379001 -9.3435 
-10.5215 -10.602 -10.278 -9.146 -8.363501 -9.9175 -10.6135 -10.6265 -9.664001 -10.6005 -10.6045 -10.4265 -10.3985 -10.5995 -10.575 -10.5425 -10.487 -10.5565 -10.548 -10.474 -10.516 -9.379001 
-2.5685 -4.6335 -8.034 -2.4945 -3.333 -3.098 -1.934 -5.1875 -4.2655 0 
-7.166 -14.1177 -9.670501 -4.3655 -5.46 -4.746 -7.1715 -7.408 -4.2655 
-17.253 -15.7542 -11.5777 -6.3065 -6.3685 -9.854501 -8.512501 -7.408 
-18.8895 -17.6614 -13.5187 -7.2185 -12.1008 -11.2735 -8.512501 
-20.7967 -19.6024 -14.4307 -13.2096 -13.5198 -11.2735 
-2.5685 -4.0155 -12.235 0 -7.696001 -1.756 -4.7255 -1.4985 -3.998 -4.7225 -2.5195 -3.1495 -3.7655 -2.4945 -6.666 -2.356 -5.1875 -4.2655 
-6.133 -17.4566 -13.0216 -7.696001 -9.290001 -5.403501 -6.672 -5.5065 -9.859 -7.511001 -5.0805 -5.916 -5.988 -10.5887 -6.758501 -7.847 -7.408 
-19.7719 -17.4566 -21.6838 -9.290001 -12.9829 -7.3745 -11.1552 -12.0031 -12.6831 -10.674 -7.598001 -7.0495 -14.581 -10.6812 -12.8567 -9.8205 
-19.7719 -26.1188 -23.2778 -12.9829 -14.9539 -12.4083 -17.6518 -14.8272 -15.8461 -13.1915 -9.469 -15.8125 -14.6735 -16.7794 -14.8302 
-28.4341 -27.7128 -26.9707 -14.9539 -19.9877 -18.9049 -20.4759 -17.9902 -18.3636 -15.0625 -18.2542 -15.905 -20.7717 -18.7529 
