-4.759 
n/a 
n/a 
n/a 
n/a 
-4.759 
n/a 
n/a 
n/a 
n/a 
-4.759 
n/a 
n/a 
n/a 
n/a 
-4.759 
n/a 
n/a 
n/a 
n/a 
-3.8735 -2.186 -1.4985 -4.99 -4.4665 -3.59 -1.934 -3.1435 -4.1455 -3.0365 -2.4945 -3.54 -5.101 -4.957 -1.934 -1.4985 -4.1865 -9.3125 0 
-5.949 -3.339 -5.446 -8.4735 -7.635 -5.272 -4.335 -6.4175 -7.044001 -3.688 -5.328 -7.939 -8.047501 -6.4085 -2.6125 -5.177 -9.6625 -6.75 
-7.04 -6.886 -8.705501 -10.375 -8.007001 -7.456 -8.0485 -8.814 -7.576 -5.4375 -10.001 -9.4785 -9.59 -6.9355 -6.116 -7.342 -7.0455 
-9.2655 -9.4445 -10.4185 -10.535 -11.3628 -11.5807 -10.621 -9.446 -9.141001 -10.1505 -11.5405 -11.0958 -10.136 -10.442 -8.036 -7.333 
-12.827 -11.2187 -10.5455 -13.8908 -15.4875 -14.1532 -11.253 -11.06 -13.973 -11.69 -13.1578 -11.6418 -13.6425 -12.346 -8.02 
-3.4425 -4.7365 -3.8735 -2.186 -1.4985 -4.99 -4.1735 -3.59 -1.934 -1.4985 -7.061501 0 -3.355 -1.7565 -4.1865 -6.2985 0 -5.75 -2.8645 -3.54 -4.0995 -3.9035 0 
-8.108 -8.7735 -5.949 -3.339 -5.446 -7.165 -6.9245 -5.272 -2.6125 -7.463 -7.032001 -3.355 -3.725 -5.463 -6.497 -6.2985 -5.75 -9.170501 -5.672 -6.863501 -7.365 -3.9035 
-12.328 -10.2815 -7.04 -6.886 -7.3465 -8.533501 -7.166 -5.747 -8.361 -7.603001 -11.2481 -3.725 -7.916 -8.557 -6.497 -11.0465 -9.170501 -12.0152 -8.343 -9.199501 -7.365 
-13.836 -11.3725 -9.2655 -7.838 -8.5985 -8.845501 -7.578 -9.9025 -8.082001 -12.0879 -12.1866 -7.916 -9.948 -8.557 -11.4868 -14.467 -12.0152 -14.6862 -10.3675 -9.199501 
-14.927 -13.598 -9.3055 -8.7345 -8.9005 -9.000501 -10.602 -9.136001 -12.8535 -13.0264 -16.5292 -9.948 -9.948 -13.783 -14.9073 -17.3117 -14.6862 -16.7107 -10.3675 
-3.8735 -2.186 -1.4985 -9.1635 -3.59 -1.934 -1.4985 -3.188 -3.0365 -2.4945 -3.54 -4.101 -4.957 -3.402 -5.75 -1.934 -3.8735 -1.934 -4.1865 -5.0465 
-5.949 -3.339 -7.621 -9.916 -5.272 -2.6125 -3.619 -6.037001 -3.688 -5.328 -7.5585 -7.5495 -7.812 -8.8155 -7.741001 -4.885 -5.938 -5.967 -8.077 
-7.04 -8.7865 -8.715 -8.775001 -5.747 -4.377 -6.304 -6.494501 -5.4375 -9.112 -10.096 -10.195 -14.6893 -10.31 -10.7175 -6.568501 -8.7845 -10.396 
-10.2175 -9.09 -8.910501 -9.257501 -6.1975 -6.792001 -6.73 -8.35 -9.146001 -11.8257 -12.7415 -17.7315 -16.1838 -13.2865 -12.401 -9.067 -13.6115 
-10.202 -9.0365 -9.0555 -9.086 -8.464001 -7.203501 -8.618501 -12.1777 -11.8745 -14.4712 -20.278 -19.226 -19.1603 -14.97 -14.8995 -14.2168 
-3.8735 -2.7415 -4.2405 -4.1735 -3.59 -1.934 -3.4425 -4.7365 -3.8735 -3.7405 -4.088 -3.8735 -3.995 -3.518 -4.1175 -4.622 -3.54 -3.9035 -2.4945 -3.9285 0 
-6.64 -6.704 -7.805 -6.9245 -5.272 -5.8435 -8.108 -8.7735 -8.262 -7.657001 -8.185 -8.372001 -8.1975 -7.8555 -9.566 -8.7355 -6.125501 -5.8065 -5.071 -3.9285 
-10.8557 -11.1019 -10.9434 -7.166 -8.083 -10.4855 -12.328 -13.7484 -12.6829 -12.342 -13.1563 -13.0693 -12.7784 -13.2886 -13.9929 -11.4916 -8.112 -7.824 -5.071 
-15.2536 -14.2403 -11.1849 -8.097 -12.9724 -14.7055 -17.3029 -18.1693 -17.3679 -17.3133 -17.8536 -17.6502 -18.2115 -17.7155 -16.749 -13.4781 -10.281 -7.824 
-18.392 -14.4818 -12.1159 -12.9828 -17.1924 -19.6804 -21.7238 -22.8543 -22.3392 -22.0106 -22.4345 -23.0833 -22.6384 -20.4716 -18.7355 -15.6471 -10.281 
