-4.759 
n/a 
n/a 
n/a 
n/a 
-4.759 
n/a 
n/a 
n/a 
n/a 
-4.759 
n/a 
n/a 
n/a 
n/a 
-4.759 
n/a 
n/a 
n/a 
n/a 
-4.1855 -2.857 -4.5775 -9.233001 0 -12.16972 0 
-7.689 -5.646501 -9.986501 -9.233001 -12.16972 -12.16972 
-10.259 -9.989501 -9.986501 -21.67472 -12.16972 
-14.602 -9.989501 -22.51062 -21.67472 
-14.602 -22.51422 -22.51062 
-7.0425 -4.5775 -9.233001 0 -4.094 -3.9825 0 
-10.4785 -9.986501 -9.233001 -4.094 -9.066 -3.9825 
-14.602 -9.986501 -13.599 -9.066 -9.066 
-14.602 -14.4349 -18.571 -9.066 
-19.051 -19.4069 -18.571 
-7.0425 -4.5775 -9.233001 0 -10.6015 0 
-10.4785 -9.986501 -9.233001 -10.6015 -10.6015 
-14.602 -9.986501 -20.1065 -10.6015 
-14.602 -20.9424 -20.1065 
-25.5585 -20.9424 
-4.1855 -2.857 -4.5775 -9.233001 0 -10.6015 0 
-7.689 -5.646501 -9.986501 -9.233001 -10.6015 -10.6015 
-10.259 -9.989501 -9.986501 -20.1065 -10.6015 
-14.602 -9.989501 -20.9424 -20.1065 
-14.602 -20.946 -20.9424 
