-4.759 
n/a 
n/a 
n/a 
n/a 
-4.759 
n/a 
n/a 
n/a 
n/a 
-4.759 
n/a 
n/a 
n/a 
n/a 
-4.759 
n/a 
n/a 
n/a 
n/a 
-3.7075 -3.7875 -2.3335 -3.5015 -2.5045 -4.9845 -4.126 -4.347 -4.554 -2.5045 -7.064 -3.277 
-8.054501 -6.3665 -5.909 -5.249 -7.455 -9.507501 -8.5345 -8.843 -6.087 -9.8715 -10.124 
-10.7815 -9.672001 -8.051001 -10.543 -12.7686 -13.916 -13.0933 -10.575 -13.081 -13.183 
-14.087 -11.8864 -13.732 -15.8566 -17.1771 -18.4748 -14.8253 -17.6264 -16.9102 
-16.3014 -17.5674 -19.0456 -20.2651 -21.7359 -20.2068 -21.8767 -21.3982 
-2.4265 -2.186 -7.064 -3.7805 -3.277 -2.5195 -1.4985 -3.307 -1.7565 -1.4985 -5.732 -3.3755 -4.9845 0 
-3.292 -10.168 -11.585 -6.184 -5.3755 -3.1695 -4.581 -4.8035 -2.4195 -6.261001 -5.8985 -6.862 -4.9845 
-11.2275 -13.3725 -11.12 -7.117 -5.8885 -5.8355 -5.081501 -5.2765 -6.848501 -6.3015 -6.864 -6.862 
-15.0927 -13.8071 -11.9355 -7.8875 -8.860001 -6.087 -5.3855 -7.813 -6.862501 -7.206501 -6.864 
-15.4637 -14.6226 -12.8615 -8.8915 -9.047501 -6.6025 -7.8535 -7.8165 -7.659501 -7.206501 
-2.4265 -2.186 -4.3765 -2.3335 -1.4985 -5.549 -3.307 -2.186 -4.347 -7.064 -3.7805 -3.277 -3.8515 -2.5195 -1.4985 -3.7075 0 
-3.292 -5.313 -5.5725 -3.3515 -6.2895 -6.995 -5.2055 -5.555 -10.6285 -11.585 -6.184 -6.2745 -4.4615 -3.1695 -4.6235 -3.7075 
-5.903 -5.948 -6.341 -8.338501 -7.149001 -8.5035 -8.283 -10.6425 -13.1205 -11.12 -6.743 -6.784 -4.964 -5.905 -4.6235 
-5.95 -6.794 -11.7924 -9.3065 -8.5495 -11.6202 -13.8045 -14.6129 -13.6159 -11.5335 -7.467 -7.540501 -7.193501 -5.905 
-6.796 -12.3194 -12.7604 -9.857501 -11.6766 -17.1417 -17.6199 -14.9839 -14.0294 -12.7175 -8.0225 -9.392501 -7.193501 
-2.4265 -2.186 -4.5295 -2.3335 -4.201 -3.458 -3.7075 -1.756 -3.757 -3.2 -2.186 -7.637001 -7.064 -3.7805 -3.277 0 
-3.292 -5.983 -5.698 -6.728001 -5.576 -7.441501 -5.318 -6.0695 -6.7155 -4.7335 -8.551001 -14.11 -11.585 -6.184 -3.277 
-6.936501 -7.1035 -10.1805 -8.4495 -9.277 -7.8535 -8.555 -9.281 -8.1975 -11.6997 -15.224 -17.801 -11.12 -6.184 
-7.122 -11.7272 -12.0558 -12.2875 -9.333 -11.4575 -11.9587 -10.791 -15.4081 -18.3727 -18.915 -18.172 -11.12 
-11.7681 -13.6025 -15.8938 -12.3435 -13.4828 -14.8612 -13.4687 -18.0016 -22.0811 -22.0637 -19.286 -18.172 
