-4.759 
n/a 
n/a 
n/a 
n/a 
-4.759 
n/a 
n/a 
n/a 
n/a 
-4.759 
n/a 
n/a 
n/a 
n/a 
-4.759 
n/a 
n/a 
n/a 
n/a 
-3.16 -4.1335 -1.756 -8.543 -1.7565 -1.4985 -3.991 
-7.6295 -5.1325 -10.041 -10.7835 -2.4195 -5.0305 
-9.733 -15.1549 -12.3633 -11.4465 -6.2175 
-19.8766 -17.4772 -13.0263 -15.2445 
-22.1989 -18.1402 -16.8243 
-3.5025 -6.1135 -3.16 -4.306 
-8.503 -10.435 -8.584001 
-13.0977 -15.859 
-18.5217 
n/a 
-3.5025 -3.9115 -2.186 -3.619 -1.4985 -6.0525 
-7.5655 -5.219501 -6.894501 -4.707 -8.973001 
-9.038 -9.385 -7.958001 -13.1551 
-13.4059 -10.719 -16.4535 
-14.7399 -19.2145 
-11.128 -1.4985 -3.432 -1.756 -3.432 -4.7775 
-12.6265 -4.829 -5.5865 -5.815 -8.557501 
-15.957 -6.1975 -8.587501 -12.0377 
-17.3255 -9.554001 -15.1058 
-20.682 -16.2441 
