-4.759 
n/a 
n/a 
n/a 
n/a 
-4.759 
n/a 
n/a 
n/a 
n/a 
-4.759 
n/a 
n/a 
n/a 
n/a 
-4.759 
n/a 
n/a 
n/a 
n/a 
-3.818 -3.3715 -3.5015 -1.7695 -3.995 -3.874 0 -3.873 -4.493 -1.756 -4.138 -1.7565 -5.601 -3.737 0 
-7.3285 -7.859501 -4.5585 -5.497 -7.315001 -3.874 -3.873 -8.8205 -6.4015 -5.802 -5.1845 -8.830501 -10.4345 -3.737 
-12.0159 -8.8295 -10.134 -9.712001 -7.315001 -9.087 -8.8205 -10.375 -10.757 -7.4335 -13.5699 -14.1396 -10.4345 
-12.9859 -14.9326 -14.4632 -9.712001 -14.0192 -14.3531 -10.375 -14.7305 -13.6899 -15.8051 -18.879 -14.1396 
-19.089 -19.2618 -14.4632 -16.5372 -19.2853 -15.9076 -14.7305 -17.6634 -22.0615 -21.1142 -18.879 
-3.17 -3.3715 -4.088 -2.8645 -4.9345 -3.681 -3.115 -3.873 -5.2425 0 -3.873 -10.939 0 -4.799 -3.6135 -4.359 0 -3.898 -4.147 0 -4.238 -4.1705 0 -4.546 0 -4.2875 -8.280001 0 -6.2515 -1.756 -4.6105 
-7.702 -5.932 -7.39 -6.6655 -8.8575 -5.1835 -7.4655 -10.123 -5.2425 -3.873 -15.8824 -10.939 -4.799 -8.489 -6.8425 -4.359 -3.898 -7.120501 -4.147 -4.238 -7.416 -4.1705 -4.546 -4.546 -4.2875 -13.7519 -8.280001 -6.2515 -7.4425 -6.434 
-10.4315 -8.706 -11.4688 -10.5535 -10.4595 -8.747001 -14.0559 -10.123 -10.089 -15.8824 -15.8824 -15.738 -8.489 -12.4926 -6.8425 -7.693501 -7.120501 -7.120501 -7.718 -7.416 -7.416 -8.833 -4.546 -9.040001 -13.7519 -13.7519 -15.1713 -7.4425 -12.8885 
-13.2055 -12.8944 -15.3568 -12.1555 -14.023 -15.6172 -14.0559 -14.9695 -22.2008 -15.8824 -20.6814 -19.428 -12.4926 -12.4926 -10.5975 -11.7268 -7.120501 -11.5009 -11.5018 -7.416 -12.5527 -8.833 -9.040001 -18.8966 -13.7519 -20.6432 -16.3623 -12.8885 
-17.3939 -16.7824 -16.9588 -15.719 -20.8932 -15.6172 -18.9024 -27.0813 -22.2008 -20.6814 -24.3714 -23.4316 -12.4926 -16.2476 -14.6308 -11.7268 -11.5009 -15.2847 -11.5018 -12.5527 -12.5527 -13.4074 -18.8966 -18.8966 -20.6432 -21.8342 -21.8083 
-3.135 -3.3715 -4.088 -4.8345 0 -3.995 -4.5205 0 -5.3085 0 -5.659 0 -1.756 -4.6105 -3.5795 0 
-6.941501 -5.932 -10.0225 -4.8345 -3.995 -7.8435 -4.5205 -5.3085 -5.3085 -5.659 -5.659 -1.756 -6.434 -8.7185 -3.5795 
-9.569 -12.3603 -10.0225 -8.197001 -7.8435 -7.8435 -9.3505 -5.3085 -11.9865 -5.659 -7.614 -6.434 -11.3212 -8.7185 
-16.2143 -12.3603 -13.5698 -12.9395 -7.8435 -13.6813 -9.3505 -11.9865 -11.9865 -7.614 -12.6712 -11.3212 -11.3212 
-16.2143 -15.9076 -18.3123 -12.9395 -13.6813 -13.6813 -16.2357 -11.9865 -13.9415 -12.6712 -17.5584 -11.3212 
-4.8315 -1.934 -3.135 -4.088 0 -4.8345 0 -5.3085 0 -4.8675 -5.084 0 -4.314 -5.5035 0 -5.4175 
-6.3455 -4.4015 -6.0015 -4.088 -4.8345 -4.8345 -5.3085 -5.3085 -4.8675 -6.2765 -5.084 -4.314 -9.859 -5.5035 -5.4175 
-7.8515 -6.272 -6.0015 -10.0225 -4.8345 -7.5365 -5.3085 -8.594 -6.2765 -6.2765 -10.089 -9.859 -9.859 -9.213501 
-9.93 -6.272 -12.4124 -10.0225 -7.5365 -7.5365 -8.594 -8.896 -6.2765 -10.368 -15.835 -9.859 -13.638 
-9.93 -12.6193 -12.4124 -12.9093 -7.5365 -9.501501 -8.896 -8.896 -10.368 -16.4302 -15.835 -13.638 
