-4.759 
n/a 
n/a 
n/a 
n/a 
-4.759 
n/a 
n/a 
n/a 
n/a 
-4.759 
n/a 
n/a 
n/a 
n/a 
-4.759 
n/a 
n/a 
n/a 
n/a 
-4.3235 0 -1.4985 -4.1125 -5.072 -3.685 0 -2.7415 -4.3155 -3.222 -3.9665 -1.934 -5.067 
-4.3235 -1.4985 -5.1 -7.5425 -7.5105 -3.685 -2.7415 -5.688 -5.798 -5.515 -5.47 -6.3715 
-5.594 -5.1 -7.839001 -7.715 -7.5105 -5.987 -5.688 -6.8995 -7.372001 -6.5655 -9.7095 
-8.7985 -7.839001 -7.9645 -7.715 -8.9265 -8.604 -6.8995 -8.41 -8.274 -10.426 
-11.6193 -7.9645 -7.9645 -9.0915 -11.9489 -8.999001 -8.41 -9.204 -12.3565 
-4.444 -4.1125 -5.072 -3.685 -3.958 -1.7695 -5.067 0 
-8.703501 -7.5425 -7.5105 -8.8195 -6.0725 -7.501 -5.067 
-12.2539 -7.715 -13.1054 -10.7495 -12.3652 -7.501 
-12.4264 -13.4495 -15.0354 -17.0422 -12.3652 
-18.1609 -15.3795 -21.3281 -17.0422 
-4.3625 -1.934 -5.067 -4.1125 -5.072 -3.685 -4.0555 -1.934 -1.7695 -3.9665 
-6.5275 -6.3715 -9.549001 -7.5425 -7.5105 -7.246 -5.263 -4.0395 -5.353 
-11.691 -11.2495 -10.3305 -7.715 -10.4945 -8.732 -6.6225 -7.975 
-16.569 -12.031 -10.3735 -10.8386 -11.7925 -9.532001 -8.710501 
-17.3505 -12.074 -13.4971 -12.1366 -12.5925 -9.6955 
-4.3235 0 -9.1075 -5.072 -3.685 0 -4.0555 -3.222 -3.685 -1.934 -5.067 0 
-4.3235 -9.1075 -14.3857 -7.5105 -3.685 -4.0555 -5.5095 -7.7435 -5.3835 -6.3715 -5.067 
-14.5798 -14.3857 -16.8242 -7.5105 -7.246 -5.5095 -10.1995 -9.8585 -9.599001 -6.3715 
-19.858 -16.8242 -16.8242 -10.4945 -7.347 -10.1995 -12.3145 -14.054 -9.599001 
-22.2965 -16.8242 -19.8082 -10.6625 -13.8198 -12.3145 -16.51 -14.054 
