-4.759 
n/a 
n/a 
n/a 
n/a 
-4.759 
n/a 
n/a 
n/a 
n/a 
-4.759 
n/a 
n/a 
n/a 
n/a 
-4.759 
n/a 
n/a 
n/a 
n/a 
-3.9075 -6.911 -1.756 -3.9075 -7.0245 -2.4945 -3.1435 -5.9415 0 
-7.985001 -8.2535 -6.133 -8.895 -10.0315 -6.248 -6.7185 -5.9415 
-9.001501 -13.0415 -10.4945 -12.127 -13.785 -10.0445 -6.7185 
-13.9655 -17.403 -13.7265 -15.8805 -17.5815 -10.0445 
-18.327 -20.635 -17.48 -19.677 -17.5815 
-6.911 -1.756 -7.0245 -2.4945 -1.4985 -6.4335 -3.9075 -2.229 -5.9415 0 
-8.2535 -8.9165 -10.0315 -3.9315 -6.8105 -7.311501 -6.1 -8.007 -5.9415 
-15.825 -10.647 -11.4685 -9.588 -7.576 -10.1035 -8.786 -8.007 
-17.5555 -12.084 -17.125 -10.545 -10.1505 -12.7895 -8.786 
-18.9925 -17.7405 -18.082 -13.6703 -12.8365 -12.7895 
-6.911 -1.756 -7.0245 -4.7995 -2.4945 -4.7695 -1.4985 -6.462 -1.934 -1.4985 -4.9625 
-8.2535 -8.9165 -9.737 -6.781001 -6.438001 -5.385 -7.4185 -8.353001 -2.6125 -6.024 
-15.825 -10.038 -10.72 -11.1649 -7.119501 -10.586 -8.931 -8.984501 -7.0695 
-16.9465 -11.021 -15.1039 -11.8464 -12.6433 -12.0985 -9.578 -13.5943 
-17.9295 -15.4049 -15.7854 -17.3702 -14.1558 -12.7455 -14.1878 
-6.911 0 -7.072001 -2.4945 -8.3765 -3.9075 -3.7405 -4.7995 0 
-6.911 -7.072001 -10.389 -12.2992 -11.1355 -8.3465 -9.190001 -4.7995 
-14.7596 -10.389 -20.1937 -15.0582 -15.5745 -10.7025 -9.190001 
-18.0766 -20.1937 -22.9527 -19.4972 -17.9305 -10.7025 
-27.8813 -22.9527 -27.3917 -21.8532 -17.9305 
