-4.759 
n/a 
n/a 
n/a 
n/a 
-4.759 
n/a 
n/a 
n/a 
n/a 
-4.759 
n/a 
n/a 
n/a 
n/a 
-4.759 
n/a 
n/a 
n/a 
n/a 
-4.303 -2.664 -3.699 -3.355 -1.934 -5.0345 -9.4975 0 -9.4975 0 -3.8275 
-6.0405 -4.654 -5.462 -4.8475 -6.337 -15.2022 -9.4975 -9.4975 -9.4975 -3.8275 
-6.331 -5.638 -6.505 -10.2865 -16.8889 -15.2022 -19.1586 -9.4975 -13.4886 
-7.1075 -6.584 -12.2444 -20.8384 -16.8889 -24.8633 -19.1586 -13.4886 
-7.1755 -12.3452 -22.7963 -20.8384 -26.55 -24.8633 -23.1497 
-1.934 -5.0345 -3.091 -4.401 -1.934 -9.4975 -3.8275 -2.186 -3.383 -3.699 0 
-6.337 -8.0705 -6.7255 -4.898 -10.5535 -13.4886 -5.669 -4.438 -5.014 -3.699 
-8.623501 -12.0628 -6.885 -14.2959 -14.5446 -15.3301 -8.158 -5.451 -5.014 
-12.7348 -12.2223 -16.7075 -18.287 -16.3861 -17.8191 -9.7075 -5.451 
-12.8943 -22.0448 -20.6986 -20.1285 -18.8751 -19.3686 -9.7075 
-2.9805 -4.4605 -1.4985 -3.535 -3.9825 -1.934 -6.759 -4.319 -1.934 -5.0345 
-6.009501 -5.7325 -4.255 -6.876 -4.624 -8.148001 -11.046 -6.011 -6.337 
-6.9635 -8.113001 -7.2465 -7.6175 -11.5584 -12.7562 -12.738 -10.2135 
-9.5395 -8.5425 -8.0495 -14.7833 -16.1666 -14.4482 -16.9405 
-10.5045 -8.841001 -15.3191 -19.3915 -17.8586 -18.6507 
-2.9805 -5.227 -3.699 -3.9825 -1.934 -9.4975 -3.8275 -2.5045 -5.0345 0 
-6.5845 -10.155 -5.406 -4.624 -10.5535 -13.4886 -6.343 -8.678 -5.0345 
-11.8105 -12.0396 -5.6055 -13.9639 -14.5446 -16.0041 -13.2017 -8.678 
-13.6951 -12.2391 -15.2624 -17.955 -17.0601 -22.8628 -13.2017 
-13.8946 -21.896 -19.2535 -20.4705 -23.9188 -22.8628 
