-4.759 
n/a 
n/a 
n/a 
n/a 
-4.759 
n/a 
n/a 
n/a 
n/a 
-4.759 
n/a 
n/a 
n/a 
n/a 
-4.759 
n/a 
n/a 
n/a 
n/a 
-1.934 -7.5565 0 -4.347 -5.0985 -3.0835 -4.3705 -4.388 -2.4945 -3.9535 
-9.052001 -7.5565 -4.347 -8.2405 -8.6975 -6.915 -9.41 -6.3455 -6.6715 
-9.052001 -12.6739 -8.2405 -12.1121 -12.9864 -12.4821 -11.4315 -11.3837 
-14.2486 -16.5674 -12.1121 -16.401 -18.5535 -14.5036 -16.4697 
-18.1421 -20.439 -16.401 -21.9681 -20.575 -19.5418 
-1.4985 -4.3705 -4.58 -1.934 -4.1225 -3.994 -3.9535 -3.436 -5.0985 -3.277 0 
-5.6335 -7.305 -6.026 -5.261 -6.781501 -8.649501 -6.7875 -9.690001 -8.034 -3.277 
-8.4385 -7.9825 -8.656 -7.678 -12.1294 -10.7575 -13.3777 -12.9659 -8.034 
-9.7985 -10.9315 -11.2554 -13.1779 -14.2374 -17.3477 -16.6536 -12.9659 
-12.8387 -13.5309 -16.7553 -15.2859 -20.8276 -20.6236 -16.6536 
-1.4985 -3.0835 -4.3705 -5.25 -1.7565 -3.502 -3.994 -2.7415 -3.9535 -2.5045 -2.7455 -5.0985 -3.277 -3.251 0 
-3.535 -6.915 -7.7695 -6.779 -4.9855 -5.394 -7.097 -5.83 -5.6505 -5.2465 -7.8045 -8.034 -5.885 -3.251 
-7.121 -8.856001 -9.2825 -9.432001 -6.742001 -8.357 -10.0545 -7.4545 -7.752 -9.196501 -9.175 -10.733 -5.885 
-8.943001 -10.389 -12.0189 -11.2211 -9.359 -11.3923 -11.7316 -9.4855 -12.2208 -10.795 -12.214 -10.733 
-10.4035 -13.1254 -13.808 -13.8381 -12.4321 -13.0694 -13.7626 -14.1645 -13.8193 -13.834 -12.214 
-3.436 -5.0985 -3.277 -3.0835 -4.9225 -2.4945 -3.8245 -1.934 -7.496 0 
-9.690001 -8.034 -6.7795 -6.415 -6.9525 -5.751 -4.7245 -6.7075 -5.394 
-12.9659 -11.9523 -10.572 -9.4505 -9.3655 -6.158 -8.6695 -6.254001 
-16.8842 -15.7448 -13.6075 -11.8627 -9.7565 -11.0845 -9.1095 
-20.6767 -18.7803 -16.0197 -12.2537 -14.874 -11.2433 
