-4.759 
n/a 
n/a 
n/a 
n/a 
-4.759 
n/a 
n/a 
n/a 
n/a 
-4.759 
n/a 
n/a 
n/a 
n/a 
-4.759 
n/a 
n/a 
n/a 
n/a 
-5.7715 0 -4.2215 0 -3.506 -3.143 0 -4.2005 0 -4.6655 -3.098 0 -4.331 -5.7715 0 -5.1845 -3.7955 -4.681 
-5.7715 -4.2215 -4.2215 -3.506 -5.4755 -3.143 -4.2005 -4.2005 -4.6655 -8.659 -3.098 -4.331 -9.167001 -5.7715 -5.1845 -6.83 -6.7205 
-10.3285 -4.2215 -6.439001 -5.4755 -5.4755 -6.7045 -4.2005 -9.082001 -8.659 -8.659 -7.19 -9.167001 -9.167001 -9.328501 -6.83 -9.486 
-10.3285 -6.439001 -7.9385 -5.4755 -8.238501 -6.7045 -9.082001 -13.2909 -8.659 -12.9682 -10.7175 -9.167001 -12.8982 -10.427 -9.486 
-12.546 -7.9385 -7.9385 -8.238501 -8.238501 -11.6976 -13.2909 -13.2909 -12.9682 -16.4957 -10.7175 -12.8982 -13.9967 -13.083 
-5.7715 0 -7.727501 -7.3435 0 -3.399 -3.098 0 -4.331 -5.7715 0 -2.9805 -2.186 -1.8085 -5.1845 -3.8195 -4.681 0 
-5.7715 -6.439001 -11.97 -6.7045 -3.399 -5.2825 -3.098 -4.331 -9.167001 -5.7715 -2.9805 -4.1635 -3.164 -7.2815 -6.896501 -7.058001 -4.681 
-12.546 -10.7015 -10.7015 -10.9441 -5.2825 -5.2825 -7.19 -9.167001 -9.167001 -9.137 -4.1635 -5.078001 -8.269 -8.5255 -9.256001 -7.058001 
-17.2645 -11.1575 -15.6393 -13.2501 -5.2825 -8.799001 -10.7175 -9.167001 -12.7067 -9.736 -5.078001 -9.847501 -9.1755 -9.832001 -9.256001 
-17.2645 -15.6393 -17.9453 -13.2501 -8.799001 -12.4607 -10.7175 -12.7067 -13.3057 -10.2955 -9.847501 -10.8092 -9.936 -9.832001 
-5.7715 0 -4.2215 -2.264 -3.5315 -7.3435 0 -3.8235 -3.098 -4.331 -5.7715 0 -5.1845 -7.0495 -4.681 0 
-5.7715 -4.2215 -5.4545 -4.8735 -9.065001 -6.7045 -3.8235 -6.497 -7.19 -9.167001 -5.7715 -5.1845 -10.2645 -10.9575 -4.681 
-10.3285 -5.4545 -7.078001 -9.192501 -8.242001 -10.0445 -6.497 -9.883 -10.7175 -9.167001 -9.328501 -10.2645 -14.5211 -10.9575 
-11.5615 -7.078001 -11.188 -9.083501 -11.8582 -14.0104 -9.883 -13.5697 -10.7175 -12.8982 -14.6355 -14.5211 -14.5211 
-13.185 -10.0065 -10.0065 -12.8527 -15.8241 -17.3964 -13.5697 -13.5697 -14.4487 -18.2052 -18.8921 -14.5211 
-5.7715 -4.2215 -3.506 -3.143 0 -4.2005 0 -2.9805 -2.229 -4.2215 -3.098 -1.7565 -4.331 -5.7715 0 -2.9805 -2.186 -2.871 -1.4985 -5.1845 -3.8195 -4.681 0 
-10.3285 -6.439001 -5.4755 -3.143 -4.2005 -4.2005 -2.9805 -4.2145 -6.4955 -8.557501 -4.3615 -6.021 -9.167001 -5.7715 -2.9805 -4.1635 -4.247 -5.1 -6.5205 -6.896501 -7.058001 -4.681 
-12.546 -7.9385 -5.4755 -6.7045 -4.2005 -6.58 -4.2145 -8.099001 -10.382 -9.552001 -8.2205 -11.2986 -9.167001 -9.137 -4.1635 -6.139501 -6.6575 -10.4035 -8.364 -9.256001 -7.058001 
-14.0455 -7.9385 -8.238501 -6.7045 -6.58 -8.5365 -8.099001 -12.4821 -11.3765 -13.3994 -13.5331 -11.2986 -12.7067 -9.736 -6.139501 -8.450001 -12.3804 -12.247 -10.76 -9.256001 
-14.0455 -11.1575 -8.238501 -9.728001 -8.5365 -12.822 -12.4821 -13.4766 -15.2239 -18.712 -13.5331 -14.8383 -13.3057 -12.1116 -8.450001 -14.3847 -14.2239 -14.643 -10.76 
