-4.759 
n/a 
n/a 
n/a 
n/a 
-4.759 
n/a 
n/a 
n/a 
n/a 
-4.759 
n/a 
n/a 
n/a 
n/a 
-4.759 
n/a 
n/a 
n/a 
n/a 
-3.697 0 -1.7565 -4.348 -3.1385 -4.3895 -5.4685 -1.756 -6.4465 
-3.697 -1.7565 -5.8355 -8.161 -7.4595 -9.790001 -6.5835 -7.6265 
-6.085 -5.8355 -9.3465 -12.7794 -12.962 -10.736 -8.104 
-10.564 -9.3465 -14.2205 -18.2819 -13.908 -12.2565 
-14.075 -14.2205 -19.723 -19.2279 -15.4285 
-3.697 0 -1.7565 -1.4985 -4.348 -3.1385 -3.8185 -5.4685 -1.756 -12.16972 
-3.697 -1.7565 -2.4195 -6.117001 -8.161 -6.885 -9.034 -6.5835 -14.93432 
-6.085 -2.4195 -6.941501 -9.4615 -12.2049 -10.3475 -9.863501 -20.58122 
-6.6155 -6.941501 -10.1185 -13.6068 -15.6674 -11.177 -23.92082 
-11.6963 -10.1185 -14.2828 -17.0693 -16.4969 -25.23432 
-3.697 0 -4.348 -4.9225 -2.4945 -4.3895 -10.35 -1.756 -12.16972 
-3.697 -4.348 -10.1 -6.9525 -6.08 -15.9349 -12.106 -14.93432 
-8.448501 -10.1 -12.3578 -10.856 -17.8482 -17.6909 -25.28432 
-14.5013 -12.3578 -16.2613 -22.6242 -19.6042 -30.86922 
-16.7591 -16.2613 -28.0295 -24.3802 -32.78252 
-3.697 0 -1.7565 -1.4985 -6.598001 -2.4945 -3.4635 -5.4685 -1.756 -6.4465 0 
-3.697 -1.7565 -2.4195 -8.2945 -7.555 -6.1285 -9.484 -6.5835 -7.6265 -6.4465 
-6.085 -2.4195 -9.2735 -9.448501 -11.7174 -12.8414 -10.505 -8.104 -7.6265 
-6.6155 -9.2735 -10.565 -13.6673 -18.4303 -13.8624 -12.0255 -8.104 
-14.0283 -10.565 -14.7838 -20.3802 -19.4513 -15.3829 -12.0255 
