-4.759 
n/a 
n/a 
n/a 
n/a 
-4.759 
n/a 
n/a 
n/a 
n/a 
-4.759 
n/a 
n/a 
n/a 
n/a 
-4.759 
n/a 
n/a 
n/a 
n/a 
-4.7625 -1.934 -2.5685 -2.8965 -4.09 -3.959 0 -3.189 -3.456 -4.0065 -1.934 -1.4985 -3.4225 -3.468 -2.186 -2.6165 -4.3925 0 
-6.4175 -4.244 -4.555 -6.7545 -5.684 -3.959 -3.189 -4.0715 -6.2045 -5.741 -2.6125 -3.9655 -3.628 -5.589 -3.5105 -6.903 -4.3925 
-9.1295 -5.929 -8.481 -7.018001 -5.684 -7.003 -4.0715 -6.2735 -7.749001 -6.303 -4.464 -4.053 -5.694 -6.8865 -7.297 -6.903 
-9.649501 -9.3885 -8.701 -7.018001 -9.146 -8.246 -6.2735 -7.801001 -8.3465 -7.653501 -4.5095 -5.7135 -6.9805 -10.051 -7.297 
-10.231 -9.5135 -8.701 -9.7735 -9.639 -10.1265 -7.801001 -8.3975 -8.968 -7.665501 -6.3135 -6.9935 -10.0815 -10.051 
-4.7625 -2.8965 -4.09 -3.959 0 -3.676 -3.237 -3.189 -3.441 -2.186 -2.6165 -6.442 0 
-5.9215 -6.7545 -5.684 -3.959 -3.676 -7.437 -4.615 -6.7105 -5.6035 -3.5105 -9.329 -6.442 
-9.412001 -7.018001 -5.684 -7.3555 -7.437 -8.705 -7.692 -8.933001 -6.798501 -9.878501 -9.329 
-9.688001 -7.018001 -9.9175 -12.2601 -8.705 -12.219 -9.863001 -10.375 -13.7279 -9.878501 
-9.688001 -10.485 -14.8911 -13.5281 -12.219 -14.39 -11.5038 -17.3044 -13.7279 
-4.7625 -2.8965 -4.09 -3.959 0 -3.4975 -3.72 -4.2715 -2.4945 -4.5045 -6.9535 -1.756 -7.824501 -4.1865 0 
-5.9215 -6.7545 -5.684 -3.959 -3.4975 -7.1075 -6.318501 -5.7375 -5.596 -12.8144 -9.0965 -10.3535 -13.435 -4.1865 
-9.412001 -7.018001 -5.684 -7.424 -7.1075 -10.878 -7.635 -9.001 -14.4975 -14.9574 -17.2984 -15.1461 -13.5666 
-9.688001 -7.018001 -9.249001 -11.8476 -10.878 -12.1945 -11.2827 -18.0337 -16.6405 -23.1593 -22.546 -15.1461 
-9.688001 -10.1895 -13.7926 -15.6181 -12.1945 -15.8422 -20.3154 -20.1767 -24.8424 -28.4069 -22.546 
-3.883 -3.6485 -3.9535 -1.934 -8.8955 -2.186 -1.4985 -4.4665 -3.6485 -3.9535 -1.934 -3.188 0 -4.6835 0 
-6.3245 -6.131001 -5.616 -10.784 -11.4497 -3.339 -4.729 -7.963 -6.131001 -5.616 -5.387 -3.188 -4.6835 -4.6835 
-9.5625 -7.561501 -14.9332 -13.3382 -12.6027 -5.893 -8.0825 -11.1215 -7.561501 -9.651501 -5.387 -8.8125 -4.6835 
-10.6235 -17.1525 -17.4874 -14.4912 -15.1567 -9.620501 -11.4368 -12.552 -11.8708 -9.651501 -11.8599 -8.8125 
-20.7511 -19.7067 -18.6404 -17.0452 -18.8842 -12.9748 -12.8673 -16.8613 -11.8708 -16.3018 -11.8599 
