-4.759 
n/a 
n/a 
n/a 
n/a 
-4.759 
n/a 
n/a 
n/a 
n/a 
-4.759 
n/a 
n/a 
n/a 
n/a 
-4.759 
n/a 
n/a 
n/a 
n/a 
-1.4985 -4.455 -5.3175 -4.432 -4.328 -1.756 -2.9805 -2.742 -2.489 -1.4985 -4.2245 -1.7565 -3.5435 0 
-5.262 -10.382 -9.4865 -4.899 -5.789 -4.3555 -4.7635 -3.301 -3.9675 -5.2345 -5.277 -4.913 -3.5435 
-10.396 -14.551 -9.784 -6.1825 -8.0035 -5.8865 -5.492001 -4.8715 -6.8075 -5.753 -8.047501 -4.913 
-14.565 -14.8485 -11.1241 -8.496 -9.559501 -6.6465 -6.925 -7.8605 -7.23 -8.4875 -8.047501 
-14.8625 -16.1886 -13.4376 -9.896001 -10.261 -8.1075 -9.179001 -8.2185 -9.741501 -8.4875 
-4.432 -4.328 -4.648 -2.3345 -4.455 -4.425 -3.5435 -3.8385 
-4.899 -7.5035 -5.442 -6.6545 -8.8155 -8.512501 -7.412001 
-7.663 -7.656 -9.1545 -11.4708 -13.0796 -12.985 
-7.72 -12.4227 -14.4664 -15.7349 -17.5521 
-12.8461 -17.7346 -18.7305 -20.2074 
-4.455 -1.934 -3.757 -1.934 -2.3615 -3.5435 -1.934 -3.757 0 
-6.558001 -6.7015 -5.7505 -3.539 -6.0625 -5.3395 -6.7015 -3.757 
-11.8495 -9.820001 -7.658501 -7.578 -7.8365 -10.1425 -6.7015 
-14.968 -11.7966 -12.1041 -9.405001 -12.9271 -10.1425 
-16.9446 -16.2422 -13.9311 -14.6796 -12.9271 
-1.4985 -3.757 -2.186 -1.4985 -4.432 -4.328 -3.0695 -2.186 -4.1205 -2.5045 -4.648 -2.3345 -4.455 
-4.5435 -5.8005 -3.339 -5.268001 -4.899 -6.4845 -4.2675 -5.007 -5.3175 -7.511001 -5.442 -6.6545 
-6.131001 -6.921 -6.747 -5.504 -7.035 -7.3335 -7.086501 -6.317 -10.298 -7.8335 -9.1545 
-7.458 -10.107 -7.657001 -7.446001 -7.859 -9.927501 -8.647501 -10.5855 -10.8915 -11.7912 
-10.6465 -10.3405 -8.823501 -8.2235 -10.485 -11.5467 -13.2322 -11.558 -14.8492 
