-4.759 
n/a 
n/a 
n/a 
n/a 
-4.759 
n/a 
n/a 
n/a 
n/a 
-4.759 
n/a 
n/a 
n/a 
n/a 
-4.759 
n/a 
n/a 
n/a 
n/a 
-2.9805 -4.0385 -3.2495 -3.594 -4.154 -5.1105 -1.756 -3.189 -4.5385 -2.3345 -1.4985 -3.2495 -3.9655 -3.6825 -3.499 0 
-5.479 -6.9005 -6.1265 -7.9635 -9.842001 -6.172501 -4.6945 -8.455 -5.509 -3.233 -4.1915 -7.1585 -5.6945 -6.273 -3.499 
-7.795001 -7.918001 -9.729 -13.6939 -10.763 -9.356001 -10.0005 -9.632 -5.872 -6.112 -7.734 -9.403 -8.296 -6.273 
-8.510501 -11.9055 -15.6422 -14.6149 -13.9465 -15.0524 -11.2591 -10.1365 -9.117001 -9.276501 -9.880001 -12.1549 -8.296 
-12.633 -17.8187 -16.5632 -17.7984 -19.6429 -16.311 -11.7636 -13.4973 -12.4081 -11.6003 -12.6371 -12.1549 
-3.882 -3.84 -3.881 -2.3345 -3.595 -2.264 -5.7375 -1.756 -3.189 -2.186 -4.1535 -2.489 -3.5155 -3.9655 -3.6825 -3.499 0 
-8.4715 -7.685 -4.5275 -5.597 -5.329 -8.326501 -6.6725 -4.6945 -5.7015 -5.7 -8.1255 -5.837 -6.83 -5.6945 -6.273 -3.499 
-12.6003 -8.150001 -7.4505 -7.287 -12.1577 -8.993501 -8.712501 -7.287001 -9.562 -9.186501 -11.8717 -9.2805 -9.422 -8.296 -6.273 
-13.0653 -11.3744 -9.028001 -14.4871 -12.8247 -11.1843 -11.815 -11.3199 -13.4371 -13.1343 -15.3152 -12.0103 -12.2765 -8.296 
-16.2897 -12.9519 -16.2835 -15.1541 -15.0155 -14.2868 -15.8479 -15.195 -17.3849 -16.5778 -18.045 -14.8648 -12.2765 
-1.4985 -3.2495 -3.9655 -3.499 -1.7695 -4.3465 -1.4985 -4.3315 -2.0935 -3.091 -3.2495 -3.84 
-4.1915 -7.1585 -8.346001 -5.1815 -7.771501 -5.372001 -5.382501 -5.666 -4.5345 -5.8345 -6.8745 
-7.734 -10.6465 -10.134 -12.1017 -8.8715 -8.888 -7.4195 -8.035501 -7.351501 -9.311001 
-11.6058 -12.4345 -17.1502 -13.2017 -12.4849 -9.420501 -10.0505 -11.1243 -10.9786 
-13.3938 -19.4507 -18.2502 -16.8151 -13.0174 -12.1511 -13.1393 -14.7514 
-1.934 -2.3615 -3.0365 -2.7415 -9.643001 -1.756 -2.9805 -4.7225 -4.613 -2.0935 -2.3615 -4.031 -1.4985 -3.2495 -3.5435 -3.1385 -3.152 -4.168 
-3.539 -5.891 -4.2225 -13.7503 -10.7175 -4.3555 -6.125501 -6.9255 -6.788001 -3.854 -5.4055 -5.469 -4.1915 -7.184 -7.046 -5.219 -6.576 
-7.5045 -7.0295 -16.1847 -14.8248 -13.317 -7.162001 -7.804501 -9.231001 -9.088501 -5.425 -6.2395 -8.063001 -7.873 -10.7025 -9.0845 -8.869 
-8.488501 -19.1777 -17.2592 -17.4243 -16.1235 -9.59 -10.081 -11.7055 -9.819001 -6.247 -8.808001 -11.8983 -11.6779 -12.741 -12.7763 
-20.7277 -20.2522 -19.8587 -20.2308 -18.5515 -11.9339 -12.6169 -12.436 -10.7476 -8.8205 -12.7351 -15.7032 -13.7164 -16.4328 
