-4.759 
n/a 
n/a 
n/a 
n/a 
-4.759 
n/a 
n/a 
n/a 
n/a 
-4.759 
n/a 
n/a 
n/a 
n/a 
-4.759 
n/a 
n/a 
n/a 
n/a 
-5.1475 -3.6515 -1.7695 -3.8275 
-9.693001 -3.9135 -5.686 
-9.778 -6.673 
-13.5583 
n/a 
-4.672 -3.5385 -1.934 -3.8275 
-6.813001 -4.9765 -5.911 
-7.725 -7.83 
-10.8731 
n/a 
-1.7695 -5.886 -1.4985 -3.535 -4.236 -1.934 -1.4985 -3.8275 
-6.1695 -6.568 -4.8385 -7.2875 -5.959 -2.6125 -4.726 
-6.827 -10.4345 -8.345501 -8.657001 -6.5505 -5.815001 
-10.749 -13.9415 -9.615001 -9.111501 -9.527 
-14.256 -15.211 -9.819 -12.3484 
-4.672 -3.5385 -1.934 -3.8275 
-6.813001 -4.9765 -5.911 
-7.725 -7.83 
-10.8731 
n/a 
