-4.759 
n/a 
n/a 
n/a 
n/a 
-4.759 
n/a 
n/a 
n/a 
n/a 
-4.759 
n/a 
n/a 
n/a 
n/a 
-4.759 
n/a 
n/a 
n/a 
n/a 
-4.393 0 -8.6675 0 -5.7865 0 
-4.393 -8.6675 -8.6675 -5.7865 -5.7865 
-13.4285 -8.6675 -10.688 -5.7865 
-13.4285 -10.688 -10.688 
-15.449 -10.688 
-16.56272 0 -8.854 0 
-16.93072 -8.854 -8.854 
-25.78472 -8.854 
-25.78472 
n/a 
-4.393 0 -12.16972 0 -5.7865 0 
-4.393 -12.16972 -12.16972 -5.7865 -5.7865 
-16.93072 -12.16972 -17.95622 -5.7865 
-16.93072 -17.95622 -17.95622 
-22.71722 -17.95622 
-4.393 0 -12.16972 0 -9.8175 0 
-4.393 -12.16972 -12.16972 -9.8175 -9.8175 
-16.93072 -12.16972 -21.98722 -9.8175 
-16.93072 -21.98722 -21.98722 
-26.74822 -21.98722 
