-4.759 
n/a 
n/a 
n/a 
n/a 
-4.759 
n/a 
n/a 
n/a 
n/a 
-4.759 
n/a 
n/a 
n/a 
n/a 
-4.759 
n/a 
n/a 
n/a 
n/a 
-3.402 -2.264 -1.4985 -5.2125 -2.925 -2.4945 -2.6165 -4.465 
-3.793 -2.9195 -6.250501 -7.941 -3.7675 -3.8065 -6.259501 
-4.34 -7.484001 -8.8065 -8.5705 -4.933 -7.035 
-10.467 -9.831501 -9.488001 -9.9585 -8.479 
-12.8145 -10.313 -10.9988 -13.6901 
-4.184 -4.304 -1.4985 -3.7095 -2.0935 -3.9355 -2.4265 -2.8645 -2.847 -4.8075 -1.756 -2.847 -4.9595 
-9.345501 -5.5 -5.5515 -5.427 -6.0125 -5.9535 -4.1435 -4.6285 -6.8935 -6.607501 -4.6065 -8.0455 
-10.7185 -8.8345 -7.668 -9.557501 -8.274 -7.6445 -5.843 -8.4915 -8.947001 -8.734501 -9.7355 
-14.053 -10.419 -12.3077 -12.0874 -9.9835 -9.056001 -9.682501 -10.057 -10.1305 -14.2881 
-15.6375 -15.0587 -14.8376 -13.7969 -11.4446 -12.9847 -11.3006 -11.2405 -15.6841 
-3.1495 -3.9355 -4.267 -5.1405 -1.756 -3.013 -5.651501 -2.9995 -3.89 -4.996 0 
-5.3835 -8.707001 -9.883 -6.186 -4.674 -8.529501 -7.8655 -6.01 -10.523 -4.996 
-11.03 -14.5092 -10.2525 -9.604 -9.9875 -11.5485 -11.576 -13.0526 -10.523 
-16.8322 -14.8787 -14.0591 -14.4154 -13.5574 -14.7965 -18.9604 -13.0526 
-17.2017 -18.6853 -18.8705 -18.5518 -16.689 -22.0973 -18.9604 
-3.1495 -3.9355 -1.7695 -4.267 -3.013 -5.651501 -2.9995 -4.996 0 
-5.3835 -5.513 -6.4535 -8.3955 -8.529501 -7.8655 -8.660501 -4.996 
-7.227 -10.586 -10.6465 -13.608 -11.5485 -14.4964 -8.660501 
-12.5536 -15.4856 -16.6546 -17.6304 -17.7169 -14.58 
-17.4532 -21.4937 -20.677 -23.5684 -17.7169 
