-4.759 
n/a 
n/a 
n/a 
n/a 
-4.759 
n/a 
n/a 
n/a 
n/a 
-4.759 
n/a 
n/a 
n/a 
n/a 
-4.759 
n/a 
n/a 
n/a 
n/a 
-9.4525 -2.4945 -7.6395 -1.934 -2.5685 -6.341 -4.7615 -4.088 
-12.1356 -9.032001 -8.061 -4.244 -9.467501 -9.458 -7.913501 
-18.6731 -9.283501 -10.2865 -10.66 -12.7975 -12.6604 
-18.9246 -11.5854 -16.7025 -13.99 -15.9999 
-21.2265 -18.0014 -20.0325 -17.1924 
-6.341 -5.585 -2.4945 -6.2275 -2.3345 -8.943501 
-9.0455 -7.321 -7.887001 -7.278 -11.6086 
-10.718 -13.0313 -8.697001 -17.2003 
-16.4283 -13.8413 -18.6975 
-17.2383 -23.8418 
-3.3155 -1.756 -2.5685 -3.1385 -4.7615 -4.3055 -5.923 -2.925 -2.5685 -2.4945 -7.961 
-5.658 -4.2335 -5.4325 -7.607501 -8.158001 -7.0665 -9.06 -5.194 -5.3665 -9.8205 
-8.677501 -7.146 -9.303 -10.075 -9.030001 -9.7045 -11.4168 -6.773 -12.8825 
-11.9648 -10.7175 -12.0293 -11.1074 -11.988 -12.1691 -12.9958 -14.4008 
-15.5363 -13.4438 -13.0617 -14.0654 -14.4526 -13.7481 -20.6236 
-3.3155 -2.186 -6.648 -5.4435 -1.934 -2.3335 -3.5015 -4.744 -12.16972 -8.585501 
-5.035 -9.878501 -12.8837 -6.969 -4.359 -5.909 -9.414001 -18.08632 -20.75522 
-13.2677 -16.1142 -14.4092 -9.4985 -6.7955 -12.2369 -22.71632 -26.67182 
-19.5034 -17.6397 -16.9387 -10.719 -13.3804 -25.53922 -31.30182 
-21.0289 -20.1692 -18.1592 -17.3039 -26.68272 -34.12472 
