-4.759 
n/a 
n/a 
n/a 
n/a 
-4.759 
n/a 
n/a 
n/a 
n/a 
-4.759 
n/a 
n/a 
n/a 
n/a 
-4.759 
n/a 
n/a 
n/a 
n/a 
-3.8275 -4.4825 -4.7175 -3.458 -3.2495 -5.3105 -3.849 -5.0265 -4.39 0 -4.764 -4.39 0 
-8.253 -8.614 -7.595 -5.1565 -8.325 -9.703501 -8.7735 -7.493 -4.39 -4.764 -8.386001 -4.39 
-12.4511 -12.1607 -9.545501 -9.838 -12.9828 -14.64 -10.7575 -7.493 -9.668001 -8.386001 -8.386001 
-15.9978 -14.1112 -14.227 -14.4958 -17.9193 -16.624 -10.7575 -13.1766 -13.7468 -8.386001 
-17.9483 -18.7927 -18.8848 -19.4323 -19.9033 -16.624 -16.4411 -17.2554 -13.7468 
-3.8175 -3.8275 -2.7415 -4.4825 -3.458 -5.282 -3.959 -1.756 -5.148 -3.959 0 
-7.2445 -5.9615 -8.028501 -6.9895 -9.102 -9.1775 -5.173 -6.4275 -7.1695 -3.959 
-9.328501 -11.8051 -10.523 -13.0629 -13.5539 -10.5985 -8.903501 -8.6085 -7.1695 
-15.3671 -14.2996 -16.5964 -17.5148 -14.9749 -14.329 -10.3105 -8.6085 
-17.8616 -20.373 -21.0483 -18.9358 -18.7054 -15.736 -10.3105 
-3.8275 -2.7415 -4.005 -3.458 -3.7745 -4.6195 -1.756 -4.2645 -1.7565 -4.043 -5.1705 -3.959 
-5.9615 -5.236 -6.658 -6.936 -7.3645 -5.6905 -6.777 -5.805 -5.682 -10.127 -7.965 
-8.5965 -7.6415 -10.586 -10.647 -8.644 -11.5999 -8.362 -10.7217 -12.192 -12.9215 
-10.553 -11.6179 -14.297 -11.9265 -14.8546 -13.1849 -13.6087 -17.2317 -14.9865 
-14.7782 -15.3289 -15.5765 -18.1371 -16.4396 -18.4316 -20.1187 -20.0262 
-3.8275 -3.458 -3.699 -4.39 -1.756 -3.307 -4.39 
-6.105 -7.91 -8.576 -5.675 -5.912 -9.526501 
-11.2596 -13.0886 -9.876 -10.832 -12.8949 
-16.4382 -14.3886 -15.033 -17.8149 
-17.7382 -19.5456 -22.0159 
