-4.759 
n/a 
n/a 
n/a 
n/a 
-4.759 
n/a 
n/a 
n/a 
n/a 
-4.759 
n/a 
n/a 
n/a 
n/a 
-4.759 
n/a 
n/a 
n/a 
n/a 
-2.9805 -3.43 -6.5675 -2.0935 -1.4985 -3.4635 -2.8965 -3.6885 -3.8195 
-5.2875 -10.254 -8.528501 -2.9725 -3.6265 -6.5605 -6.119 -6.808001 
-12.6349 -12.3414 -9.4045 -4.8735 -6.6125 -10.6958 -10.459 
-14.7223 -13.2174 -11.5797 -8.9305 -11.178 -15.0358 
-15.5983 -15.3926 -15.6367 -13.7906 -15.518 
-3.321 -1.4985 -2.8965 -3.1715 -4.3225 -2.674 -3.3195 
-4.481 -3.928 -5.64 -8.998001 -6.6285 -6.816 
-6.48 -6.834001 -12.1783 -11.4854 -9.534 
-9.696 -13.8633 -14.6657 -14.3909 
-17.1271 -16.3507 -17.5712 
-2.9805 -4.96 -3.3195 -1.7695 -1.4985 -3.4635 -2.8965 -3.6885 -4.3225 0 
-6.9405 -7.348 -5.492001 -2.7955 -3.6265 -6.5605 -6.119 -6.822001 -4.3225 
-8.514501 -8.8875 -6.474 -4.96 -6.6125 -10.6958 -8.809 -6.822001 
-9.908001 -9.809 -9.885501 -8.689 -11.178 -13.3858 -8.809 
-10.9553 -13.3879 -13.6931 -13.5185 -13.868 -13.3858 
-3.6845 -3.7805 -3.074 -2.9805 -4.522 -1.4985 -3.3195 
-8.641001 -7.344501 -6.274 -6.587501 -5.9715 -4.7185 
-12.4712 -9.938001 -9.880501 -7.135 -8.547501 
-15.0647 -13.5739 -10.5785 -9.52 
-18.7006 -14.2719 -12.9635 
