-4.759 
n/a 
n/a 
n/a 
n/a 
-4.759 
n/a 
n/a 
n/a 
n/a 
-4.759 
n/a 
n/a 
n/a 
n/a 
-4.759 
n/a 
n/a 
n/a 
n/a 
-1.934 -1.4985 -4.193 -1.7565 -3.8275 0 -4.176 -5.228 -3.251 -2.645 -4.377 -1.756 -4.49 -4.335 -2.356 -3.277 0 
-2.6125 -4.594501 -4.7225 -4.8265 -3.8275 -4.176 -7.587 -7.468 -5.580501 -5.5605 -5.533501 -5.73 -9.1285 -6.149 -4.76 -3.277 
-5.558001 -4.7895 -8.56 -4.8265 -7.634501 -7.587 -9.514501 -10.443 -8.7675 -6.625501 -8.985001 -10.071 -11.1521 -8.656 -4.76 
-6.0865 -8.715501 -8.56 -8.771501 -11.4185 -9.514501 -12.5769 -13.63 -10.361 -9.992001 -13.4492 -12.0946 -13.6591 -8.656 
-10.122 -8.715501 -12.7088 -12.6947 -13.346 -12.5769 -15.7639 -15.2235 -13.7275 -14.566 -15.4728 -14.6016 -13.6591 
-4.129 -1.7565 -3.8275 0 -4.176 -3.5435 0 -3.3715 -3.319 -1.7565 -3.188 -3.135 -3.9035 -1.7565 -4.335 0 
-6.9015 -4.8265 -3.8275 -4.176 -6.47 -3.5435 -3.3715 -7.602501 -4.165 -5.13 -6.5825 -5.793 -4.616 -6.4465 -4.335 
-10.586 -4.8265 -7.634501 -6.47 -6.47 -7.266 -7.602501 -7.992501 -8.050501 -9.419001 -9.3795 -5.955501 -9.360001 -6.4465 
-10.586 -8.771501 -9.7915 -6.47 -10.199 -11.8524 -7.992501 -12.0576 -12.7035 -12.4952 -9.5185 -11.1071 -9.360001 
-14.531 -11.0677 -9.7915 -10.199 -14.7854 -12.2424 -12.0576 -16.7106 -15.7797 -12.6342 -14.7389 -11.1071 
-1.934 -1.4985 -3.8275 -4.193 0 -7.728 -4.0965 0 -4.4165 -4.377 -3.8275 -4.4605 -3.6215 -1.4985 -3.188 
-2.6125 -4.726 -8.098001 -4.193 -7.728 -12.2123 -4.0965 -4.4165 -9.571501 -8.415501 -7.544001 -7.901 -4.094 -3.619 
-5.815001 -8.895 -8.098001 -13.1634 -12.2123 -12.2123 -9.315001 -9.571501 -13.7784 -12.5604 -11.1125 -8.2425 -4.561 
-10.142 -8.895 -17.4316 -17.6477 -12.2123 -17.4308 -14.6944 -13.7784 -17.9233 -16.1289 -11.454 -8.500501 
-10.142 -18.1998 -21.9159 -17.6477 -17.4308 -22.8102 -18.9013 -17.9233 -21.4918 -16.4704 -11.712 
-1.934 -1.4985 -4.193 -1.7565 -3.8275 -4.176 -2.8645 -1.4985 -3.8275 -4.335 -1.7695 -4.299 -4.683 -3.849 -3.355 -1.934 -1.4985 -3.188 
-2.6125 -4.594501 -4.7225 -4.8265 -7.634501 -6.6885 -4.3545 -4.726 -7.645 -5.5565 -5.4975 -9.105501 -9.509001 -7.825 -4.8475 -2.6125 -3.619 
-5.558001 -4.7895 -8.56 -8.771501 -10.52 -9.062 -8.1005 -8.869501 -9.3075 -9.16 -10.8032 -14.1991 -13.5144 -10.66 -5.376 -4.377 
-6.0865 -8.715501 -12.7088 -11.7962 -12.8935 -12.9884 -12.8342 -10.7335 -13.0898 -14.7235 -15.8968 -18.2045 -16.3494 -11.1885 -7.596 
-10.122 -12.8961 -15.7335 -14.1697 -16.8199 -17.7221 -14.6982 -14.5158 -18.6533 -19.8171 -19.9022 -21.0395 -16.8779 -13.4085 
