-4.759 
n/a 
n/a 
n/a 
n/a 
-4.759 
n/a 
n/a 
n/a 
n/a 
-4.759 
n/a 
n/a 
n/a 
n/a 
-4.759 
n/a 
n/a 
n/a 
n/a 
-3.9785 -7.5865 -1.756 -3.502 -8.855 -2.4945 -1.934 -7.31 
-13.0338 -9.210501 -5.1085 -13.8556 -11.8697 -4.2645 -8.950001 
-14.6578 -12.6844 -15.9139 -16.8703 -13.6397 -11.9995 
-18.1317 -23.4898 -18.9286 -18.6403 -21.3747 
-28.9371 -26.5045 -20.6986 -26.3753 
-3.183 -1.8085 -3.628 -4.201 -2.5195 -2.3615 -3.8375 -3.0365 -3.152 -3.2495 -3.8745 -8.519501 -4.7715 0 -3.502 -5.838 -2.9705 -5.677 -1.7695 -4.5065 0 
-4.3575 -4.0945 -7.111001 -5.3735 -4.4095 -6.362 -6.8935 -4.453 -5.765 -7.1485 -13.9024 -13.6688 -4.7715 -3.502 -8.408501 -8.151001 -7.1105 -5.7705 -6.651501 -4.5065 
-5.56 -7.2275 -7.697501 -7.736001 -8.158 -8.485001 -8.124001 -5.9705 -9.540001 -17.8714 -19.0517 -13.6688 -7.849 -8.408501 -10.4425 -12.5186 -7.144501 -10.223 -6.651501 
-9.348001 -7.831 -9.554501 -10.622 -10.3475 -9.915001 -9.609 -9.800501 -20.3883 -23.0207 -19.0517 -16.7463 -9.7755 -10.4425 -14.8101 -12.5526 -11.725 -10.223 
-9.984501 -9.628 -12.6295 -12.8115 -11.8585 -11.406 -13.439 -20.665 -25.5376 -23.0207 -22.1292 -18.6728 -12.7777 -14.8101 -14.8441 -17.1331 -11.725 
-2.925 -4.4015 -1.7695 -4.1305 -3.2495 -3.535 -3.8745 -3.9615 -2.3615 -3.8375 -2.186 -1.7695 -4.5065 
-6.006001 -4.6435 -5.357 -7.949 -6.0985 -6.747 -7.630501 -6.225 -6.362 -5.9065 -3.8745 -6.651501 
-6.168 -7.696001 -8.781501 -11.053 -8.262 -8.9515 -10.523 -9.371 -7.384 -8.1225 -10.0815 
-9.755 -10.0445 -11.9763 -13.2165 -9.9615 -12.0416 -13.669 -10.5674 -9.329 -14.5453 
-12.1511 -13.2393 -14.1398 -14.916 -13.2308 -15.1876 -14.8654 -12.5124 -16.0946 
-1.4985 -2.8965 -3.535 -3.8745 -3.9615 -8.519501 -4.7715 -3.502 -5.838 -2.4945 -5.895 -1.7695 -5.3745 -3.5435 
-3.928 -5.9405 -6.747 -7.630501 -13.2426 -13.6688 -7.849 -8.408501 -8.790501 -9.904 -7.3005 -7.552001 -7.0985 
-7.5985 -8.5185 -8.9515 -17.321 -18.3919 -16.7463 -9.7755 -10.4425 -16.307 -11.3095 -13.6334 -9.3 
-9.574 -10.5425 -18.8396 -22.4703 -21.4694 -18.6728 -12.7777 -17.959 -17.7125 -17.6424 -15.3814 
-11.6986 -20.4306 -23.9889 -25.5478 -23.3959 -21.675 -20.2942 -19.3645 -24.0454 -19.3904 
