-4.759 
n/a 
n/a 
n/a 
n/a 
-4.759 
n/a 
n/a 
n/a 
n/a 
-4.759 
n/a 
n/a 
n/a 
n/a 
-4.759 
n/a 
n/a 
n/a 
n/a 
-10.005 -3.881 -3.091 -3.5205 -5.557 -1.934 -7.844 -2.9705 -2.7415 -3.793 -2.5045 0 -6.797 -9.9545 0 -1.934 -5.1845 -1.756 -2.664 -5.557 0 -1.4985 -3.718 -1.7565 -2.857 -4.7775 -2.356 -4.352 -1.934 -3.6085 0 
-13.9248 -7.231 -4.613 -8.050501 -7.29 -9.967 -11.3967 -4.512 -5.337501 -5.9275 -2.5045 -6.797 -10.533 -9.9545 -1.934 -6.564 -7.2435 -4.3655 -6.5845 -5.557 -1.4985 -4.522 -4.7685 -4.1315 -7.1805 -6.003 -6.79 -5.7215 -4.739 -3.6085 
-17.2748 -8.070001 -8.398001 -9.532001 -15.8264 -13.5197 -12.9382 -6.5105 -6.993001 -5.9275 -9.2755 -10.533 -10.533 -12.2039 -6.564 -8.114 -10.213 -8.316501 -6.5845 -7.1325 -4.522 -5.0205 -6.569 -7.8635 -7.8045 -8.02 -8.1835 -9.460501 -4.739 
-18.1138 -10.304 -9.779 -18.1422 -19.3791 -15.0612 -14.9367 -8.200001 -6.993001 -13.0397 -13.1437 -10.533 -13.4926 -16.8339 -8.114 -11.1983 -14.164 -8.316501 -7.915501 -8.337 -5.0205 -6.79 -8.302501 -8.2155 -8.239 -9.6035 -12.1737 -9.460501 
-20.3478 -11.685 -18.4334 -21.6949 -20.9206 -17.0597 -16.6262 -8.200001 -14.46 -16.9079 -13.1437 -13.4926 -18.1226 -18.3839 -11.1983 -15.1493 -14.164 -9.6125 -8.6215 -8.3535 -6.79 -8.308001 -8.317 -8.323501 -10.4675 -14.0433 -12.1737 
-5.5785 -2.229 -5.557 -2.3335 -2.7415 -3.881 -1.934 -6.015 -3.6885 -2.8645 -3.1125 -4.894 -1.934 -3.6085 -3.325 -1.4985 -3.5855 -2.664 -5.557 0 -1.4985 -3.718 -1.7565 -2.857 -4.7775 -2.356 -4.352 0 -1.756 -1.934 -5.1845 -2.5045 -8.006001 -9.9545 0 0 -4.3955 -1.4985 -3.6035 -1.7565 -4.352 0 0 0 
-6.6785 -6.822001 -7.6185 -4.2725 -5.344501 -5.05 -7.7655 -8.068501 -6.476 -3.5345 -6.2615 -6.5295 -4.739 -7.686001 -3.898 -4.794 -6.4805 -6.5845 -5.557 -1.4985 -4.522 -4.7685 -4.1315 -7.1805 -6.003 -6.79 -4.352 -1.756 -4.0205 -6.564 -8.093 -11.142 -18.5723 -9.9545 0 -4.3955 -5.865 -4.7865 -5.361 -5.515 -4.352 0 0 
-8.9475 -9.007501 -9.2325 -6.8765 -6.251 -9.581 -9.1455 -10.7175 -7.0365 -6.701 -7.765501 -7.645 -8.1735 -8.091001 -6.314 -8.099 -9.686001 -6.5845 -7.1325 -4.522 -5.0205 -6.569 -7.8635 -7.8045 -8.02 -6.79 -5.5105 -4.0205 -9.007501 -8.8135 -17.1405 -21.7083 -18.5723 -9.9545 -4.3955 -5.865 -9.147501 -6.03 -8.097 -5.515 -4.352 0 
-11.352 -10.2185 -10.7035 -7.670001 -10.757 -11.0118 -11.9295 -11.278 -9.7585 -8.121 -8.925501 -10.298 -8.542001 -8.502501 -8.8035 -9.986 -9.686001 -7.915501 -8.337 -5.0205 -6.79 -8.302501 -8.2155 -8.239 -8.02 -7.505 -7.436501 -9.007501 -10.2755 -17.9306 -27.7068 -21.7083 -18.5723 -14.6654 -5.865 -9.147501 -10.718 -8.569 -8.097 -5.515 -4.352 
-12.563 -11.6895 -11.497 -12.3416 -12.1878 -13.7958 -12.49 -14 -10.9351 -9.359 -11.6823 -10.332 -8.832001 -11.1748 -10.7953 -9.986 -11.2038 -8.6215 -8.3535 -6.79 -8.308001 -8.317 -8.323501 -8.239 -9.724001 -9.7425 -12.9823 -10.2755 -19.5846 -28.4969 -27.7068 -21.7083 -23.2832 -16.1349 -9.147501 -10.718 -13.257 -8.569 -8.097 -5.515 
-5.5785 -2.229 -4.4725 -2.7415 -3.881 -1.934 -7.844 -2.7415 -4.894 -1.934 -5.1845 -2.5045 -6.797 -9.9545 -1.756 -1.934 -1.4985 -3.098 -1.7565 -2.664 -5.557 0 -1.4985 -3.718 -1.7565 -2.857 -4.7775 -2.356 -4.352 0 
-6.6785 -6.1905 -7.5705 -5.344501 -5.05 -9.967 -11.1677 -6.601 -6.5295 -6.564 -8.093 -9.2755 -10.533 -12.0259 -4.0205 -2.6125 -4.3095 -4.3615 -3.9595 -6.5845 -5.557 -1.4985 -4.522 -4.7685 -4.1315 -7.1805 -6.003 -6.79 -4.352 
-9.627001 -8.7255 -8.524 -6.251 -13.9904 -13.2907 -15.0272 -8.016001 -9.604 -8.8135 -15.274 -13.1437 -13.3146 -14.2904 -4.6845 -5.285501 -4.5915 -6.2035 -8.006001 -6.5845 -7.1325 -4.522 -5.0205 -6.569 -7.8635 -7.8045 -8.02 -6.79 
-12.46 -9.920501 -9.6785 -15.5692 -17.3141 -17.1502 -16.4422 -11.2345 -12.1633 -16.0641 -19.1422 -15.9253 -15.5791 -14.9544 -7.224501 -5.3625 -6.336 -11.0742 -8.006001 -7.915501 -8.337 -5.0205 -6.79 -8.302501 -8.2155 -8.239 -8.02 
-13.655 -11.2426 -18.9949 -18.8929 -21.1736 -18.5652 -19.6607 -13.7938 -19.4139 -19.9323 -21.9238 -18.1898 -16.2431 -17.4944 -7.279 -7.218 -11.3189 -11.0742 -9.672501 -8.6215 -8.3535 -6.79 -8.308001 -8.317 -8.323501 -8.239 
-5.5785 -2.229 -5.557 -4.824 -3.222 -5.1845 -2.5045 -6.797 -9.9545 0 -1.756 -1.934 -3.6085 -1.4985 -3.718 -1.7565 -2.857 -4.708 -2.356 -4.352 
-6.6785 -6.822001 -11.3658 -6.048 -8.3545 -8.093 -9.2755 -10.533 -9.9545 -1.756 -4.0205 -4.739 -5.811 -4.522 -4.7685 -4.1315 -7.284 -5.735 -6.79 
-8.9475 -12.9474 -12.5898 -10.717 -9.5415 -15.274 -13.1437 -10.533 -12.0259 -4.0205 -7.047 -6.4385 -8.655001 -5.0205 -6.569 -8.1995 -8.304 -9.2025 
-15.2919 -14.1714 -17.2588 -11.904 -16.8593 -19.1422 -13.1437 -13.3146 -14.2904 -7.047 -8.285501 -9.2025 -8.9475 -6.79 -10.3225 -9.493501 -10.1595 
-16.5159 -18.8404 -18.4458 -19.2218 -20.7275 -19.1422 -15.9253 -15.5791 -17.3169 -8.285501 -11.1865 -9.498 -10.265 -10.347 -10.47 -10.576 
