-4.759 
n/a 
n/a 
n/a 
n/a 
-4.759 
n/a 
n/a 
n/a 
n/a 
-4.759 
n/a 
n/a 
n/a 
n/a 
-4.759 
n/a 
n/a 
n/a 
n/a 
-6.6585 -2.229 -3.9515 -2.7415 -5.7465 -4.732 -3.9675 -3.5435 
-9.037001 -5.671 -6.6305 -9.595 -10.3165 -10.586 -7.7955 
-12.7204 -7.922501 -13.7848 -14.2304 -16.1705 -14.414 
-14.9719 -15.2768 -18.4202 -20.0844 -19.9985 
-22.3262 -19.9122 -24.2742 -23.9124 
-6.711 -2.186 -1.4985 -3.9515 -1.7565 -6.6585 -3.401 -2.5195 -1.4985 -4.4225 -3.8405 0 
-8.652 -3.339 -5.059 -5.368 -8.343 -10.543 -5.304 -3.1695 -5.0975 -8.6625 -3.8405 
-9.766001 -6.498 -5.839 -9.856501 -12.5383 -12.446 -5.943 -6.9605 -9.150001 -8.6625 
-13.0816 -6.727 -9.903001 -14.5034 -14.4413 -13.085 -10.2185 -11.2074 -9.150001 
-13.3106 -9.9245 -14.6569 -16.4064 -15.0803 -17.3605 -14.813 -11.2074 
-4.1985 -2.186 -1.4985 -3.9515 -3.2875 -1.7565 -6.6585 0 
-6.7575 -3.339 -5.059 -5.783 -4.3315 -8.343 -6.6585 
-7.802 -6.498 -6.233 -6.4065 -10.6735 -8.343 
-9.375 -7.319 -6.543 -13.7197 -10.6735 
-10.3415 -7.411 -14.0012 -13.7197 
-3.5065 -1.4985 -5.866 0 -5.7465 -2.7415 -1.4985 -3.9515 -1.7565 -4.628 -4.743 0 
-4.358 -7 -5.866 -5.7465 -8.287001 -4.063 -5.059 -5.368 -6.107501 -4.7515 -4.743 
-9.252501 -7 -12.5733 -8.287001 -9.459001 -7.179 -5.839 -8.3815 -6.281001 -4.7515 
-9.252501 -14.5417 -15.1138 -9.459001 -10.324 -7.29 -8.796 -8.394501 -6.281001 
-16.9928 -17.0822 -16.2858 -10.324 -10.3535 -10.085 -8.8035 -8.394501 
