-4.759 
n/a 
n/a 
n/a 
n/a 
-4.759 
n/a 
n/a 
n/a 
n/a 
-4.759 
n/a 
n/a 
n/a 
n/a 
-4.759 
n/a 
n/a 
n/a 
n/a 
-2.847 -2.8965 -4.521 -4.397 -2.7765 -3.7905 -1.4985 -5.0995 -2.0935 -4.02 -1.7565 -4.278 0 
-4.9305 -6.987 -8.652 -6.736001 -5.435 -4.969 -5.9315 -7.1495 -5.3765 -5.0075 -6.515 -4.278 
-9.081 -10.7565 -11.1424 -9.501501 -6.785 -9.627 -10.238 -10.9867 -7.426001 -8.7465 -6.515 
-13.0499 -13.2469 -13.9079 -10.8385 -11.6192 -13.8787 -14.0656 -13.0362 -11.2504 -8.7465 
-15.5403 -16.0124 -15.2449 -15.6727 -15.8709 -17.7063 -16.1151 -16.8606 -11.2504 
-3.914 -1.4985 -2.8965 -3.9115 -2.7415 -2.5045 -4.1975 -2.5045 -4.278 0 
-5.924 -3.928 -6.429501 -7.1565 -5.397 -6.3905 -6.355 -7.326 -4.278 
-8.842501 -7.900001 -9.6155 -9.092501 -8.282001 -6.7375 -10.504 -7.326 
-12.9345 -10.347 -11.5515 -12.8899 -8.4095 -10.5325 -10.504 
-15.3815 -12.283 -15.3489 -13.0174 -12.3685 -10.5325 
-2.9995 -2.8965 -3.9115 -3.5745 -2.6165 -4.2615 -1.4985 -4.02 -1.7565 -4.278 0 
-4.1905 -6.429501 -7.588 -4.114 -5.988 -5.128 -5.034 -5.0075 -6.515 -4.278 
-8.0625 -9.681001 -7.7845 -6.453 -6.423 -8.684001 -5.1485 -8.7465 -6.515 
-11.6734 -9.9855 -10.494 -6.749001 -10.1035 -9.445001 -8.844 -8.7465 
-11.9779 -12.695 -10.79 -10.459 -10.549 -13.1171 -8.844 
-2.8965 -3.1065 -4.397 -2.4945 -3.7925 -2.6165 -4.221 -1.7695 -4.278 0 
-5.872 -8.318001 -6.7085 -6.2105 -6.143001 -5.908 -4.626 -5.35 -4.278 
-12.1337 -10.9929 -9.6625 -8.4055 -9.811001 -6.3815 -9.3057 -5.35 
-14.8086 -13.9469 -12.9117 -12.2549 -10.146 -11.7676 -9.3057 
-17.7626 -17.1961 -16.7611 -12.5899 -15.5537 -11.7676 
