-4.759 
n/a 
n/a 
n/a 
n/a 
-4.759 
n/a 
n/a 
n/a 
n/a 
-4.759 
n/a 
n/a 
n/a 
n/a 
-4.759 
n/a 
n/a 
n/a 
n/a 
-1.4985 -4.3135 -4.161 -2.186 -3.2955 -2.0935 -3.135 -3.326 0 
-5.928 -9.151001 -6.5135 -4.348001 -4.307 -4.4665 -5.9565 -3.326 
-11.4031 -11.7017 -9.114 -5.274 -6.9535 -8.061001 -5.9565 
-13.9538 -14.3022 -10.086 -7.938 -10.3155 -8.061001 
-16.5543 -15.2742 -12.75 -11.428 -10.3155 
-5.889 -5.2545 -2.7415 -4.2215 -2.264 -3.288 -4.602 -5.333 -1.934 -15.3245 0 -4.489 -1.4985 -3.8955 -2.186 -3.9615 -1.7695 -1.4985 -10.7745 -4.1355 0 -1.756 -3.091 -4.235 0 -6.568 0 -4.254 -2.5045 -1.8085 -4.862 -4.1445 -2.264 -1.4985 -4.1355 -4.872 
-6.272 -6.742001 -4.7885 -5.4545 -4.5935 -5.82 -9.414001 -7.1175 -13.9435 -13.045 -4.489 -6.5935 -4.759501 -5.924 -5.73 -5.845 -2.7955 -8.559 -11.2095 -4.1355 -1.756 -4.2995 -5.1065 -4.235 -6.568 -6.568 -4.254 -5.522 -3.3625 -6.6715 -7.026501 -6.3255 -2.9195 -5.2415 -6.402 
-7.796501 -8.616501 -5.679 -7.045501 -6.788001 -9.755 -10.266 -10.2185 -9.2635 -9.717001 -6.5935 -9.635 -6.3745 -8.769501 -7.1575 -6.4075 -9.759501 -10.21 -9.828 -6.050001 -4.2995 -6.34 -5.1065 -9.035 -6.568 -10.66 -5.522 -5.7455 -8.043 -7.732 -8.8655 -6.9315 -6.203001 -7.417001 
-9.0185 -9.4055 -7.243001 -9.4685 -10.269 -10.3915 -11.0355 -10.0585 -9.769001 -10.5745 -9.635 -10.251 -9.162001 -10.0995 -7.7205 -13.8525 -11.3345 -10.0125 -10.677 -8.9245 -6.34 -6.34 -9.5205 -9.035 -10.66 -11.928 -5.7455 -9.4875 -8.9785 -9.473001 -9.568501 -9.988501 -9.1155 
-9.5985 -9.5915 -9.621501 -10.4195 -10.63 -11.0275 -11.023 -10.282 -10.971 -13.4845 -10.251 -13.0385 -10.2585 -10.31 -15.3389 -14.4755 -10.4375 -10.6925 -13.6925 -10.674 -6.34 -10.7826 -9.5205 -13.4346 -11.928 -12.1515 -9.4875 -9.898001 -10.2755 -9.7735 -10.759 -12.9324 
-9.152 -2.4945 -2.9825 -3.974 0 -9.877001 -8.5035 -3.5965 -3.676 -12.16972 
-11.9597 -7.0915 -7.016 -3.974 -9.877001 -18.4109 -12.367 -7.9375 -16.89272 
-16.5567 -11.7548 -7.016 -14.9262 -18.4109 -22.2744 -16.708 -21.79162 
-21.22 -11.7548 -19.2368 -23.4601 -22.2744 -26.6154 -30.56212 
-21.22 -23.9756 -27.7707 -27.3236 -26.6154 -40.46952 
-3.699 -3.886 -2.4945 -12.16972 -5.72 -2.229 -10.738 -5.0735 0 -3.6085 -3.711 -2.229 -4.341 -8.530001 -3.5965 0 -3.676 -11.0235 -2.186 -3.9205 0 
-7.1715 -5.689 -16.09242 -17.88972 -8.790501 -13.562 -15.8115 -5.0735 -3.6085 -7.5205 -4.225 -5.408 -13.9658 -12.3187 -3.5965 -3.676 -15.7465 -13.2095 -4.9645 -3.9205 
-9.0865 -20.16372 -21.81242 -20.96022 -20.2893 -18.6355 -15.8115 -9.237 -7.5205 -8.740001 -8.81 -15.6146 -17.7545 -12.3187 -7.9375 -15.7465 -17.9325 -15.988 -4.9645 
-23.68962 -25.88372 -24.88292 -32.45902 -25.3628 -18.6355 -19.975 -13.4068 -8.740001 -13.6038 -19.4526 -19.4033 -17.7545 -16.6597 -20.6454 -17.9325 -20.711 -15.988 
-29.40962 -28.95422 -36.38172 -37.53252 -25.3628 -22.799 -24.1448 -14.6263 -13.6038 -24.2464 -23.2413 -19.4033 -22.0955 -29.3676 -22.8314 -20.711 -20.711 
