-4.759 
n/a 
n/a 
n/a 
n/a 
-4.759 
n/a 
n/a 
n/a 
n/a 
-4.759 
n/a 
n/a 
n/a 
n/a 
-4.759 
n/a 
n/a 
n/a 
n/a 
-2.872 -3.3715 -3.468 -2.674 -1.4985 -5.1255 -4.2915 0 
-5.554501 -6.025001 -5.5775 -3.998 -6.31 -11.08 -4.2915 
-8.153501 -6.846 -7.0445 -9.9585 -12.8817 -11.08 
-8.734501 -9.159 -13.7424 -16.5302 -12.8817 
-11.1661 -15.9897 -20.3141 -16.5302 
-2.872 -1.934 -2.5685 -3.1715 -1.4985 -3.1715 -3.6885 -2.186 -3.7855 -3.383 -4.4525 
-4.659 -4.244 -5.7475 -5.136 -3.994 -7.362 -5.4995 -4.9225 -7.295501 -8.5185 
-6.492001 -7.439001 -8.575001 -6.690001 -7.785501 -8.853001 -8.283001 -8.508 -13.1088 
-10.6335 -10.4265 -10.4038 -10.9345 -9.175501 -11.7529 -12.0355 -14.5275 
-13.621 -12.2553 -14.6483 -12.3245 -12.0784 -15.5054 -18.055 
-6.8035 0 -1.934 -3.3715 -3.468 0 -1.4985 -3.6885 -2.9325 -2.925 -2.4945 -4.4615 -2.4945 -1.4985 -2.645 -4.377 -3.6885 
-6.8035 -1.934 -4.622 -6.025001 -3.468 -1.4985 -4.962501 -6.844501 -4.4605 -3.7675 -6.403 -7.447001 -3.9315 -4.4385 -5.5605 -7.434 
-9.234501 -4.622 -6.5365 -6.025001 -5.1095 -4.962501 -8.196501 -8.8135 -5.382 -7.291 -8.917001 -8.690001 -6.5425 -6.753 -8.685501 
-12.0985 -6.5365 -6.5365 -7.5525 -8.676001 -8.196501 -10.0155 -9.7215 -8.8385 -10.199 -10.214 -11.4186 -8.844 -9.719501 
-14.013 -6.5365 -7.6435 -11.2806 -12.1582 -10.0155 -11.0115 -13.256 -12.2983 -11.496 -13.0812 -13.7201 -12.0489 
-3.4765 -3.3715 -1.7565 -3.468 -3.5435 -4.2915 0 
-6.8265 -4.3215 -5.649 -5.6995 -8.683001 -4.2915 
-7.479001 -9.7675 -9.147 -11.5094 -8.683001 
-13.1442 -13.3699 -15.4523 -11.5094 
-16.7466 -19.6752 -15.4523 
