-4.759 
n/a 
n/a 
n/a 
n/a 
-4.759 
n/a 
n/a 
n/a 
n/a 
-4.759 
n/a 
n/a 
n/a 
n/a 
-4.759 
n/a 
n/a 
n/a 
n/a 
-3.6085 -4.449 -2.4945 -3.511 -2.356 -3.4625 -1.7695 -11.0555 -1.934 -5.6485 -3.158 0 
-8.4165 -6.130001 -6.6135 -5.258 -6.323 -5.0775 -13.8072 -12.9895 -7.468 -9.824501 -3.158 
-10.168 -10.8678 -8.265 -8.984501 -8.2145 -17.4452 -15.7412 -18.5235 -12.1548 -9.824501 
-14.9058 -12.5193 -12.3865 -10.139 -20.7346 -19.3792 -21.2752 -23.2103 -12.1548 
-16.5573 -16.6408 -13.541 -23.5235 -22.6686 -24.9132 -25.962 -23.2103 
-1.4985 -3.6085 -3.1385 -3.152 -4.0555 -1.7695 -2.688 -12.16972 -1.934 -4.71 
-5.023 -6.699 -5.219 -8.488501 -4.7475 -4.698 -15.93152 -14.10372 -5.951 
-7.278 -8.577001 -10.4595 -9.466001 -7.083 -18.64832 -17.86552 -18.12072 
-8.828 -13.9321 -11.437 -11.8809 -22.34912 -20.58232 -21.88252 
-14.2601 -14.9096 -13.8519 -27.14702 -24.28312 -24.59932 
-1.934 -1.4985 -3.158 -5.6485 -3.6085 -3.711 -2.4945 -5.0305 -1.934 -5.1635 
-2.6125 -4.178 -8.7985 -9.4165 -7.5205 -5.5175 -6.6 -5.755001 -6.5075 
-5.265 -8.9685 -12.8227 -13.4155 -9.185 -9.869 -7.4835 -9.677501 
-9.214001 -13.0931 -16.8217 -15.08 -13.7339 -10.171 -11.8012 
-13.4052 -17.0921 -18.4862 -19.6289 -14.0359 -15.3139 
-7.746 -2.4945 -4.954 -1.934 -4.5465 -1.934 -5.6485 0 
-9.3605 -6.7465 -6.695001 -5.844501 -6.728001 -7.468 -5.6485 
-13.6353 -8.186501 -11.0795 -7.227 -12.8698 -7.468 
-15.0753 -12.702 -12.462 -13.6228 -12.8698 
-19.5908 -14.0845 -18.8578 -13.6228 
