-4.759 
n/a 
n/a 
n/a 
n/a 
-4.759 
n/a 
n/a 
n/a 
n/a 
-4.759 
n/a 
n/a 
n/a 
n/a 
-4.759 
n/a 
n/a 
n/a 
n/a 
-3.254 -1.7565 -3.7805 -4.296 -2.3345 -9.0045 
-4.0065 -5.883 -7.802 -4.81 -10.4945 
-7.238501 -9.019 -8.363501 -13.565 
-10.5635 -9.606501 -17.2095 
-11.151 -18.5287 
-5.995 -5.5475 -2.229 -3.8935 -4.019 -4.3225 
-7.404 -7.305 -5.9715 -6.6825 -8.974001 
-8.4425 -11.4029 -9.257501 -9.634501 
-13.3298 -14.6889 -12.3405 
-16.6158 -17.7719 
-6.4965 -5.805501 -4.296 -4.3225 
-9.7405 -10.3285 -7.7795 
-14.3279 -14.0624 
-18.0618 
n/a 
-4.3225 -4.522 -8.9165 
-7.070001 -14.7491 
-18.7201 
n/a 
n/a 
