-4.759 
n/a 
n/a 
n/a 
n/a 
-4.759 
n/a 
n/a 
n/a 
n/a 
-4.759 
n/a 
n/a 
n/a 
n/a 
-4.759 
n/a 
n/a 
n/a 
n/a 
-4.5965 0 -9.2495 -9.425 0 -2.0935 -4.936 0 
-4.5965 -9.2495 -10.0445 -9.425 -2.0935 -6.574501 -4.936 
-10.3615 -10.0445 -10.0445 -11.9975 -6.574501 -6.574501 
-10.3865 -10.0445 -12.8288 -16.4785 -6.574501 
-10.3865 -12.8288 -17.3098 -16.4785 
-4.5965 0 -12.16972 0 -12.16972 0 
-4.5965 -12.16972 -12.16972 -12.16972 -12.16972 
-17.15642 -12.16972 -24.33944 -12.16972 
-17.15642 -24.33944 -24.33944 
-29.32614 -24.33944 
-4.5965 0 -9.2495 -9.425 0 -10.6015 0 
-4.5965 -9.2495 -10.0445 -9.425 -10.6015 -10.6015 
-10.3615 -10.0445 -10.0445 -20.5055 -10.6015 
-10.3865 -10.0445 -21.3368 -20.5055 
-10.3865 -21.3368 -21.3368 
-13.846 -9.425 0 -10.6015 0 
-11.1565 -9.425 -10.6015 -10.6015 
-10.3865 -20.5055 -10.6015 
-22.6504 -20.5055 
-22.6504 
