-4.759 
n/a 
n/a 
n/a 
n/a 
-4.759 
n/a 
n/a 
n/a 
n/a 
-4.759 
n/a 
n/a 
n/a 
n/a 
-4.759 
n/a 
n/a 
n/a 
n/a 
-3.5455 -10.615 0 -1.4985 -4.0155 -3.711 -3.8755 -4.2775 -3.5435 -2.0935 -3.277 -3.325 -1.4985 -4.1 -1.7565 -4.065 -4.6825 -1.756 -2.925 -3.9535 -1.7695 -5.565 -2.985 -4.101 -4.919 -3.9225 -4.2315 0 
-12.53 -8.781501 -1.4985 -5.148 -7.1775 -7.308001 -7.768001 -7.779 -5.7 -4.694 -6.146501 -3.898 -5.0695 -5.164001 -5.305501 -6.244 -6.147 -4.2585 -5.863 -5.098001 -6.2995 -7.5475 -6.339 -7.638 -7.346 -6.2445 -4.2315 
-12.736 -10.533 -5.148 -8.012 -10.6465 -11.6893 -10.575 -9.511001 -8.651501 -7.803 -6.663 -6.657 -5.5715 -9.265 -8.227501 -7.314 -8.495001 -7.0775 -6.7565 -9.956 -7.865 -10.733 -9.349501 -9.459001 -8.901501 -6.2445 
-14.4875 -13.4845 -8.012 -11.6012 -15.0278 -14.4963 -12.849 -12.5933 -11.9327 -8.184501 -9.2335 -6.859 -9.5395 -10.4595 -9.446501 -9.8715 -11.3582 -7.7705 -11.8043 -11.5463 -11.0409 -13.7435 -11.3443 -11.1829 -8.901501 
-17.439 -16.5841 -11.6012 -15.9825 -17.8348 -16.7703 -15.9313 -15.8745 -12.3142 -10.9084 -9.3275 -9.969501 -10.495 -11.6785 -12.0148 -12.7347 -12.0512 -12.9323 -13.3946 -14.7222 -14.0514 -15.7383 -13.0682 -11.1829 
-10.615 -2.5685 -1.4985 -4.0155 -5.7565 -3.9035 -3.152 -4.5485 -2.985 -3.5205 -3.5435 -3.325 -4.065 0 -1.756 -4.1675 -3.2615 -2.985 -4.101 -4.0505 -6.713 0 
-11.9075 -3.7015 -5.148 -10.586 -10.168 -6.606 -6.251 -7.1105 -4.257 -6.632501 -6.212 -7.0425 -4.065 -1.756 -5.766 -6.6705 -5.5625 -6.339 -7.6695 -11.8781 -6.713 
-13.4672 -7.649 -12.0429 -14.9975 -12.9611 -9.684 -9.1575 -7.38 -7.139 -9.385 -9.693001 -7.0425 -5.851 -5.766 -7.847 -8.454 -9.6035 -9.181001 -15.7701 -11.8781 
-17.4567 -14.5095 -16.4544 -17.7906 -16.0391 -12.7223 -9.6218 -9.4175 -9.824 -13.0864 -9.693001 -8.849 -10.389 -7.847 -9.370501 -12.852 -12.5117 -18.0044 -15.7701 
-24.3172 -18.921 -19.2475 -20.8686 -19.0774 -13.1866 -11.6593 -12.2891 -13.5598 -13.0864 -11.5445 -13.6018 -12.47 -9.370501 -13.8711 -15.7602 -21.3351 -18.0044 
-3.5455 -1.4985 -3.8405 -10.615 0 -2.7035 -3.9675 -3.9035 -2.674 -2.985 -3.5205 -3.5435 -1.756 -9.550501 -3.2615 -2.985 -3.5205 -3.614 -3.034 -3.5725 -3.325 -4.559 -3.5435 
-3.91 -4.7545 -12.388 -8.781501 -2.7035 -7.966001 -9.228001 -6.8075 -5.042 -4.257 -6.632501 -4.862 -12.3151 -13.165 -5.5625 -4.257 -7.056 -6.2985 -7.415501 -5.944 -8.174001 -7.515 
-5.4455 -12.9884 -12.6214 -11.5877 -7.966001 -14.0339 -12.706 -9.048 -5.6365 -7.139 -7.652 -16.5897 -15.9296 -15.466 -7.238 -7.507 -9.278 -11.0266 -9.554001 -11.7658 -11.6582 
-13.8064 -13.0634 -15.4276 -17.1048 -14.0339 -17.5119 -14.9465 -9.316 -8.8195 -8.0585 -19.6267 -20.2042 -18.2306 -17.1415 -10.9758 -9.6885 -14.2443 -13.1651 -15.5106 -15.25 
-13.817 -15.8696 -20.9447 -23.1727 -17.5119 -19.7524 -15.2145 -12.6456 -9.5105 -20.115 -23.2412 -22.5052 -19.9061 -20.8793 -13.1573 -14.7346 -16.3828 -19.1217 -18.9948 
-1.934 -1.4985 -3.158 -5.43 -1.7695 -5.185 -4.0155 -5.25 -3.251 -4.5485 -5.707 -4.6555 -1.756 -4.4625 -3.2615 -2.985 -3.614 -3.9225 -4.2315 -3.034 -2.925 -2.4945 -1.934 -4.065 -3.4985 0 
-2.6125 -4.178 -8.229501 -7.634 -7.428 -9.438001 -8.999001 -8.057501 -6.649 -10.586 -9.805 -5.556001 -5.7175 -6.096 -5.5625 -6.659 -6.1555 -6.2445 -6.5145 -4.4 -3.7675 -4.2645 -5.723001 -7.64 -3.4985 
-5.265 -8.399 -10.0675 -9.496 -12.0302 -14.6135 -11.9047 -11.7405 -13.1565 -14.684 -10.9917 -10.5535 -7.2015 -8.2665 -9.935 -9.989 -8.768001 -8.526 -7.051 -5.257 -5.429 -8.188001 -9.645 -7.64 
-8.783001 -10.485 -11.9295 -14.3656 -17.2057 -17.5192 -15.5877 -18.248 -17.2545 -15.8707 -15.9892 -12.0375 -9.1945 -12.9762 -13.5726 -10.472 -11.1517 -9.2705 -7.934 -6.5855 -9.721001 -12.7058 -9.645 
-11.0454 -12.347 -16.7991 -19.5411 -20.1114 -21.2022 -22.0952 -22.346 -18.4412 -20.8682 -17.4732 -14.0305 -13.8952 -16.6138 -14.0556 -12.8557 -11.8962 -10.244 -9.2415 -11.2615 -14.5166 -12.7058 
