-4.759 
n/a 
n/a 
n/a 
n/a 
-4.759 
n/a 
n/a 
n/a 
n/a 
-4.759 
n/a 
n/a 
n/a 
n/a 
-4.759 
n/a 
n/a 
n/a 
n/a 
-4.065 -4.1885 -3.251 -5.086 -2.5045 -4.6555 -1.934 -4.5255 
-8.4135 -6.4945 -7.7985 -6.526501 -7.375501 -6.706501 -5.7045 
-10.7335 -11.9994 -9.583 -10.66 -9.392501 -9.4385 
-16.2384 -13.7839 -13.8821 -12.677 -12.4665 
-18.0229 -18.083 -15.8991 -15.751 
-4.065 -4.257 -5.192 -2.3345 -4.179 -3.228 -1.934 -1.4985 -4.5255 -2.229 -5.13 -3.8275 0 
-6.226501 -8.042 -7.086 -5.5965 -7.781501 -5.9865 -2.6125 -6.4875 -7.1625 -8.816 -8.675 -3.8275 
-9.508 -10.1646 -10.5975 -9.183001 -10.3345 -6.511 -7.3585 -9.7805 -14.2575 -10.389 -8.675 
-11.724 -13.6761 -14.184 -12.02 -10.6705 -11.7296 -10.7495 -16.8755 -15.8305 -10.389 
-15.2355 -17.2626 -17.021 -12.356 -15.8891 -15.1206 -17.8445 -18.4485 -15.8305 
-4.065 -4.257 -4.563 -4.794 -2.5045 -4.5255 -1.934 -8.1765 -3.8275 
-6.226501 -7.929 -10.451 -6.6 -8.360001 -6.5565 -11.6045 -12.7195 
-9.508 -14.3912 -12.257 -13.6197 -10.204 -15.2138 -14.1163 
-16.1354 -16.1972 -19.2767 -15.4637 -19.0653 -19.0436 
-17.9414 -23.2169 -21.1207 -24.325 -22.8951 
-1.4985 -3.228 -3.8755 -3.8275 -2.0935 -1.4985 -4.065 -3.7015 -8.1765 -4.0875 -3.5015 -1.934 -1.4985 -3.158 -4.5255 0 
-3.9575 -7.969 -8.7685 -5.976 -2.9725 -4.824 -8.377501 -11.896 -13.3945 -5.143 -4.704 -2.6125 -4.178 -6.7165 -4.5255 
-8.091001 -13.309 -11.201 -6.827 -6.4275 -8.4715 -18.2102 -17.5878 -14.2563 -5.692 -5.1615 -5.265 -7.995501 -6.7165 
-13.6114 -15.7415 -12.052 -9.375501 -9.498501 -18.3634 -22.715 -18.3148 -14.7588 -6.304 -7.6495 -8.440001 -7.995501 
-16.0439 -16.5925 -14.6005 -12.5745 -19.5234 -22.8682 -23.442 -18.8173 -15.5308 -8.219501 -11.0413 -8.440001 
