-4.759 
n/a 
n/a 
n/a 
n/a 
-4.759 
n/a 
n/a 
n/a 
n/a 
-4.759 
n/a 
n/a 
n/a 
n/a 
-4.759 
n/a 
n/a 
n/a 
n/a 
-3.6215 -2.461 -4.702 -1.7565 -3.873 -3.4425 -3.251 -6.526 -1.756 -2.4265 -2.7415 -4.54 -2.356 -4.4925 -5.463 -1.756 -2.4265 -2.7415 -4.492 -1.7695 -1.4985 -3.518 -1.7565 -3.304 -4.8565 -2.5195 -1.4985 -5.056 -1.7565 -1.4985 -3.9075 0 
-6.1105 -6.642 -5.379 -5.002 -6.015 -6.6475 -8.404 -7.966001 -3.949 -3.681 -6.0645 -4.954501 -6.634501 -9.5415 -6.9445 -3.949 -3.681 -5.722 -5.955 -2.7955 -4.77 -4.302 -5.1575 -6.729 -6.4595 -3.1695 -5.7045 -6.386 -2.4195 -4.9185 -3.9075 
-9.6245 -7.377501 -6.133 -7.051 -9.376501 -12.0471 -10.304 -10.151 -4.9795 -7.193 -6.203001 -8.092001 -11.9505 -11.2178 -8.993 -4.9795 -7.413 -6.763 -6.7245 -5.859 -4.885 -7.627 -8.102501 -7.614 -6.679 -6.9565 -6.467 -6.7515 -5.650001 -4.9185 
-10.1055 -8.110001 -8.946501 -10.8045 -14.9281 -13.9471 -12.489 -11.1815 -8.2325 -7.3375 -9.479001 -13.7566 -13.6268 -13.2663 -10.204 -8.745501 -8.199 -7.607 -7.99 -5.982 -8.6895 -10.9612 -9.430501 -7.7665 -11.0808 -7.972 -6.8075 -10.4528 -5.650001 
-10.572 -10.9577 -12.7804 -16.3561 -16.8281 -16.1321 -13.5195 -14.4345 -8.344001 -10.5325 -15.1884 -15.4329 -15.6753 -14.4773 -13.97 -9.7075 -8.92 -8.812 -8.0255 -9.479 -12.0777 -12.2892 -9.672501 -12.4677 -12.0963 -8.468 -10.5282 -10.4528 
-2.461 -7.804501 -3.873 -3.469 -1.934 -3.304 -4.653 
-10.7335 -12.2503 -7.8745 -5.95 -5.876 -7.111 
-15.1793 -16.2518 -10.322 -10.523 -8.979 
-19.1808 -18.6993 -14.895 -13.626 
-21.6283 -23.2723 -17.998 
-3.6215 -3.54 -4.702 -1.7565 -3.873 -2.7415 -5.564 -1.756 -4.54 -2.356 -3.995 0 -4.9995 -1.756 -4.492 -3.304 -4.8565 -2.5195 -1.4985 -3.9075 0 
-6.5425 -7.127501 -5.379 -5.002 -6.184 -7.254001 -7.324 -6.0795 -4.954501 -6.528501 -3.995 -4.9995 -6.653 -5.6815 -7.7165 -6.729 -6.4595 -3.1695 -4.9185 -3.9075 
-9.803 -7.5245 -6.133 -7.368001 -10.238 -8.547001 -9.0605 -6.42 -8.278001 -6.528501 -9.486 -6.653 -10.3225 -9.112 -11.9393 -7.614 -6.679 -6.4485 -4.9185 
-10.392 -8.1245 -8.271501 -11.581 -11.6274 -10.035 -9.3415 -9.254001 -8.278001 -12.4803 -10.751 -10.3225 -14.133 -13.6588 -12.8243 -7.7665 -9.007501 -6.4485 
-10.775 -10.142 -12.7263 -12.9704 -13.1154 -10.27 -12.3433 -9.254001 -14.4624 -13.7453 -14.4205 -14.133 -18.6798 -14.5438 -12.9768 -10.388 -9.007501 
-1.4985 -3.7745 -4.0075 -1.7565 -1.4985 -4.186 -2.186 -1.4985 -5.3315 -2.3615 -3.6885 0 -3.582 -5.1475 -4.0395 -4.612 -2.264 -1.8085 -4.197 -6.5695 -1.756 -4.6805 -1.7565 -1.8085 -5.9675 -3.729 -2.356 -2.664 -6.6385 0 -2.664 -9.559501 -5.8345 0 -5.4525 -2.3345 -1.8085 -3.6885 -5.16 -1.756 -6.6925 -3.115 -3.17 -6.483 -5.894 0 -1.4985 -3.9005 -4.16 -2.4945 -4.973 -1.934 -4.399 0 
-4.753 -6.766 -5.224 -2.4195 -5.361 -6.193001 -3.339 -6.016001 -8.071 -6.1125 -3.6885 -3.582 -6.741 -8.601501 -8.308001 -6.188 -3.5925 -5.7225 -8.651501 -7.974 -6.276 -4.722 -3.2595 -6.9425 -9.1475 -5.8375 -4.135 -9.482 -6.6385 -2.664 -10.069 -12.488 -5.8345 -5.4525 -6.747001 -3.8605 -4.3555 -7.8435 -6.671 -8.133 -10.115 -5.534 -10.001 -9.497001 -5.894 -1.4985 -4.797 -6.427501 -5.649 -8.448 -7.9305 -6.558 -4.399 
-7.091001 -7.0745 -5.746 -6.144001 -7.005 -7.333501 -7.8875 -8.634501 -12.0412 -6.1125 -6.507 -6.741 -9.303 -10.688 -9.227501 -7.1165 -7.2635 -9.331501 -10.0315 -12.6972 -6.3145 -5.475 -8.172001 -9.715 -9.828501 -7.4545 -10.2645 -9.482 -9.928 -8.651 -10.848 -10.204 -10.0225 -6.747001 -7.169001 -6.15 -8.3265 -9.3295 -10.115 -11.8791 -12.534 -10.476 -10.693 -9.497001 -7.52 -4.797 -6.7665 -8.1625 -10.6875 -10.0015 -9.373 -6.558 
-7.249001 -7.5 -9.7415 -7.844501 -8.3135 -10.4105 -11.197 -12.6375 -12.0412 -8.9565 -9.184 -9.303 -11.4145 -11.6075 -9.769501 -9.4515 -9.523001 -10.3615 -14.7547 -12.7357 -7.042 -9.821501 -10.361 -10.1245 -10.43 -10.467 -10.2645 -10.4045 -10.5435 -10.264 -10.264 -10.521 -10.14 -7.169001 -8.955001 -9.5395 -9.623 -12.8083 -13.8611 -14.2981 -17.476 -10.7025 -10.693 -10.5055 -10.76 -6.7665 -8.530001 -10.7175 -10.726 -10.1775 -9.373 
-7.6645 -10.609 -10.2885 -8.7025 -10.6465 -13.2862 -15.2 -12.6375 -14.8852 -11.7473 -10.7575 -11.4145 -12.334 -12.1495 -10.625 -10.2095 -10.6105 -15.0847 -14.7932 -13.4632 -11.5445 -12.0947 -10.506 -10.451 -10.511 -10.467 -10.542 -10.553 -10.56 -10.264 -10.522 -10.537 -10.282 -8.955001 -10.1305 -10.5755 -13.138 -16.5544 -16.2801 -19.2401 -17.7025 -10.7025 -11.7015 -13.7455 -12.7295 -8.530001 -11.199 -10.743 -10.751 -10.1775 
