-4.759 
n/a 
n/a 
n/a 
n/a 
-4.759 
n/a 
n/a 
n/a 
n/a 
-4.759 
n/a 
n/a 
n/a 
n/a 
-4.759 
n/a 
n/a 
n/a 
n/a 
-4.4245 0 -10.1485 -7.0445 0 -4.4485 -3.9825 0 
-4.4245 -10.1485 -17.2394 -7.0445 -4.4485 -6.759 -3.9825 
-14.9404 -17.2394 -17.2394 -12.0746 -6.759 -6.759 
-22.0313 -17.2394 -22.2695 -14.3851 -6.759 
-22.0313 -22.2695 -24.58 -14.3851 
-4.4245 0 -10.2945 -7.0445 0 -4.0275 -4.1665 0 
-4.4245 -10.2945 -11.1415 -7.0445 -4.0275 -8.997 -4.1665 
-15.0864 -11.1415 -11.1415 -11.6536 -8.997 -8.997 
-15.9334 -11.1415 -15.7506 -16.6231 -8.997 
-15.9334 -15.7506 -20.7201 -16.6231 
-4.4245 0 -8.4175 -7.0445 0 -4.0275 -4.609 0 
-4.4245 -8.4175 -8.655001 -7.0445 -4.0275 -6.966001 -4.609 
-10.7665 -8.655001 -8.655001 -11.6536 -6.966001 -6.966001 
-10.7885 -8.655001 -13.8771 -14.5921 -6.966001 
-10.7885 -13.8771 -16.8156 -14.5921 
-4.4245 0 -8.4175 -7.0445 0 -4.0275 -3.6505 0 
-4.4245 -8.4175 -8.655001 -7.0445 -4.0275 -6.8435 -3.6505 
-10.7665 -8.655001 -8.655001 -11.6536 -6.8435 -6.8435 
-10.7885 -8.655001 -13.8771 -14.4696 -6.8435 
-10.7885 -13.8771 -16.6931 -14.4696 
