-4.759 
n/a 
n/a 
n/a 
n/a 
-4.759 
n/a 
n/a 
n/a 
n/a 
-4.759 
n/a 
n/a 
n/a 
n/a 
-4.759 
n/a 
n/a 
n/a 
n/a 
-5.2885 -4.1585 -1.934 -3.506 -4.602 -3.0105 0 -3.429 -3.672 -3.6505 -3.135 -3.9355 -4.9425 -1.756 -8.271001 
-9.8465 -6.16 -4.961 -6.404 -6.217 -3.0105 -3.429 -7.365 -7.321 -7.1065 -6.3365 -9.144501 -6.1005 -10.784 
-11.8764 -9.2965 -8.892501 -7.388 -6.217 -7.186501 -7.365 -9.401 -10.485 -10.5325 -12.2955 -10.348 -15.9493 
-15.0129 -13.3908 -9.906 -7.388 -10.177 -11.8141 -9.401 -12.8562 -13.911 -16.4915 -13.499 -20.1968 
-19.1072 -14.4043 -9.906 -11.4158 -15.0574 -13.8501 -12.8562 -16.2822 -19.87 -17.695 -23.3478 
-12.16972 -12.16972 -12.16972 
-24.33944 -24.33944 
-36.50916 
n/a 
n/a 
-5.2885 -2.264 -3.506 -6.007 -4.0925 -1.8085 -2.9195 -1.756 -4.629 -2.3335 -2.4265 -2.186 -2.6165 -4.107 -2.0935 -2.3615 -3.672 -3.685 -2.3615 -4.463 -3.4515 -3.098 -4.91 -1.4985 -3.992 -1.7565 -3.5025 -3.664 0 
-7.638 -4.855 -7.4575 -9.201501 -5.4985 -5.252 -4.328 -6.0425 -5.5865 -3.913 -3.292 -3.5105 -4.937 -4.239501 -3.854 -6.523 -7.504001 -6.155 -6.1655 -5.861001 -6.469501 -7.302 -5.331 -5.2675 -5.2285 -5.2375 -5.7235 -3.664 
-9.636001 -7.344501 -10.609 -11.071 -8.903501 -7.199 -9.411 -7.029 -6.788 -4.5215 -4.443 -5.089 -4.9625 -6.130001 -8.182 -9.7075 -10.185 -10.623 -9.1195 -9.607501 -11.5259 -7.7195 -7.993501 -5.5385 -9.3955 -6.518001 -5.7235 
-12.2439 -11.1815 -12.6808 -14.9466 -11.3097 -12.9614 -10.3485 -8.017 -7.482 -5.5735 -7.551 -5.1145 -7.408 -10.843 -11.5361 -12.3399 -14.757 -13.577 -13.4024 -14.6985 -11.9434 -10.107 -8.015 -10.0635 -10.5045 -6.518001 
-16.9637 -14.6226 -16.6306 -17.3528 -17.0721 -13.8989 -11.3365 -8.7495 -8.7075 -8.486 -7.604 -7.4915 -12.9052 -14.1971 -14.1685 -16.9119 -17.711 -17.8599 -18.4934 -15.116 -14.3309 -10.1445 -13.165 -10.7075 -10.5045 
-3.875 -3.959 -3.4005 -3.5855 -1.756 -3.9675 -1.7565 -3.757 -5.2885 -3.506 -2.9965 -3.0105 -2.3335 -2.95 -4.548 -1.4985 -6.2775 0 
-7.163 -7.785 -5.965 -4.5585 -4.942 -5.258 -6.605 -10.4441 -9.379001 -5.475 -4.979 -6.2885 -4.8245 -7.824 -5.882501 -7.7235 -6.2775 
-11.4862 -10.6215 -6.5535 -6.887 -6.232 -9.536 -13.8297 -14.5346 -11.4664 -6.4045 -8.501501 -9.193501 -10.3475 -8.5425 -12.8155 -7.7235 
-14.3227 -11.21 -7.301 -8.0905 -11.04 -16.7633 -17.9202 -16.622 -12.3959 -9.601001 -11.5561 -15.1667 -11.066 -16.3867 -12.8155 
-14.9112 -11.9575 -8.4305 -13.5991 -18.2673 -20.8538 -20.0076 -17.5515 -15.5924 -12.6684 -17.5293 -15.8852 -18.9102 -16.3867 
