-4.759 
n/a 
n/a 
n/a 
n/a 
-4.759 
n/a 
n/a 
n/a 
n/a 
-4.759 
n/a 
n/a 
n/a 
n/a 
-4.759 
n/a 
n/a 
n/a 
n/a 
-8.395 -2.186 -1.4985 -3.535 -4.031 -2.0935 -1.4985 -4.293 -1.7565 -1.4985 -3.6885 -5.1845 0 
-10.985 -3.339 -4.255 -5.8145 -4.8935 -2.9725 -5.6055 -5.421 -2.4195 -4.962501 -7.816501 -5.1845 
-12.138 -5.657 -5.876 -6.2975 -5.596 -6.357 -5.901 -6.038 -5.944 -9.880501 -7.816501 
-14.456 -6.6805 -6.398 -6.9575 -8.5205 -6.421 -6.509501 -9.440001 -10.8432 -9.880501 
-15.4795 -7.3735 -6.987 -9.379001 -9.7755 -7.191 -10.0095 -14.5078 -10.8432 
-5.1845 -3.6885 -4.8395 -4.2635 -3.098 -1.934 -9.8555 0 
-7.323501 -9.583501 -10.375 -7.435 -4.746 -12.7959 -9.8555 
-13.7199 -15.1852 -13.5465 -9.874001 -15.8899 -12.7959 
-19.3216 -18.3567 -15.9855 -21.4199 -15.8899 
-22.4931 -20.7957 -27.5314 -21.4199 
-4.121 -5.835001 -5.0335 -5.869 -2.186 -8.395 0 
-7.6595 -11.142 -11.9585 -7.525001 -11.7914 -8.395 
-13.2251 -18.067 -13.6145 -17.6778 -11.7914 
-20.1501 -19.723 -23.7673 -17.6778 
-21.8061 -29.8758 -23.7673 
-5.1845 -3.6885 -2.688 -9.3 -4.2945 -2.186 -12.16972 
-7.323501 -7.076 -13.0618 -14.5345 -6.1025 -15.56612 
-10.7025 -18.0192 -18.2963 -16.3425 -20.02422 
-21.6457 -23.2537 -20.1043 -30.26422 
-26.8802 -25.0617 -34.02602 
