-4.759 
n/a 
n/a 
n/a 
n/a 
-4.759 
n/a 
n/a 
n/a 
n/a 
-4.759 
n/a 
n/a 
n/a 
n/a 
-4.759 
n/a 
n/a 
n/a 
n/a 
-5.4885 -2.186 -1.4985 -3.0835 -3.5015 -1.7565 -5.8935 -4.5335 -4.481 
-7.5015 -3.339 -3.535 -5.07 -4.783 -7.314001 -10.575 -10.177 
-8.505 -4.8925 -5.213 -7.463 -11.0379 -12.2741 -16.2185 
-9.702001 -7.189 -7.5955 -14.1593 -15.998 -17.9176 
-12.4005 -9.311001 -14.4162 -19.1194 -21.6415 
-3.0835 -4.2635 -1.7695 -5.4525 0 
-7.152 -7.1385 -7.874001 -5.4525 
-10.025 -13.8038 -7.874001 
-16.8433 -13.8038 
-16.8433 
-4.481 -3.326 -1.756 -4.719 -1.934 -5.4885 0 
-7.123501 -4.4115 -6.8815 -6.2925 -6.47 -5.4885 
-8.561501 -8.6955 -8.02 -11.7153 -6.47 
-13.2065 -9.872001 -13.7256 -11.7153 
-14.383 -15.5212 -13.7256 
-5.4885 -3.557 -4.2285 -4.4525 -1.7565 -4.418 -5.4525 0 
-9.546 -7.693501 -8.64 -4.6715 -5.77 -7.904 -5.4525 
-13.8153 -12.8342 -9.2805 -9.415501 -10.341 -7.904 
-18.956 -13.4747 -14.1123 -14.2071 -10.341 
-19.5965 -18.3065 -18.9039 -14.2071 
