-4.759 
n/a 
n/a 
n/a 
n/a 
-4.759 
n/a 
n/a 
n/a 
n/a 
-4.759 
n/a 
n/a 
n/a 
n/a 
-4.759 
n/a 
n/a 
n/a 
n/a 
-3.436 -4.6105 -4.4485 -4.153 0 -11.0905 -10.4535 -2.5045 -12.16972 -3.9725 -5.1605 -1.934 -1.4985 -4.675 -1.7565 -12.16972 0 
-7.696 -8.942501 -6.742001 -4.153 -11.0905 -21.544 -12.958 -15.59162 -16.14222 -8.371 -6.4305 -2.6125 -5.72 -6.019 -14.87542 -12.16972 
-12.734 -9.976501 -6.742001 -16.1261 -21.544 -24.0485 -26.04512 -19.56412 -20.54072 -9.528001 -7.387 -7.838 -6.539501 -20.01452 -14.87542 
-14.6033 -10.0401 -19.4167 -26.5796 -24.0485 -37.13562 -30.01762 -23.96262 -21.69772 -10.183 -12.9769 -9.135 -20.68762 -20.01452 
-14.6033 -23.1638 -29.8702 -29.0841 -37.13562 -41.10812 -34.41612 -25.11962 -22.35272 -15.9095 -14.2739 -23.35312 -20.68762 
-4.4175 -4.4145 -4.153 0 -11.0905 -10.4535 -3.9725 -2.8645 -5.1605 -1.934 -7.400001 -3.9075 -4.675 
-9.540501 -6.7345 -4.153 -11.0905 -21.544 -14.426 -6.5895 -6.3835 -6.4305 -8.882001 -8.385501 -7.855 
-10.623 -6.7345 -16.1261 -21.544 -25.5165 -17.043 -9.887501 -7.5965 -14.0059 -9.954 -12.712 
-10.623 -19.341 -26.5796 -25.5165 -28.1335 -20.341 -11.1347 -15.6701 -15.0779 -14.3477 
-23.2295 -29.7945 -30.5521 -28.1335 -31.4315 -21.5882 -19.2083 -16.7421 -19.4716 
-1.4985 -4.253 -2.95 -1.7565 -8.183001 -4.153 -1.4985 -12.16972 -3.9725 -4.954 -1.4985 -3.5015 -1.934 -8.641001 0 
-5.429501 -6.836 -4.3785 -10.232 -12.277 -5.544001 -14.76202 -16.14222 -9.437 -6.260001 -4.737 -4.704 -10.907 -8.641001 
-7.9215 -8.347 -14.2675 -15.9042 -14.6087 -19.13332 -18.73452 -21.60672 -9.887 -8.538501 -6.554501 -14.1778 -10.907 
-8.765 -18.4864 -19.4542 -17.9867 -28.19802 -23.10582 -24.19902 -22.05672 -12.1655 -9.776001 -16.3257 -14.1778 
-19.1832 -23.6731 -21.5367 -31.57602 -32.17052 -28.57032 -24.64902 -24.33522 -13.403 -19.579 -16.3257 
-1.4985 -4.971 -1.934 -1.4985 -3.912 -1.7565 -9.000501 -2.9705 -4.196 -3.595 -5.32 -2.264 -3.091 -5.4195 -1.756 -4.875 -2.0935 -3.595 -3.135 -4.0305 -1.7565 -6.208 -3.9225 -1.4985 -3.54 -5.671 -6.074 0 
-5.9735 -6.786 -2.6125 -5.627501 -6.0505 -10.082 -10.985 -6.772 -7.4615 -7.784501 -6.523 -4.534 -6.6725 -6.6225 -6.2375 -6.7455 -4.819 -6.167 -5.254001 -4.6115 -7.4785 -9.1835 -4.463 -4.529 -9.182 -9.726001 -6.074 
-7.6615 -7.322001 -6.6485 -6.504 -14.928 -12.1239 -14.7865 -8.764501 -10.0345 -8.881001 -8.122001 -7.343 -7.502 -10.4035 -8.1705 -8.391 -7.9425 -8.372001 -5.316501 -9.606501 -9.978001 -9.625 -6.5325 -9.503 -13.4904 -9.726001 
-8.412001 -10.5425 -7.534 -15.6987 -16.9699 -15.9254 -16.779 -11.5383 -11.6514 -9.915501 -9.908501 -8.1905 -11.4826 -12.5815 -9.475 -11.9799 -10.443 -8.3765 -10.1805 -12.3202 -10.5375 -11.6945 -11.7653 -14 -13.4904 
-11.7689 -10.57 -16.8695 -17.7406 -20.7714 -17.9179 -19.5528 -13.1552 -12.6859 -11.7726 -10.415 -12.3921 -13.6606 -13.886 -13.3831 -14.4804 -10.4565 -13.3467 -12.8942 -12.8797 -12.607 -16.9273 -16.2623 -14 
