-4.759 
n/a 
n/a 
n/a 
n/a 
-4.759 
n/a 
n/a 
n/a 
n/a 
-4.759 
n/a 
n/a 
n/a 
n/a 
-4.759 
n/a 
n/a 
n/a 
n/a 
-23.8285 -4.1455 -3.394 -2.9825 
-25.4044 -6.6125 -6.151 
-27.3789 -9.718 
-30.4844 
n/a 
-10.738 -17.3195 -4.1455 -7.5455 
-28.5337 -22.0344 -12.821 
-32.7724 -30.7099 
-41.4479 
n/a 
-9.493501 -6.890501 0 -3.8015 -1.7565 -7.4445 -4.1455 
-16.6642 -6.890501 -3.8015 -5.157 -9.308001 -8.264001 
-16.6642 -11.1682 -5.157 -13.5439 -10.7035 
-20.9419 -12.5237 -13.5439 -14.9394 
-22.2974 -20.9106 -14.9394 
-9.493501 0 -6.890501 0 -8.004001 -4.3155 -3.8015 
-9.493501 -6.890501 -6.890501 -8.004001 -10.586 -7.487 
-16.6642 -6.890501 -15.3707 -10.586 -13.7575 
-16.6642 -15.3707 -17.9527 -13.7575 
-25.1444 -17.9527 -21.1242 
