-4.759 
n/a 
n/a 
n/a 
n/a 
-4.759 
n/a 
n/a 
n/a 
n/a 
-4.759 
n/a 
n/a 
n/a 
n/a 
-4.759 
n/a 
n/a 
n/a 
n/a 
-3.0415 0 -8.842501 -4.493 -2.5045 -4.4885 -3.5015 -2.0935 -5.822001 -4.0585 -1.4985 -4.3955 
-3.0415 -8.842501 -13.5849 -6.2115 -8.0535 -9.4025 -4.7905 -8.042 -9.583501 -4.7185 -4.95 
-12.9748 -13.5849 -15.3034 -12.3957 -13.5279 -10.7381 -11.4194 -12.2951 -10.2105 -6.748 
-17.7172 -15.3034 -21.4876 -17.8701 -14.8635 -17.367 -15.6725 -12.9221 -12.24 
-19.4357 -21.4876 -26.962 -19.2057 -21.4924 -21.6201 -16.2995 -14.9516 
-8.842501 -2.8645 -1.4985 -5.377 -10.24 
-11.9564 -4.3545 -6.459001 -16.5838 
-13.4464 -8.9915 -18.1652 
-18.0834 -21.0369 
-30.1288 
-3.0415 0 -4.5275 -2.3335 -1.4985 -3.9725 -5.1235 -3.956 -4.7285 0 -1.4985 -4.3095 -4.493 -8.842501 
-3.0415 -4.5275 -5.7755 -3.3515 -4.88 -9.396 -8.780001 -6.1665 -4.7285 -1.4985 -5.105 -10.3801 -14.4489 
-7.4405 -5.7755 -6.441 -6.6 -10.733 -13.3871 -11.8251 -6.1665 -6.2355 -5.105 -12.6754 -20.336 
-8.109 -6.441 -9.9425 -13.0332 -14.7241 -16.4322 -11.8251 -7.6975 -10.7175 -12.6754 -22.6313 
-8.9125 -9.9425 -16.3309 -17.0243 -17.7692 -16.4322 -13.3561 -12.4203 -18.2879 -22.6313 
-11.128 -2.7415 -4.493 -1.934 -1.4985 -4.1365 0 
-13.8695 -5.5985 -5.1865 -2.6125 -4.6595 -4.1365 
-16.7265 -6.158 -6.0855 -5.95 -4.6595 
-17.286 -6.884501 -9.065001 -5.95 
-18.0125 -10.0426 -9.065001 
