-4.759 
n/a 
n/a 
n/a 
n/a 
-4.759 
n/a 
n/a 
n/a 
n/a 
-4.759 
n/a 
n/a 
n/a 
n/a 
-4.759 
n/a 
n/a 
n/a 
n/a 
-2.4265 -3.9535 -1.934 -1.4985 -7.771001 0 -1.756 -4.281 -2.5045 -5.1845 -6.844 -1.934 -4.8115 -1.7565 -6.6585 -1.756 -2.4265 -2.186 -1.8085 -4.2995 -2.3335 -4.417 -5.707 -3.59 -3.519 -5.1845 -6.844 
-5.668 -5.3325 -2.6125 -8.035 -7.015 -1.756 -6.2145 -5.893 -8.208 -6.9655 -7.721 -6.1155 -6.092 -8.343 -8.549 -3.949 -3.292 -3.164 -5.870501 -6.139 -6.9945 -10.884 -8.967001 -8.1245 -9.1835 -6.9655 
-6.9225 -6.08 -9.175 -8.088 -8.8745 -6.2145 -7.847501 -11.9573 -9.786501 -7.7355 -13.1455 -8.619 -13.2911 -9.714001 -10.76 -4.7355 -4.4005 -6.8875 -6.908501 -11.3956 -13.9605 -14.144 -13.7215 -14.0734 -11.4563 
-7.6195 -11.2395 -8.584001 -9.3395 -12.4982 -7.847501 -14.0362 -13.5358 -10.8087 -13.337 -15.649 -16.1337 -14.6621 -11.9494 -11.5465 -5.92 -7.886 -7.8955 -12.4201 -18.3616 -17.2205 -18.8985 -19.6704 -16.3462 
-11.928 -10.2275 -9.610001 -12.9414 -14.3052 -14.0362 -15.6147 -14.558 -16.4102 -15.8405 -23.1637 -17.5047 -16.8975 -12.7359 -12.731 -9.502501 -8.5985 -13.6793 -19.3861 -21.6216 -21.975 -24.8474 -21.9432 
-2.3615 -3.9235 -2.7415 -3.9535 -2.264 -4.613 0 -1.934 -3.5455 -6.6585 -2.3615 -3.9235 -2.186 -3.849 -1.934 -3.098 -1.7565 -5.1845 -6.844 0 -2.3615 -3.9235 -4.1335 -1.7695 -3.2345 -5.707 -3.59 -2.0935 -5.1845 -3.1385 0 
-5.7745 -6.377501 -5.83 -5.513 -8.099001 -4.613 -1.934 -4.8495 -10.419 -9.6415 -5.7745 -5.6195 -4.8565 -5.735 -5.752501 -4.3615 -6.580501 -6.9655 -6.844 -2.3615 -5.7745 -7.232501 -5.6845 -3.713 -8.499001 -8.967001 -5.627 -7.298 -7.4095 -3.1385 
-7.5795 -8.415501 -7.1055 -11.9674 -8.099001 -6.638 -4.8495 -12.8212 -13.402 -13.2093 -6.5635 -8.147501 -6.6665 -10.1115 -7.015 -9.885 -7.1625 -6.9655 -9.392 -5.7745 -9.4345 -9.671501 -7.5405 -8.9115 -12.0574 -10.335 -10.7335 -9.289001 -7.4095 
-9.212501 -10.533 -13.6837 -11.9674 -9.896501 -9.68 -12.8212 -15.8042 -16.9698 -13.9983 -9.1155 -10.4105 -11.3384 -11.374 -12.5029 -10.53 -7.1625 -9.589001 -13.0622 -9.4345 -12.2675 -11.5275 -13.082 -12.6211 -13.4254 -15.4415 -12.7245 -9.289001 
-11.4264 -17.1112 -13.6837 -13.7649 -13.0885 -17.4269 -15.8042 -19.372 -17.7588 -16.5503 -11.6635 -15.0824 -12.6009 -16.8619 -13.1479 -10.53 -9.867001 -13.317 -16.7222 -12.2675 -14.1235 -17.069 -16.7916 -13.9891 -18.5319 -17.4325 -12.7245 
-2.3615 -3.2795 -2.186 -3.9535 -1.934 -4.613 -2.356 -1.4985 -4.4905 -1.7565 -4.2775 -3.59 -2.0935 -1.4985 -3.1385 -3.8245 -1.934 -8.404 -3.892 0 
-4.9565 -5.099 -5.962501 -5.3325 -5.7765 -6.8915 -3.1615 -5.2295 -5.283501 -6.1635 -7.607 -5.627 -2.9725 -4.2575 -5.577001 -4.7245 -9.762001 -12.8728 -3.892 
-6.0255 -8.84 -7.343 -8.036 -7.447001 -7.126 -5.8685 -5.3985 -10.5797 -9.908501 -9.269501 -6.553 -5.5795 -6.7355 -5.9835 -13.3203 -14.6342 -12.8728 
-9.908 -10.5975 -10.5251 -9.126 -8.014501 -9.539001 -5.9445 -10.7963 -14.3247 -11.571 -9.9735 -8.674001 -7.85 -7.0375 -14.9531 -18.1925 -14.6342 
-11.8085 -13.7796 -11.6151 -9.566 -9.609501 -9.610001 -11.8177 -14.5413 -15.9872 -12.275 -12.2033 -11.2309 -8.1295 -16.2267 -19.8253 -18.1925 
-2.3615 -4.5675 -1.934 -1.4985 -4.142 -3.355 -1.7565 -4.628 -4.743 -4.1085 -1.8085 -5.707 -4.1265 -2.5195 -4.628 -4.743 -2.0935 -5.1845 -3.1385 -1.756 -2.925 -4.5485 -1.4985 -3.6825 -1.934 -1.4985 -3.158 -4.613 0 
-6.74 -6.215 -2.6125 -5.0295 -6.3015 -3.725 -6.107501 -4.7515 -9.711 -5.6425 -6.3 -9.3155 -6.5675 -6.806 -4.7515 -7.322001 -7.298 -7.4095 -4.6325 -4.2585 -6.605 -5.7605 -4.87 -5.357 -2.6125 -4.178 -7.015 -4.613 
-8.4675 -6.815 -5.665 -6.369 -6.351 -8.3265 -6.281001 -9.743501 -11.3292 -9.658501 -9.426001 -10.311 -11.4602 -6.9295 -7.329 -10.404 -9.289001 -8.628 -6.538 -7.9775 -7.3405 -8.975 -6.47 -5.999 -5.265 -8.088 -7.015 
-9.135 -9.7495 -6.656001 -6.401 -9.1675 -8.428 -10.5635 -11.3815 -15.3452 -12.9271 -10.4281 -15.6793 -11.5837 -8.0235 -10.4105 -12.6996 -10.6269 -10.76 -10.316 -8.580501 -10.341 -10.0785 -7.1645 -8.8855 -8.584001 -8.088 
-12.1947 -10.8569 -6.678 -9.290501 -9.1715 -12.9601 -12.2015 -15.3975 -18.6138 -13.9292 -15.7964 -15.8028 -12.6777 -12.1742 -12.7135 -14.0375 -12.7589 -14.538 -10.919 -11.7086 -11.4445 -10.773 -10.0125 -12.5327 -8.584001 
