-4.759 
n/a 
n/a 
n/a 
n/a 
-4.759 
n/a 
n/a 
n/a 
n/a 
-4.759 
n/a 
n/a 
n/a 
n/a 
-4.759 
n/a 
n/a 
n/a 
n/a 
-1.934 -2.3615 -5.5785 -3.251 -2.6165 -5.2835 0 -4.064 -2.9805 -3.43 -2.664 -4.4755 -1.7695 -1.4985 -4.8625 0 
-3.539 -8.7735 -7.855 -4.9545 -7.0815 -5.2835 -4.064 -6.0305 -5.2875 -5.286 -6.1245 -6.321 -2.7955 -5.7415 -4.8625 
-10.634 -11.3734 -9.572001 -7.8985 -7.0815 -8.953501 -6.0305 -8.2185 -6.932001 -10.1305 -8.438001 -6.934 -7.025001 -5.7415 
-13.2339 -13.0904 -12.5474 -7.8985 -10.4765 -10.5755 -8.2185 -9.617001 -11.8933 -12.444 -8.9785 -11.7191 -7.025001 
-14.9509 -16.0658 -12.5474 -11.4611 -12.0985 -12.7635 -9.617001 -14.6215 -14.2068 -12.9845 -13.9144 -11.7191 
-5.5785 -3.5745 -2.6165 -4.02 -1.934 -2.3615 -3.6505 0 -2.872 -2.9805 -3.2345 -4.4755 -1.7695 -2.985 -4.9225 0 
-8.3105 -4.114 -7.655001 -5.174 -3.539 -5.4725 -3.6505 -2.872 -4.6545 -6.6905 -8.6645 -6.321 -4.281 -7.323 -4.9225 
-8.7115 -9.395 -8.918 -6.657 -6.679 -5.4725 -6.238 -4.6545 -9.145 -12.5293 -9.992001 -8.366 -8.649501 -7.323 
-14.0973 -10.229 -10.7605 -10.0215 -6.679 -8.01 -8.0485 -9.145 -15.0788 -13.8568 -12.0268 -13.0023 -8.649501 
-14.9313 -12.2131 -14.125 -10.0215 -8.9775 -9.743501 -12.6502 -15.0788 -16.4063 -15.8916 -16.6631 -13.0023 
-3.929 -2.9805 -3.5745 -5.651501 -4.9205 -1.934 -2.3615 0 -2.9805 -3.8755 -1.8085 -3.914 -3.9225 -1.4985 -4.8625 -3.2295 -3.0365 0 
-5.378 -4.8665 -9.1155 -8.726501 -5.4155 -3.539 -2.3615 -2.9805 -6.089001 -5.0255 -5.803 -7.0045 -4.463 -5.7415 -8.104 -5.5585 -3.0365 
-6.8805 -8.5295 -13.022 -11.255 -6.923501 -3.539 -5.7 -6.089001 -6.8995 -8.521 -10.2485 -7.7005 -7.3275 -8.7775 -9.89 -5.5585 
-10.5045 -14.6377 -14.5172 -12.832 -6.923501 -7.08 -8.741501 -6.8995 -10.5742 -13.3653 -10.9445 -10.3675 -10.476 -10.8743 -9.89 
-16.6394 -15.6049 -16.0942 -12.832 -9.601501 -10.3185 -9.3245 -10.5742 -15.4185 -14.0613 -13.6115 -13.7068 -12.5728 -10.8743 
-2.9805 -2.186 -2.6165 -3.9955 -1.4985 -4.319 -2.872 -2.9805 -3.5185 -1.8085 -7.166 -2.0935 -3.502 -3.976 -3.402 -4.8625 0 
-4.1635 -3.5105 -6.6125 -5.0175 -5.231501 -6.5655 -4.6545 -7.6775 -4.072 -10.3345 -8.7165 -5.7505 -4.3935 -7.4345 -9.4665 -4.8625 
-5.4975 -8.090501 -7.7495 -7.624001 -7.3955 -7.9395 -10.159 -8.3675 -13.7812 -11.885 -12.6869 -6.4385 -7.799 -13.859 -9.4665 
-10.064 -9.378 -10.3675 -8.832001 -8.6505 -13.5536 -11.1954 -18.2349 -15.3317 -15.8554 -13.3749 -9.475 -14.1781 -13.859 
-11.7631 -12.1682 -11.5755 -9.896 -14.2864 -14.59 -21.0628 -19.7854 -19.3021 -16.5434 -16.4114 -16.1285 -14.1781 
