-4.759 
n/a 
n/a 
n/a 
n/a 
-4.759 
n/a 
n/a 
n/a 
n/a 
-4.759 
n/a 
n/a 
n/a 
n/a 
-4.759 
n/a 
n/a 
n/a 
n/a 
-3.135 -3.432 -3.8235 -2.7295 -3.6785 -3.135 -3.423 -3.254 -3.319 -1.4985 -6.1335 -2.9775 -3.5165 -3.6785 -3.013 0 
-7.7025 -8.155001 -6.505 -5.462 -6.5155 -7.663001 -6.2755 -6.449 -5.0895 -7.653001 -10.3285 -6.561 -7.511001 -7.4705 -3.013 
-12.7989 -11.1293 -8.5185 -8.564501 -11.3631 -10.9865 -9.023001 -8.0395 -12.168 -12.1728 -13.912 -11.7335 -11.6408 -7.4705 
-15.7732 -13.1428 -11.7538 -13.5007 -14.6866 -13.734 -9.834001 -15.4484 -16.6878 -15.7563 -19.0845 -15.8633 -11.6408 
-17.7867 -16.3781 -16.69 -16.8242 -17.4341 -14.545 -17.9867 -19.9682 -20.2713 -20.9288 -23.2143 -15.8633 
-3.135 -3.16 -4.861 -4.243 -3.5795 -1.4985 -3.013 -4.81 -3.2615 -5.061 -1.4985 -3.5865 -3.5775 
-6.429 -5.6705 -6.87 -7.284 -4.5845 -5.357 -7.740001 -8.274501 -6.856 -5.746 -5.009 -6.603001 
-7.736001 -6.930501 -10.322 -7.7955 -8.0655 -8.110001 -11.9539 -12.3576 -7.3095 -7.9315 -7.037001 
-10.1635 -10.4765 -10.4865 -11.7323 -9.344001 -12.6377 -16.037 -12.8111 -9.252501 -8.002501 
-13.8343 -10.528 -15.3015 -13.0108 -14.3473 -16.7208 -16.4905 -14.7541 -9.282001 
-3.135 -3.16 -2.911 -4.7615 -12.16972 -2.5045 -1.4985 -4.193 -1.7565 -1.4985 -3.8235 -3.034 -2.7295 -3.319 -1.4985 -3.8235 -1.934 -3.423 -3.944 -1.756 -3.5165 -3.5865 -4.0105 0 
-6.429 -4.9445 -8.631001 -17.99502 -14.67422 -3.1915 -4.594501 -4.7225 -2.4195 -4.53 -6.705 -4.536 -7.3675 -5.0895 -4.53 -5.598001 -6.6265 -5.91 -5.306 -5.2095 -6.562 -7.458 -4.0105 
-9.106001 -11.9307 -22.24172 -20.49952 -15.36122 -5.0525 -4.7895 -5.081 -5.455501 -7.487 -8.092501 -8.390501 -8.502501 -6.627 -6.47 -9.663501 -7.7045 -7.1525 -7.93 -7.0645 -9.488501 -7.458 
-16.5274 -25.54142 -24.74622 -21.18652 -17.22222 -5.154 -5.1135 -7.8035 -7.926501 -8.755501 -12.0758 -9.491001 -10.2535 -8.225 -11.0385 -10.1095 -8.998 -8.290501 -9.13 -10.3604 -9.488501 
-30.13812 -28.04592 -25.43322 -23.04752 -17.32372 -5.46 -8.04 -10.426 -9.307501 -12.8298 -13.1763 -11.3434 -11.8515 -13.7581 -11.4845 -11.6886 -9.901 -9.988501 -12.9961 -10.3604 
-3.034 -1.8085 -3.2945 -5.1275 -2.664 -5.0505 -3.8235 -1.934 -1.4985 -3.423 -3.944 -1.756 -4.316 -1.4985 -3.5865 -3.5775 0 -3.135 -4.861 -2.742 -4.243 -6.628 -1.4985 -3.013 0 -2.5045 -1.4985 -4.81 -2.0935 -2.3335 -3.4605 0 
-4.4665 -4.6585 -6.711 -7.0175 -6.1965 -8.752001 -5.598001 -2.6125 -4.959001 -5.91 -5.306 -6.555501 -5.48 -5.009 -6.603001 -3.5775 -3.135 -6.414001 -6.7895 -5.31 -7.92 -6.998 -5.357 -3.013 -2.5045 -3.583 -5.9585 -6.509001 -4.488501 -6.411 -3.4605 
-6.022 -7.382 -8.008 -10.1425 -9.3575 -10.5435 -6.1375 -6.028501 -6.177001 -7.1525 -9.906001 -7.2485 -9.021 -7.037001 -6.603001 -7.498 -6.414001 -7.963 -8.6115 -10.6236 -8.3015 -11.4125 -5.357 -7.2325 -3.583 -7.657001 -7.4035 -8.7705 -8.137001 -6.411 
-7.761001 -8.6185 -10.3035 -13.6401 -11.3162 -11.083 -9.228001 -6.364501 -7.431001 -12.7441 -10.4075 -10.1545 -9.2155 -7.037001 -9.834001 -10.186 -7.963 -9.588 -14.2893 -11.0051 -12.914 -11.4125 -8.105 -8.418501 -7.657001 -8.18 -9.372001 -12.856 -8.137001 
-8.9475 -11.0746 -14.1157 -15.5988 -11.8557 -14.1735 -9.5135 -7.7835 -13.1558 -13.2456 -13.5763 -10.3675 -9.2155 -10.092 -10.5565 -11.9718 -9.588 -15.422 -14.6708 -15.6176 -12.914 -14.1605 -9.0985 -13.0365 -8.18 -10.6625 -13.9359 -12.856 
