-4.759 
n/a 
n/a 
n/a 
n/a 
-4.759 
n/a 
n/a 
n/a 
n/a 
-4.759 
n/a 
n/a 
n/a 
n/a 
-4.759 
n/a 
n/a 
n/a 
n/a 
-5.6995 -3.0835 -3.0835 -4.4695 -1.7565 -5.748 -6.749001 -1.934 -5.54 -1.8085 -5.2475 -1.7695 -5.28 -6.421 -1.4985 -3.452 -1.7565 -3.8655 0 
-9.7885 -6.4475 -7.404 -5.5145 -7.683001 -13.1376 -8.7075 -6.9715 -7.976001 -6.4315 -6.31 -7.376501 -7.573 -8.134501 -4.4485 -4.8515 -5.196 -3.8655 
-13.1525 -11.3594 -8.367001 -12.2236 -15.3254 -15.0961 -14.0532 -8.7705 -9.732501 -6.969 -8.618 -8.537001 -9.188001 -11.4115 -5.398 -9.101501 -5.196 
-18.0644 -12.3224 -15.3075 -19.866 -17.2839 -20.4418 -15.8522 -10.5894 -9.761001 -8.784 -8.67 -10.085 -12.6166 -12.361 -10.5125 -9.101501 
-19.0274 -19.2629 -22.9499 -21.8245 -22.6296 -22.2408 -17.6711 -10.6179 -9.799001 -8.797501 -10.27 -13.5136 -13.5661 -17.4755 -10.5125 
-4.5595 -6.0505 -2.186 -1.4985 -3.0835 -3.6765 -1.7695 -3.047 -1.4985 -5.7995 -5.54 -2.9805 -4.0385 -1.8085 -3.452 -4.281 -1.8085 -5.2475 -1.7695 -5.28 -10.0325 -2.5195 -2.3335 -3.8655 -2.186 -1.4985 -3.098 -3.3425 -2.3345 -3.769 
-7.5125 -8.421 -3.339 -3.535 -5.29 -4.951 -3.768 -4.095 -8.394501 -10.9555 -7.866501 -5.479 -5.393001 -4.787 -7.758 -6.0265 -6.4315 -6.31 -7.376501 -14.617 -13.9335 -4.9535 -6.6225 -5.968 -3.339 -4.3095 -6.1255 -7.149 -5.517 
-9.9945 -9.705001 -4.8925 -5.5235 -5.6535 -7.294 -4.6855 -11.8935 -13.551 -11.5065 -9.7355 -6.529 -6.547501 -8.2685 -9.574 -11.3689 -6.969 -8.618 -17.2003 -17.709 -15.28 -10.2925 -7.4445 -6.9385 -5.6145 -8.168 -10.4765 -10.4265 
-11.2785 -11.3267 -7.195 -5.661 -8.2795 -8.1075 -12.7847 -16.6218 -14.9806 -13.429 -10.295 -7.469 -9.267 -10.034 -14.937 -11.9064 -8.784 -20.1364 -20.2923 -19.0555 -21.3924 -11.1145 -8.645 -10.007 -10.4072 -12.2658 -13.754 
-12.9002 -13.6292 -7.517 -8.309001 -8.734501 -16.5037 -17.519 -17.8238 -16.9031 -14.0885 -11.235 -10.2475 -11.1917 -15.397 -15.4745 -13.7214 -20.52 -23.2284 -21.6388 -25.1679 -22.2144 -12.315 -12.0719 -14.6199 -14.505 -15.5433 
-5.748 -6.0505 -2.186 -1.4985 -3.0835 -1.7695 -3.3165 -3.6215 -3.8655 -1.756 -1.934 -5.54 0 -1.934 -3.091 -3.452 -5.2475 -1.7695 -5.28 -6.421 0 -2.9805 -6.4095 -1.4985 -3.098 -3.8655 -1.934 -2.9645 0 
-9.1545 -8.421 -3.339 -3.535 -4.578 -4.0585 -5.881001 -6.4685 -5.2725 -4.0205 -6.9715 -5.54 -1.934 -4.2105 -5.5575 -8.728001 -6.31 -7.376501 -7.573 -6.421 -2.9805 -8.189001 -7.2025 -4.3095 -7.9735 -5.918 -5.036 -2.9645 
-11.6688 -9.705001 -4.8925 -4.658 -6.9935 -6.2705 -9.6125 -7.0375 -7.281 -8.6875 -6.9715 -7.423501 -4.2105 -6.003 -9.6815 -9.6295 -8.618 -8.537001 -7.573 -9.807001 -8.189001 -8.616501 -9.450001 -9.039001 -10.504 -9.921 -5.036 
-12.9528 -11.3267 -6.417 -7.105 -9.820001 -9.8605 -10.3305 -9.005501 -12.3854 -8.6875 -8.363001 -9.683001 -6.003 -10.0065 -10.453 -11.9787 -8.67 -8.537001 -10.0745 -15.1003 -8.616501 -10.757 -14.0185 -10.718 -14.507 -9.921 
-14.5745 -12.8512 -8.1995 -9.969501 -13.6782 -10.7055 -12.2985 -14.2813 -12.3854 -10.2706 -10.494 -11.4755 -10.0065 -10.754 -12.8022 -12.0307 -8.67 -10.316 -15.4842 -15.5278 -10.757 -15.3255 -15.6975 -14.721 -14.507 
-5.748 -10.2885 -2.664 -3.6085 -5.382 -4.0555 -3.6215 -3.8655 -2.0935 -1.4985 -3.0835 -1.756 -2.9805 -4.0385 -3.452 -3.849 -1.8085 -5.2475 -1.7695 -5.28 -6.421 -1.934 -2.9705 -2.9805 -3.2955 -1.4985 -3.8235 -3.8655 -3.0415 -3.908 -2.3335 -2.4265 -4.3195 -3.0415 -4.4695 
-16.6771 -12.9525 -5.588 -8.277 -8.901501 -6.5845 -6.4685 -6.223001 -2.9725 -3.535 -4.7735 -4.3555 -5.479 -8.161501 -6.285 -5.169 -6.4315 -6.31 -7.376501 -7.573 -8.179501 -4.051 -4.783 -5.6305 -4.8715 -4.53 -8.4835 -7.0845 -5.682 -6.2985 -3.913 -5.45 -6.369 -6.8575 
-19.3411 -15.8765 -8.798 -12.0953 -11.7205 -9.9627 -8.251 -7.001 -4.594501 -5.2435 -7.5515 -7.094501 -9.186001 -10.1995 -7.916 -9.4125 -6.969 -8.618 -8.537001 -9.527 -10.647 -5.474 -7.106 -6.574 -6.602 -8.783501 -11.9633 -10.19 -7.0155 -7.671 -6.97 -7.521501 -8.3655 
-22.2651 -19.0865 -12.7939 -14.9143 -15.0987 -11.7452 -9.125501 -7.956501 -6.809 -8.295 -10.6875 -11.1701 -11.4388 -11.8305 -10.1145 -9.988001 -8.784 -8.67 -10.2695 -11.9577 -12.07 -7.949 -8.4055 -7.649 -10.3605 -12.4543 -15.0688 -11.7107 -7.7845 -9.282001 -9.0135 -9.707001 
-25.4751 -23.0824 -15.6129 -18.2925 -16.8812 -12.6197 -10.396 -10.494 -10.1385 -11.6538 -14.7631 -13.4229 -13.0698 -14.029 -11.5932 -12.3902 -8.797501 -10.3475 -12.8016 -13.3807 -14.545 -8.563001 -9.428501 -11.5593 -14.3747 -15.5598 -16.5895 -12.4797 -9.285 -11.5057 -11.2558 
