-4.759 
n/a 
n/a 
n/a 
n/a 
-4.759 
n/a 
n/a 
n/a 
n/a 
-4.759 
n/a 
n/a 
n/a 
n/a 
-4.759 
n/a 
n/a 
n/a 
n/a 
-3.17 -1.7565 -3.9225 -3.152 -5.7565 -2.5195 -4.559 -3.8745 
-4.179 -6.935501 -9.221001 -7.6925 -6.703 -6.4585 -9.0695 
-10.3285 -12.8878 -13.8087 -8.092 -9.986501 -11.5406 
-16.6168 -17.4755 -14.2082 -12.2323 -15.2616 
-21.2045 -17.875 -18.3485 -17.5074 
-4.4285 -1.7565 -3.1495 -3.1385 -2.4945 -3.519 -5.1765 -3.8375 0 
-4.6405 -3.914 -5.148 -4.588 -7.517 -10.159 -9.859001 -3.8375 
-6.274 -5.984 -5.9035 -10.155 -14.4466 -15.2085 -9.859001 
-7.837 -6.909 -11.6367 -17.0846 -19.4961 -15.2085 
-8.4685 -12.6446 -18.5663 -22.1341 -19.4961 
-3.17 -1.7565 -3.277 -5.7565 -2.5195 -1.4985 -4.065 -3.8745 0 
-4.179 -4.25 -8.731501 -6.703 -3.1695 -4.824 -7.5395 -3.8745 
-5.4445 -8.785501 -9.861 -7.357 -6.323 -7.72 -7.5395 
-9.5885 -9.903501 -10.6775 -10.4265 -9.185 -7.72 
-10.7345 -10.7635 -13.747 -13.9483 -9.185 
-3.17 -1.7565 -3.1495 -4.9225 -3.6955 -1.756 -4.657 -1.756 -2.925 -3.6955 -2.5195 -1.4985 -3.8745 -1.7565 -6.982501 0 
-4.179 -3.914 -7.203501 -8.5865 -5.1395 -6.066 -6.045 -4.2585 -5.373 -4.843 -3.1695 -5.655001 -5.8715 -9.0985 -6.982501 
-5.5265 -7.732 -10.4505 -9.738501 -9.774 -7.961 -8.318501 -6.769 -6.272501 -5.604 -7.229 -6.4245 -14.0995 -9.0985 
-9.3395 -11.1362 -11.6025 -14.4878 -11.862 -10.476 -10.9112 -7.931 -7.1835 -9.288501 -7.8645 -14.9805 -14.0995 
-12.8863 -12.2882 -16.3518 -16.5758 -14.377 -13.0687 -12.0732 -8.785001 -11.0588 -9.926001 -16.6503 -14.9805 
