-4.759 
n/a 
n/a 
n/a 
n/a 
-4.759 
n/a 
n/a 
n/a 
n/a 
-4.759 
n/a 
n/a 
n/a 
n/a 
-4.759 
n/a 
n/a 
n/a 
n/a 
-6.3215 -3.251 -1.4985 -3.898 -2.5685 -1.7565 -3.277 -4.9005 
-9.8675 -4.5775 -5 -6.877 -3.887 -4.25 -7.8905 
-11.3074 -7.989 -7.8955 -7.884 -5.2535 -8.526501 
-14.7189 -11.2893 -8.9785 -8.7145 -9.986501 
-18.0192 -12.3723 -10.2585 -13.6237 
-3.332 -6.1075 -1.756 -6.205 -3.152 -3.0415 -4.377 -2.3335 -6.3215 -2.7415 -6.1365 -3.325 -1.4985 -4.8935 0 
-7.9645 -7.201 -7.0985 -9.478001 -5.4325 -6.34 -6.7665 -9.911 -9.058001 -7.689 -7.6615 -3.898 -5.717501 -4.8935 
-8.815001 -9.525001 -9.684 -11.8045 -8.0465 -6.9375 -14.9036 -12.7587 -14.1961 -8.955501 -8.163501 -9.14 -5.717501 
-11.3716 -12.4259 -12.0285 -14.4185 -8.478001 -15.352 -17.7513 -17.8968 -15.4626 -9.301001 -13.8693 -9.14 
-14.2725 -14.7704 -14.6425 -14.85 -16.9621 -18.1997 -22.8894 -19.1633 -15.8081 -15.1024 -13.8693 
-3.898 -4.857 -2.9905 -1.934 -6.3215 -3.433 -1.7565 -8.908 -2.229 -7.0935 -3.519 
-6.9715 -5.9905 -4.5445 -7.453 -10.468 -4.1845 -9.872001 -10.586 -9.3125 -11.1017 
-7.0165 -6.621 -10.553 -12.0447 -10.764 -13.1894 -11.7002 -17.6695 -13.6037 
-7.458 -13.1231 -15.1447 -12.3407 -19.7689 -15.0176 -18.7837 -21.9607 
-14.7123 -17.7148 -15.4407 -21.3456 -21.5971 -22.1011 -23.0749 
-6.3215 -3.2875 -2.7415 -5.166 -2.0935 -8.172 -2.229 -5.004 0 
-8.6905 -5.934 -7.448501 -7.630501 -11.2565 -10.4185 -6.618001 -5.004 
-11.625 -10.757 -9.585501 -17.0853 -13.503 -14.8075 -6.618001 
-16.448 -12.894 -19.2813 -19.3318 -17.892 -14.8075 
-18.585 -22.5898 -21.5278 -23.7208 -17.892 
