-4.759 
n/a 
n/a 
n/a 
n/a 
-4.759 
n/a 
n/a 
n/a 
n/a 
-4.759 
n/a 
n/a 
n/a 
n/a 
-4.759 
n/a 
n/a 
n/a 
n/a 
-1.4985 -9.333 -3.686 -2.4945 -3.383 -3.4915 -1.934 -3.676 -3.5505 -3.9675 0 
-8.2235 -10.2435 -5.311 -4.732 -4.8075 -5.4385 -4.7985 -6.965 -6.823 -3.9675 
-11.8155 -11.1005 -7.93 -6.2865 -6.176001 -8.597501 -8.33 -10.147 -6.823 
-13.4379 -13.7195 -9.346001 -7.236501 -9.543 -12.5132 -11.7386 -10.147 
-16.0569 -15.1355 -10.375 -11.0647 -13.7829 -15.9218 -11.7386 
-3.9675 -3.676 -2.229 -5.3125 -1.7695 -3.898 -1.7565 -5.8705 0 -3.582 0 -5.0555 0 -4.37 -5.0555 0 -4.8285 -4.565 0 -12.16972 -1.756 -9.907001 0 
-8.2395 -4.593 -7.052001 -7.4315 -5.5235 -6.125501 -7.4905 -5.8705 -3.582 -3.582 -5.0555 -5.0555 -4.37 -5.9705 -5.0555 -4.8285 -8.210001 -4.565 -12.16972 -13.92572 -12.6716 -9.907001 
-8.972 -8.764501 -9.525001 -11.5487 -8.5845 -12.5953 -7.4905 -9.5485 -3.582 -7.935 -5.0555 -7.575 -5.9705 -5.9705 -7.912 -8.210001 -8.210001 -17.82572 -13.92572 -24.84132 -12.6716 
-13.2355 -11.5467 -13.6422 -14.6097 -15.2287 -12.5953 -11.5779 -9.5485 -7.935 -7.935 -7.575 -7.729 -5.9705 -8.590501 -11.9269 -8.210001 -21.83072 -19.58172 -24.84132 -24.84132 
-16.0177 -15.6639 -16.7032 -21.2539 -15.2287 -16.6827 -11.5779 -14.0061 -7.935 -9.830001 -7.729 -7.729 -8.590501 -12.8236 -11.9269 -21.83072 -23.58672 -30.49732 -24.84132 
-1.4985 -4.1955 -3.4975 -4.9145 -4.078 -4.3565 0 -3.582 -5.5825 -4.854 0 -3.582 -5.5825 -4.854 -4.633 0 -5.159 0 -4.37 -5.159 0 -4.8285 0 -5.372 -1.756 -4.887 -5.375 0 -3.1495 -3.152 -1.4985 -4.043 -3.5505 -3.9755 -3.2955 -2.3345 -4.303 -4.3665 -1.756 -1.4985 -5.79 -3.982 -5.512 0 
-5.036 -6.564 -6.6075 -8.7325 -9.309 -4.3565 -3.582 -6.3595 -6.534 -4.854 -3.582 -6.3595 -6.534 -7.4665 -4.633 -5.159 -5.159 -4.37 -6.1965 -5.159 -4.8285 -4.8285 -5.372 -6.626 -6.633 -6.093 -5.375 -3.1495 -5.3825 -4.764 -5.182 -7.318501 -7.3145 -6.757 -4.534 -6.468 -5.6325 -5.698501 -3.0405 -6.660501 -9.514001 -8.0725 -5.512 
-7.669001 -8.172001 -9.961 -14.2619 -9.309 -8.1625 -6.3595 -6.5775 -6.534 -7.436501 -6.3595 -6.5775 -10.038 -7.4665 -7.7925 -5.159 -7.537001 -6.1965 -6.1965 -7.595 -4.8285 -8.1035 -6.626 -9.5655 -7.291501 -6.093 -8.666 -5.3825 -6.2645 -8.8555 -8.976001 -11.8337 -10.0675 -7.5885 -7.704 -7.2435 -6.7485 -6.7095 -8.2165 -10.044 -13.7797 -8.0725 
-10.3535 -10.054 -16.1588 -14.2619 -13.3078 -9.007 -6.5775 -6.5775 -7.917001 -7.7075 -6.5775 -10.0745 -10.038 -11.1512 -7.7925 -7.537001 -7.847001 -6.1965 -8.692 -7.595 -8.1035 -8.4895 -9.5655 -9.690001 -7.291501 -9.335501 -10.382 -6.2645 -10.4585 -12.7349 -13.639 -14.5867 -10.832 -11.1633 -7.9855 -8.184 -7.604 -12.4815 -11.7076 -14.3097 -13.7797 
-12.2355 -17.4354 -16.1588 -18.2607 -14.1523 -9.014001 -6.5775 -7.920001 -7.927001 -8.2285 -10.0745 -10.0745 -13.7227 -11.1512 -10.75 -7.847001 -7.847001 -8.692 -8.692 -9.664001 -8.4895 -10.054 -9.690001 -9.690001 -10.13 -11.1003 -11.264 -10.4585 -14.3379 -17.3979 -16.392 -15.3512 -14.4068 -11.4448 -8.9285 -9.482 -13.6574 -15.9726 -15.9733 -14.3097 
-3.9005 -3.4975 -3.5505 -4.273 -5.5265 -5.4205 0 -3.582 -4.854 -3.582 -4.854 -6.3345 0 -5.0555 0 -4.37 -5.0555 0 -4.8285 0 -5.372 0 -1.756 -9.185 -4.831 -3.1495 -2.4945 -3.5005 -4.3435 0 -3.1495 -3.9005 -4.3665 -1.756 -4.129 -3.4795 -5.59 -3.1385 -4.485 -3.5505 -3.686 0 
-7.243501 -6.4545 -9.4805 -10.7495 -10.7495 -5.4205 -3.582 -7.1645 -7.436501 -7.1645 -10.884 -6.3345 -5.0555 -5.0555 -4.37 -5.9705 -5.0555 -4.8285 -4.8285 -5.372 -5.372 -1.756 -11.117 -14.1988 -8.224501 -4.459 -6.844 -7.68 -4.3435 -3.1495 -6.455 -10.0715 -5.698501 -6.031 -8.540001 -9.684501 -9.005 -8.1705 -7.7925 -6.054 -3.686 
-9.668501 -13.0247 -16.007 -15.9725 -10.7495 -8.2945 -7.1645 -8.031501 -9.408501 -13.7871 -10.884 -10.1345 -5.0555 -7.575 -5.9705 -5.9705 -7.912 -4.8285 -8.1035 -5.372 -6.626 -11.117 -16.1308 -17.5923 -9.145 -9.582001 -11.4251 -7.68 -7.488 -6.455 -13.3658 -11.5031 -10.3345 -10.6215 -14.9858 -13.1807 -14.27 -12.1374 -10.259 -6.054 
-16.2387 -19.5512 -21.23 -15.9725 -13.6235 -12.7696 -8.031501 -9.502001 -16.1617 -13.7871 -14.684 -10.1345 -7.575 -7.729 -5.9705 -8.590501 -7.912 -8.1035 -8.1035 -6.626 -16.8614 -16.1308 -19.5243 -18.5128 -14.3786 -14.2091 -11.4251 -11.6911 -11.1697 -13.3658 -14.7974 -16.1391 -14.925 -17.0673 -18.482 -18.4457 -18.2369 -14.6039 -10.259 
-22.7652 -24.7742 -21.23 -18.8465 -18.0986 -13.6366 -9.502001 -16.315 -16.1617 -17.5871 -14.684 -12.654 -7.729 -7.729 -8.590501 -8.590501 -11.8204 -8.1035 -8.4895 -16.8614 -21.8752 -19.5243 -20.4448 -23.7464 -19.0057 -14.2091 -15.4362 -15.3728 -18.0805 -14.7974 -19.4334 -20.7296 -21.3708 -20.5635 -23.747 -22.4126 -20.7034 -14.6039 
