-4.759 
n/a 
n/a 
n/a 
n/a 
-4.759 
n/a 
n/a 
n/a 
n/a 
-4.759 
n/a 
n/a 
n/a 
n/a 
-4.759 
n/a 
n/a 
n/a 
n/a 
-2.7835 -2.4265 -4.474 -1.934 -1.4985 -8.8725 0 -2.4265 -4.1835 -2.5045 -1.4985 -4.8675 -5.084 0 
-4.1745 -6.977 -5.244 -2.6125 -10.111 -8.8725 -2.4265 -6.3 -5.7005 -3.583 -6.176001 -6.2765 -5.084 
-9.486501 -8.146001 -5.7705 -11.6192 -10.111 -11.6426 -6.3 -7.2525 -6.9385 -7.9335 -7.1515 -6.2765 
-10.4275 -8.792001 -15.1022 -11.6192 -12.8811 -15.5161 -7.2525 -9.1615 -11.7064 -9.276501 -7.1515 
-11.0735 -18.1947 -15.1022 -14.3893 -16.7546 -16.4686 -9.1615 -14.0338 -13.0494 -9.276501 
-3.034 -4.4995 -1.934 -4.147 -2.3335 -5.442 -1.4985 -4.147 -3.222 -1.8085 -4.575 0 
-8.505501 -5.663 -6.249 -7.0445 -6.673 -6.463 -5.27 -7.916501 -4.144 -6.269 -4.575 
-10.1475 -10.485 -10.523 -11.7846 -7.415501 -10.2085 -8.286501 -8.508 -8.197001 -6.269 
-14.9695 -14.759 -15.2631 -12.5271 -11.3556 -13.225 -9.0555 -10.703 -8.197001 
-19.2435 -19.4991 -16.0056 -16.4672 -14.3721 -13.994 -11.3129 -10.703 
-2.7835 -4.638 -1.934 -4.147 -2.4265 -2.742 -3.898 -4.147 
-7.9655 -5.472 -6.249 -6.9985 -4.095 -6.8235 -7.120501 
-8.6475 -9.5505 -10.054 -8.7135 -7.959 -10.8626 
-13.302 -13.5033 -12.0008 -12.7389 -12.2249 
-17.2548 -15.4501 -16.0262 -17.0048 
-2.7835 -2.4265 -4.066 -1.934 -4.686 -2.4265 -2.742 -3.5185 -4.575 
-4.1745 -4.728 -5.226 -7.082 -6.939501 -4.095 -5.4405 -10.0195 
-6.476501 -6.3 -11.2192 -9.351501 -8.623001 -6.614 -12.4091 
-7.752501 -12.512 -13.4887 -10.9644 -11.4662 -13.8168 
-14.4231 -14.7815 -15.1016 -13.8076 -18.669 
