-4.759 
n/a 
n/a 
n/a 
n/a 
-4.759 
n/a 
n/a 
n/a 
n/a 
-4.759 
n/a 
n/a 
n/a 
n/a 
-4.759 
n/a 
n/a 
n/a 
n/a 
-4.4245 0 -12.16972 0 -2.0935 -3.6455 0 
-4.4245 -12.16972 -12.16972 -2.0935 -5.3475 -3.6455 
-16.96162 -12.16972 -14.26322 -5.3475 -5.3475 
-16.96162 -14.26322 -17.51722 -5.3475 
-19.05512 -17.51722 -17.51722 
-4.4245 0 -12.16972 0 -3.967 -3.9825 0 
-4.4245 -12.16972 -12.16972 -3.967 -7.397 -3.9825 
-16.96162 -12.16972 -16.13672 -7.397 -7.397 
-16.96162 -16.13672 -19.56672 -7.397 
-20.92862 -19.56672 -19.56672 
-4.4245 0 -12.16972 0 -10.6015 0 
-4.4245 -12.16972 -12.16972 -10.6015 -10.6015 
-16.96162 -12.16972 -22.77122 -10.6015 
-16.96162 -22.77122 -22.77122 
-27.56312 -22.77122 
-4.4245 0 -10.8905 0 -2.0935 -3.783 0 
-4.4245 -10.8905 -10.8905 -2.0935 -6.905 -3.783 
-15.6824 -10.8905 -12.984 -6.905 -6.905 
-15.6824 -12.984 -17.7955 -6.905 
-17.7759 -17.7955 -17.7955 
