-4.759 
n/a 
n/a 
n/a 
n/a 
-4.759 
n/a 
n/a 
n/a 
n/a 
-4.759 
n/a 
n/a 
n/a 
n/a 
-4.759 
n/a 
n/a 
n/a 
n/a 
-1.4985 -2.95 -3.8405 -3.458 -1.4985 -3.859 -4.153 -1.756 -1.4985 -3.8405 -1.7565 -7.9065 -2.186 -4.1205 -1.7695 -2.489 -1.4985 -4.36 -3.7515 -1.7565 -3.8735 0 
-3.9285 -5.133 -6.1295 -4.063 -4.4795 -6.7465 -5.6875 -3.0405 -4.7545 -4.563 -9.744 -10.1385 -5.007 -5.1155 -3.1405 -3.9675 -5.1445 -5.7925 -4.6045 -5.112 -3.8735 
-5.974 -7.2585 -6.719 -7.1365 -7.0345 -8.338 -6.6 -6.683 -5.365 -13.7117 -12.0866 -12.9595 -5.68 -5.2255 -4.568 -7.8815 -6.129 -6.2315 -8.974 -5.112 
-7.4825 -7.819 -9.1955 -9.479 -8.443001 -9.16 -9.5185 -7.136 -14.5569 -16.0543 -14.9076 -13.6325 -5.763 -6.1065 -8.2495 -8.588 -6.3765 -9.392 -8.974 
-7.996 -10.533 -10.5235 -10.636 -9.244 -12.1145 -10.0085 -16.5563 -16.8995 -18.8753 -15.5806 -13.7155 -6.563 -9.265 -8.8195 -8.692 -9.5255 -9.392 
-1.4985 -3.859 -4.153 -6.2015 -5.451 -2.229 -3.8405 -2.186 -3.849 -3.8735 -2.229 -4.36 -3.8405 0 
-4.4795 -6.7465 -10.4115 -12.6539 -6.743 -6.798501 -5.629 -4.8565 -8.059501 -5.3655 -5.962501 -7.8435 -3.8405 
-7.0345 -13.7518 -16.8639 -13.9459 -12.0403 -8.4995 -8.028501 -9.431 -8.791 -8.3025 -8.998501 -7.8435 
-14.2098 -20.2042 -18.1559 -19.2432 -13.7413 -11.1254 -12.9952 -10.444 -10.468 -12.4617 -8.998501 
-20.6622 -21.4962 -23.4532 -20.9442 -16.3672 -16.0921 -14.0082 -12.121 -15.092 -12.4617 
-5.451 -4.0965 -4.9295 -1.934 -4.3365 -4.153 -4.4155 -2.5045 -3.8735 -2.229 -4.36 -3.8405 0 
-10.0545 -9.341001 -6.321 -6.342 -6.8555 -9.200001 -6.2935 -6.573 -5.3655 -5.962501 -7.8435 -3.8405 
-15.4182 -10.635 -11.255 -7.739 -12.7157 -11.2908 -10.8416 -7.3895 -8.3025 -8.998501 -7.8435 
-16.7122 -15.569 -12.652 -14.8776 -14.8065 -15.8389 -11.6581 -10.0445 -12.4617 -8.998501 
-21.6462 -16.966 -19.7906 -16.9684 -19.3546 -16.6554 -14.3131 -14.8793 -12.4617 
-3.859 -4.153 -3.584 -1.4985 -11.0555 -7.532001 -2.95 -5.992 -4.36 -2.95 -1.7565 -3.8735 -2.356 -3.264 0 
-6.7465 -8.436501 -5.0595 -13.6478 -18.5875 -11.6422 -9.3975 -10.4675 -7.625 -4.3785 -5.112 -6.3865 -5.4535 -3.264 
-11.7768 -10.214 -17.7714 -21.1798 -22.6977 -18.0897 -14.0164 -13.7325 -8.4845 -8.5885 -7.3455 -9.9734 -5.4535 
-13.5543 -23.0779 -25.3034 -25.29 -29.1452 -22.7086 -17.2814 -14.592 -13.2211 -11.1936 -11.2146 -9.9734 
-26.4182 -30.6099 -29.4136 -31.7375 -33.7641 -25.9736 -18.1409 -19.3286 -15.8262 -15.0627 -11.2146 
