-4.759 
n/a 
n/a 
n/a 
n/a 
-4.759 
n/a 
n/a 
n/a 
n/a 
-4.759 
n/a 
n/a 
n/a 
n/a 
-4.759 
n/a 
n/a 
n/a 
n/a 
-3.5855 0 -3.188 -4.2235 -4.761 
-3.5855 -3.188 -7.459001 -8.7165 
-7.096001 -7.459001 -12.3722 
-12.0654 -12.3722 
-16.9786 
-3.355 0 -3.188 -8.962501 -4.761 
-3.355 -3.188 -13.2879 -14.0433 
-7.8175 -13.2879 -18.3687 
-18.7132 -18.3687 
-23.794 
-3.7595 0 -4.761 -1.7565 -3.188 -2.229 -3.9675 
-3.7595 -4.761 -6.1095 -5.13 -4.279 -6.094501 
-9.764001 -6.1095 -9.425501 -6.5315 -8.352001 
-11.1537 -9.425501 -11.0682 -10.328 
-14.4697 -11.0682 -14.8647 
-3.74 0 -3.188 -4.2235 -9.7895 
-3.74 -3.188 -7.459001 -15.458 
-7.234 -7.459001 -19.1137 
-10.115 -19.1137 
-23.0693 
