-4.759 
n/a 
n/a 
n/a 
n/a 
-4.759 
n/a 
n/a 
n/a 
n/a 
-4.759 
n/a 
n/a 
n/a 
n/a 
-4.759 
n/a 
n/a 
n/a 
n/a 
-4.571 -5.475 -1.4985 -3.7515 -3.8585 0 -1.756 -3.807 -1.8085 -3.509 -2.915 -1.756 -2.8965 -4.3435 -7.1745 -1.7695 -1.4985 -3.664 0 
-10.0925 -6.1195 -4.4675 -6.759 -3.8585 -1.756 -5.0745 -4.5735 -6.811501 -6.7515 -4.266 -3.751 -7.2005 -12.4236 -9.5325 -2.7955 -5.285501 -3.664 
-10.7235 -9.369501 -6.7885 -6.759 -5.097 -5.0745 -5.851 -9.712501 -10.1185 -8.304 -6.062 -7.8385 -15.9766 -14.7816 -10.662 -6.3565 -5.285501 
-13.9735 -11.8075 -6.7885 -7.942 -7.690001 -5.851 -11.2018 -13.1167 -11.829 -10.4808 -11.3265 -17.3868 -18.3346 -15.9111 -14.223 -6.3565 
-16.4115 -11.8075 -7.962 -10.6465 -8.55 -11.2018 -14.606 -14.8272 -14.0058 -15.7453 -20.8748 -19.7448 -19.4641 -19.4721 -14.223 
-3.7515 -4.1585 -5.279 -2.0935 -4.0915 -1.756 -3.429 -1.8085 -4.898 -1.756 -3.013 -4.2285 -3.326 -1.756 -3.321 -1.4985 -3.824 -3.557 -1.934 -1.4985 -3.326 -3.152 -3.2955 -2.0935 -1.4985 -6.353 
-8.645 -10.6503 -6.462 -6.647501 -5.5865 -4.86 -4.274 -6.423 -6.8 -4.674 -7.734501 -7.6955 -4.4115 -4.0055 -4.481 -5.519501 -7.7965 -4.4175 -2.6125 -4.841001 -6.9135 -5.165 -4.307 -2.9725 -8.062 
-15.3396 -11.8333 -10.6215 -7.905001 -9.290501 -5.7485 -9.693001 -7.8325 -10.096 -8.994 -9.447001 -8.656001 -7.4655 -5.377 -8.201 -9.060501 -8.251 -4.9675 -5.8925 -7.673 -8.6405 -6.095 -5.1685 -10.0855 
-16.5226 -15.9928 -13.0108 -12.1358 -9.986501 -11.4895 -10.762 -11.3991 -14.3304 -11.0865 -10.4275 -11.7876 -9.106001 -9.264 -11.9892 -9.5165 -8.6895 -8.141001 -8.3465 -9.5275 -9.9305 -6.7445 -12.6473 
-20.6821 -18.3821 -17.2416 -12.8318 -15.7091 -12.5585 -14.3286 -15.6335 -16.4229 -12.067 -13.5591 -13.4281 -13.0376 -13.1078 -12.4452 -9.971001 -11.9722 -10.403 -10.1918 -11.0737 -10.614 -14.3405 
-4.0035 -3.222 -3.435 -1.7565 -1.4985 -3.7515 -3.8585 -2.925 -3.5895 -1.4985 -3.716 -2.915 -2.264 -1.8085 -4.015 -3.7695 -3.5005 -1.4985 -4.1435 -3.509 0 
-5.4555 -4.8945 -4.9915 -2.4195 -4.4675 -6.759 -6.7795 -5.511001 -4.64 -4.745 -5.8415 -4.093 -3.5925 -4.5105 -6.5705 -7.334001 -4.372 -5.2245 -7.391001 -3.509 
-5.548 -7.389 -5.425 -5.1155 -6.7885 -9.2565 -8.779 -6.615001 -7.435 -7.395 -6.5575 -5.8395 -5.852 -6.698501 -9.435 -8.178 -8.121 -8.3035 -7.391001 
-7.731 -7.812 -8.443001 -7.614501 -9.265 -11.6152 -9.887501 -9.567501 -9.128 -8.433001 -8.766001 -7.187 -7.088 -9.736501 -9.804501 -12.26 -11.258 -8.3035 
-8.0985 -10.13 -10.5865 -10.071 -11.6215 -12.7237 -12.9554 -11.2877 -10.249 -10.0995 -9.493 -8.101001 -10.1585 -10.1536 -14.7059 -15.397 -11.258 
-2.5685 -1.4985 -3.764 -2.186 -2.7295 -3.3875 -3.429 -1.4985 -8.09 -1.756 -4.2465 -4.795 -2.186 -4.0705 -2.871 -2.871 -5.3055 -1.756 -5.029 -9.160001 -2.4265 -1.756 -3.8905 -1.4985 -3.3365 -2.9195 -1.7695 -2.791 -2.3615 -2.186 -2.5685 -10.1825 -1.7565 -2.3615 -3.6215 -1.756 -3.74 -1.7695 -3.6845 -2.0935 -2.791 0 
-3.7015 -4.874001 -6.122 -5.549 -4.867 -5.524 -4.4635 -9.457001 -9.6425 -5.052 -9.906 -7.1155 -7.538501 -6.262001 -6.068501 -9.121 -6.074 -6.331 -15.5636 -12.0699 -4.303 -5.2115 -5.052 -4.3335 -6.6305 -5.449 -4.385 -5.458 -3.5005 -4.79 -13.7066 -12.3704 -3.523 -6.204 -5.3685 -5.0545 -4.2995 -4.2695 -6.617001 -4.5015 -2.791 
-7.1425 -8.765501 -10.1305 -7.468 -6.618 -6.4925 -12.996 -11.2605 -13.0741 -11.2555 -12.2679 -12.7714 -10.004 -9.625501 -12.6533 -10.7035 -12.0428 -16.9678 -18.4735 -13.9464 -7.088 -6.424 -7.629 -7.454 -10.204 -7.574 -6.6285 -6.3255 -5.7435 -16.6789 -15.8945 -14.1369 -7.1555 -7.659 -9.085001 -5.437 -6.462501 -7.274 -9.062 -4.5015 
-10.3475 -12.721 -12.0495 -9.353001 -7.578 -15.441 -14.7995 -14.6921 -19.2776 -13.6174 -17.9238 -15.2369 -13.5051 -16.2573 -14.2358 -16.6723 -22.6796 -19.8777 -20.35 -16.7314 -8.357 -9.546 -11.9823 -10.553 -12.4684 -9.978001 -7.4475 -8.167 -18.0184 -18.8668 -17.661 -17.7694 -8.372001 -11.7139 -9.265501 -7.65 -10.1265 -9.715 -9.062 
-14.303 -14.64 -13.9345 -10.355 -16.7679 -17.2445 -18.2311 -20.8956 -21.6395 -19.2733 -20.3893 -18.738 -20.1369 -17.8398 -20.2046 -27.3091 -25.5895 -21.7542 -23.135 -18.0004 -11.6794 -13.8555 -15.0813 -12.8174 -14.8724 -10.6785 -9.6405 -21.0029 -20.2063 -20.6333 -21.2935 -18.9859 -12.4807 -11.8944 -11.5509 -11.5146 -12.5675 -9.715 
