-4.759 
n/a 
n/a 
n/a 
n/a 
-4.759 
n/a 
n/a 
n/a 
n/a 
-4.759 
n/a 
n/a 
n/a 
n/a 
-4.759 
n/a 
n/a 
n/a 
n/a 
-2.4265 -2.8645 -4.839 -4.1375 0 -5.292 
-4.1435 -8.398001 -7.8525 -4.1375 -5.292 
-9.486 -11.6515 -7.8525 -8.394001 
-12.7931 -11.6515 -13.6064 
-12.7931 -17.4054 
-2.4265 -2.8645 -4.839 -5.006 0 
-4.1435 -8.398001 -9.717001 -5.006 
-9.486 -13.516 -9.717001 
-14.6576 -13.516 
-14.6576 
-2.4265 -2.8645 -4.839 -4.1375 0 
-4.1435 -8.398001 -7.8525 -4.1375 
-9.486 -11.6515 -7.8525 
-12.7931 -11.6515 
-12.7931 
-2.3615 -2.8645 -4.8665 -4.1375 0 
-4.878 -8.748501 -8.751 -4.1375 
-11.7554 -12.8466 -8.751 
-15.8535 -12.8466 
-15.8535 
