-4.759 
n/a 
n/a 
n/a 
n/a 
-4.759 
n/a 
n/a 
n/a 
n/a 
-4.759 
n/a 
n/a 
n/a 
n/a 
-4.759 
n/a 
n/a 
n/a 
n/a 
-2.9805 -2.8645 -3.9955 -4.36 -4.5905 -1.756 -6.2325 -3.9795 -2.0935 -1.4985 -3.6085 -3.7955 -6.011 -4.0375 -5.4085 0 
-4.3245 -5.568 -7.944 -5.897 -5.674 -7.986001 -7.3845 -5.1125 -2.9725 -5.023 -7.4945 -9.300501 -7.966 -8.1665 -5.4085 
-6.7045 -9.2255 -8.257501 -7.514 -8.9645 -8.7705 -7.878 -6.159 -6.5715 -9.0205 -13.4075 -9.361501 -8.2665 -8.1665 
-10.2805 -9.477 -9.294001 -8.9725 -9.505501 -9.838501 -9.5315 -9.908501 -10.4855 -15.1157 -13.4685 -9.397 -8.2665 
-10.7585 -9.5915 -10.6885 -9.5085 -10.525 -11.5438 -13.3156 -13.9675 -16.5807 -15.1767 -13.504 -9.397 
-2.9805 -2.7415 -1.4985 -3.3195 -8.044001 -2.0935 -1.4985 -4.3685 -3.8195 -6.011 -4.0375 -5.4085 -1.756 -1.934 -1.4985 -3.158 -2.8845 -2.9805 -3.7555 -4.36 -4.5905 -3.9795 0 -8.639501 -3.9795 0 -2.0935 -3.486 -3.8195 
-4.004 -4.063 -4.7185 -9.998501 -9.918001 -2.9725 -5.658501 -6.638 -9.6735 -7.966 -8.1665 -7.104 -4.0205 -2.6125 -4.178 -5.403501 -6.1735 -5.3095 -8.674001 -5.897 -6.8325 -3.9795 -8.639501 -12.9756 -3.9795 -2.0935 -6.009501 -7.3945 
-5.390501 -7.351 -12.0907 -11.8725 -10.7065 -7.418001 -7.653501 -13.1878 -9.8035 -8.2665 -9.607 -9.436501 -4.6845 -5.265 -6.3145 -8.639501 -8.7585 -10.5425 -9.972501 -6.9965 -6.8325 -13.6932 -12.9756 -12.9756 -5.1125 -6.009501 -10.5435 
-8.785501 -15.1102 -13.9647 -12.661 -15.152 -8.824 -14.4847 -13.3178 -9.8475 -9.645 -12.0621 -10.2245 -7.467501 -7.255001 -8.938001 -10.688 -14.1919 -11.841 -11.3178 -6.9965 -17.432 -18.0293 -12.9756 -14.1086 -10.1765 -10.5435 
-17.0155 -16.9842 -14.7532 -17.1065 -16.558 -15.9456 -14.6147 -13.3618 -11.226 -12.1013 -12.8501 -13.0075 -9.528001 -9.224501 -11.0639 -16.1214 -15.4904 -13.1863 -11.3178 -18.3368 -21.7681 -18.0293 -14.1086 -19.1726 -14.7105 
-2.9805 -3.9955 -1.4985 -4.36 -4.5905 0 -8.800501 -3.9035 -2.0935 -3.0835 -2.95 -2.0935 -1.4985 -3.8195 -6.188 -8.9145 
-5.513 -5.0175 -5.1445 -5.897 -4.5905 -8.800501 -13.4072 -5.5085 -5.3095 -4.3945 -4.4955 -2.9725 -4.771 -8.017 -9.814501 
-6.2655 -7.4995 -7.069 -5.897 -14.42 -13.4072 -15.0122 -8.604 -5.867 -6.63 -5.339 -6.207 -8.666 -12.4097 
-8.718 -8.0745 -7.069 -17.2265 -19.0267 -15.0122 -18.1077 -9.5605 -8.7825 -7.479001 -8.6745 -9.572001 -13.0789 
-9.2285 -8.0745 -18.7893 -21.8332 -20.6317 -18.1077 -19.0642 -12.6648 -9.13 -10.553 -12.3887 -13.9797 
-2.9805 -3.7555 -1.4985 -4.36 -4.5905 -3.9795 -1.756 -6.2325 -3.9795 -2.0935 -1.4985 -4.3685 -3.8195 -6.188 -5.4085 -1.934 -2.9705 -2.9805 -3.43 -1.4985 -3.3195 -4.295 
-5.3095 -4.843 -5.1445 -5.897 -6.8325 -5.7275 -7.986001 -7.3845 -5.1125 -2.9725 -5.658501 -6.638 -8.017 -6.3085 -7.3685 -4.051 -4.783 -5.2875 -4.7635 -4.7185 -7.651501 
-6.3935 -8.0845 -7.069 -6.9965 -8.359 -9.005501 -8.7705 -7.878 -6.159 -7.418001 -7.653501 -10.134 -8.0445 -8.5655 -9.256001 -5.474 -7.019001 -6.245501 -7.7775 -8.877501 
-9.8275 -9.8195 -8.123501 -8.373 -10.533 -9.540501 -9.838501 -9.5315 -11.1817 -8.824 -11.4309 -10.1485 -9.8585 -10.115 -10.3965 -7.672 -8.157001 -8.893001 -12.2401 
-11.5625 -10.9642 -9.4215 -10.533 -10.7345 -10.1785 -11.5438 -14.5888 -12.5877 -12.8918 -11.4454 -12.6543 -11.5094 -11.2555 -12.5945 -8.507501 -10.9621 -13.8666 
