-4.759 
n/a 
n/a 
n/a 
n/a 
-4.759 
n/a 
n/a 
n/a 
n/a 
-4.759 
n/a 
n/a 
n/a 
n/a 
-4.759 
n/a 
n/a 
n/a 
n/a 
-2.925 -2.742 -4.535 -1.934 -3.9175 -1.7565 -4.167 -4.1985 -1.756 -4.422 -1.4985 -4.536 -1.7695 -4.975 -1.4985 -3.7075 0 
-4.3725 -7.2185 -6.516 -4.681 -4.64 -6.299 -7.753 -5.794 -5.8065 -6.144001 -6.001 -6.6245 -5.7335 -6.581501 -4.6235 -3.7075 
-8.622001 -9.097 -9.1995 -4.7425 -8.5845 -10.1635 -8.8485 -10.5885 -7.325001 -8.009001 -7.912 -10.757 -7.199 -9.517501 -4.6235 
-10.543 -11.8905 -9.225 -8.785501 -12.6188 -11.3712 -13.749 -12.107 -9.219001 -9.961501 -12.4977 -12.2225 -10.4185 -9.517501 
-13.3365 -11.916 -13.4218 -12.8594 -13.8265 -16.2717 -15.2675 -14.001 -11.1801 -14.5472 -13.9632 -15.442 -10.4185 
-3.9175 -1.7565 -3.545 -8.8455 0 -1.756 -1.934 -5.12 -4.6955 -3.3365 -1.7565 -3.4715 -3.584 -2.356 -6.128 -1.7565 -3.7075 -1.756 -3.013 -7.190001 0 
-4.64 -5.6535 -13.3713 -8.8455 -1.756 -4.0205 -7.299 -7.169001 -8.472501 -4.7425 -4.699 -7.717 -5.0575 -8.328 -8.3995 -5.7275 -5.318 -4.674 -11.3632 -7.190001 
-6.703001 -16.1502 -13.3713 -10.022 -4.0205 -9.92 -8.3055 -11.4392 -9.579 -6.931 -8.835 -8.8435 -11.5679 -10.7335 -12.6437 -6.78 -8.692501 -13.756 -11.3632 
-17.7173 -16.1502 -14.5478 -12.2865 -9.92 -10.9265 -12.8055 -12.5457 -11.8945 -10.5535 -9.699 -15.5519 -13.9734 -14.9777 -13.6962 -10.702 -17.9905 -13.756 
-17.7173 -17.3267 -16.8123 -18.186 -10.9265 -15.4265 -13.912 -14.8612 -15.517 -11.4175 -16.5306 -17.9574 -18.2176 -16.0302 -17.6182 -20 -17.9905 
-1.934 -1.4985 -3.9175 -1.7565 -1.4985 -3.545 0 -2.925 -3.2955 -1.7695 -4.503 0 -7.6445 0 -1.756 -2.925 -2.742 -3.7085 -3.3365 -4.7855 -1.7565 -3.4715 -2.264 -1.8085 -6.2175 -8.0165 -2.925 -2.742 -3.7805 -4.8625 -1.756 -4.7615 -3.7075 0 
-2.6125 -4.6635 -4.64 -2.4195 -4.401 -3.545 -2.925 -5.588 -3.9425 -5.1235 -4.503 -7.6445 -7.6445 -1.756 -4.2585 -4.3725 -5.235 -7.561 -8.168501 -6.0485 -4.699 -5.7995 -3.5925 -7.983001 -12.417 -9.818001 -4.3725 -6.6665 -7.221001 -6.3855 -6.051 -8.2805 -3.7075 
-5.686 -5.4405 -5.0595 -5.1065 -4.401 -6.271 -5.588 -5.948 -6.775 -5.1235 -10.459 -7.6445 -9.460501 -4.2585 -5.55 -6.876501 -9.2115 -12.8662 -8.646501 -7.3105 -6.5205 -6.9825 -9.2845 -13.1982 -14.6507 -11.0805 -8.643001 -11.3506 -9.434501 -11.3883 -10.204 -8.2805 
-6.467 -5.5875 -6.687 -5.1065 -6.798 -8.7605 -5.948 -9.309501 -6.775 -11.8533 -10.459 -9.460501 -12.08 -5.55 -7.917 -10.9464 -14.5921 -13.3442 -9.632501 -8.38 -7.705 -13.1371 -13.4256 -15.2891 -15.8561 -15.5184 -13.5419 -13.5641 -14.5273 -15.5413 -10.204 
-6.631001 -7.06 -6.687 -7.5775 -9.166 -9.099 -9.309501 -9.309501 -13.8432 -11.8533 -12.275 -12.08 -13.3715 -7.917 -12.1287 -16.327 -15.0701 -14.3302 -10.6592 -9.441 -14.048 -17.332 -15.4449 -16.4945 -20.2186 -20.4173 -15.7554 -18.6569 -18.6803 -15.5413 
-3.8055 -6.9995 -1.934 -3.9175 -1.7565 -1.4985 -3.545 -4.4165 -4.7855 -1.934 -1.4985 -7.024 -8.776 -1.756 -5.4435 -3.7075 0 -2.925 -4.5055 -7.190001 
-11.9584 -8.6425 -4.681 -4.64 -2.4195 -4.401 -6.8055 -8.7235 -6.4145 -2.6125 -9.203501 -16.213 -10.634 -6.5705 -10.2185 -3.7075 -2.925 -6.514501 -10.9575 
-13.6014 -12.1151 -4.7425 -5.0595 -5.1065 -8.1335 -11.3557 -11.3717 -7.391 -10.459 -18.4949 -18.071 -15.4485 -10.575 -10.2185 -7.092 -6.514501 -13.6847 
-17.074 -12.1766 -5.235001 -6.687 -8.935 -13.0387 -14.0039 -12.3482 -15.6241 -19.7504 -20.3529 -22.8855 -19.453 -10.575 -13.8156 -10.8375 -13.6847 
-17.1355 -12.6691 -7.0585 -10.7149 -13.9464 -15.6869 -14.9804 -20.5813 -24.9155 -21.6084 -25.1674 -26.89 -19.453 -14.5411 -17.5611 -18.0077 
