-4.759 
n/a 
n/a 
n/a 
n/a 
-4.759 
n/a 
n/a 
n/a 
n/a 
-4.759 
n/a 
n/a 
n/a 
n/a 
-4.759 
n/a 
n/a 
n/a 
n/a 
-2.4265 -2.882 -3.6955 -3.5455 -3.995 -5.2425 -1.934 -1.4985 -4.2285 -4.1115 
-4.4545 -5.719 -7.197001 -7.2735 -7.2275 -6.860001 -2.6125 -5.319 -5.7285 
-6.849501 -8.9375 -11.2896 -10.3615 -8.307 -8.008 -6.244 -6.5125 
-10.361 -13.1151 -14.3776 -11.441 -9.5115 -12.0355 -7.462501 
-14.5408 -16.2031 -15.4571 -12.6455 -13.5636 -13.254 
-5.3085 -2.742 -3.6955 -3.433 -1.7565 -4.8345 
-7.868501 -5.043 -6.936 -4.1845 -6.570001 
-9.828001 -8.1805 -7.665501 -8.827001 
-13.0825 -8.995501 -12.4214 
-13.8975 -13.7852 
-4.8345 -1.934 -4.2285 -4.1115 -2.4265 -4.638 
-6.0035 -5.8895 -5.7285 -6.6315 -5.9715 
-11.1956 -7.332 -8.993501 -10.1855 
-12.6381 -11.155 -12.6881 
-16.4611 -14.8496 
-4.066 -2.5045 -3.325 -4.1115 -3.995 -5.2425 0 
-6.053 -6.739 -7.435 -8.278501 -7.2275 -5.2425 
-11.6285 -11.514 -12.055 -11.9318 -7.2275 
-16.4035 -16.134 -15.7083 -11.9318 
-21.0235 -19.7873 -15.7083 
