-4.759 
n/a 
n/a 
n/a 
n/a 
-4.759 
n/a 
n/a 
n/a 
n/a 
-4.759 
n/a 
n/a 
n/a 
n/a 
-4.759 
n/a 
n/a 
n/a 
n/a 
-1.4985 -2.688 -5.592 -2.4945 -3.2345 -3.77 -1.4985 -5.211 -2.0935 -1.4985 -3.1385 -1.756 -2.4265 -3.2345 -4.319 -2.356 -5.638 -4.3665 0 
-3.702 -8.344 -7.466001 -7.1845 -6.639 -6.096001 -6.397 -7.6955 -2.9725 -4.2575 -4.6325 -3.949 -5.719501 -8.8245 -5.885 -8.205501 -10.9575 -4.3665 
-9.036 -9.951 -12.5022 -10.8724 -8.226501 -10.298 -9.458 -8.646001 -5.5795 -5.7255 -6.6285 -7.9445 -11.9787 -10.3285 -12.2385 -13.9866 -10.9575 
-10.718 -15.0706 -16.1901 -12.4599 -12.9563 -13.883 -10.2445 -11.4962 -6.9135 -7.773 -10.6095 -14.5159 -13.4827 -16.682 -18.0196 -13.9866 
-15.8376 -18.7585 -17.7776 -17.1897 -16.5413 -14.6695 -13.0947 -12.8302 -8.905001 -11.9326 -17.1809 -16.0199 -19.8362 -22.4631 -18.0196 
-2.688 -4.905 -4.427 -3.43 -3.77 -2.0935 -4.6385 -2.3335 -5.62 -3.3755 -2.0935 -5.0795 -2.356 -3.676 
-7.374001 -7.196 -7.7555 -5.3825 -5.3235 -6.355 -7.362 -7.403001 -7.84 -4.9855 -7.413001 -6.2295 -6.3015 
-9.693001 -10.9515 -10.3564 -7.2795 -10.76 -9.050001 -12.7989 -9.43 -7.993001 -10.7605 -8.4925 -9.491501 
-13.4207 -13.5524 -12.2534 -13.1166 -13.455 -14.7465 -14.8259 -9.529501 -14.0252 -11.84 -12.0991 
-16.0216 -15.4494 -18.0905 -15.8116 -19.1515 -16.7735 -14.9254 -15.7235 -15.1047 -15.4466 
-1.4985 -2.688 -4.839 -5.592 -4.803 -1.4985 -5.0375 -1.756 -6.673 -5.759501 -1.934 -4.303 -4.3665 0 
-3.702 -8.109501 -10.703 -10.4115 -6.193001 -6.646501 -6.0985 -8.1675 -13.5103 -6.592 -6.254 -5.6325 -4.3665 
-9.224501 -14.4309 -15.5225 -11.8015 -10.5975 -7.9135 -13.454 -15.3454 -14.3428 -11.7304 -8.072001 -5.6325 
-15.7689 -19.2504 -16.9125 -16.206 -11.8645 -15.4618 -20.6319 -16.1779 -19.4812 -13.5484 -8.072001 
-20.5884 -20.6404 -21.317 -17.473 -19.4128 -22.6397 -21.4644 -21.3163 -21.2992 -13.5484 
-1.4985 -2.688 -4.905 -4.427 -3.43 -1.4985 -12.16972 -1.7695 -3.952 -4.236 -2.5195 -3.5015 -6.806 -4.157 -1.4985 -5.004 -3.7015 -4.3665 
-3.702 -7.374001 -7.196 -7.7555 -4.7635 -14.76202 -13.93922 -4.6075 -7.2545 -6.572001 -6.413 -10.2185 -11.5768 -5.535 -6.283 -7.2255 -7.372001 
-7.996 -9.693001 -10.9515 -8.597501 -18.48642 -16.53152 -16.77722 -7.641 -7.98 -9.2045 -14.3254 -15.0229 -12.9548 -9.4935 -8.627001 -10.2755 
-10.7335 -13.4207 -11.7935 -23.15662 -20.25592 -19.36952 -19.81072 -8.228001 -9.828 -18.3683 -19.1298 -16.4009 -16.9133 -12.2975 -11.695 
-14.4612 -14.2627 -26.35262 -24.92612 -23.09392 -22.40302 -20.39772 -10.304 -18.7616 -23.1727 -20.5078 -20.3594 -19.7173 -15.3655 
