-4.759 
n/a 
n/a 
n/a 
n/a 
-4.759 
n/a 
n/a 
n/a 
n/a 
-4.759 
n/a 
n/a 
n/a 
n/a 
-4.759 
n/a 
n/a 
n/a 
n/a 
-8.8085 -10.4135 -1.756 -3.135 -2.8965 -4.873 -4.5715 -2.3335 -9.753 -2.7415 -3.8755 -1.934 -5.804 -4.3365 -4.153 0 
-19.5764 -12.8951 -4.5755 -4.9085 -8.022 -9.8695 -5.932 -13.2773 -10.7335 -5.065001 -5.2035 -6.6765 -8.649 -6.8555 -4.153 
-22.058 -15.7146 -5.9285 -9.4905 -13.3579 -11.298 -17.385 -14.2578 -13.057 -5.9185 -10.084 -11.1215 -10.3855 -6.8555 
-24.8775 -17.0676 -10.702 -14.8834 -14.7864 -22.751 -18.3655 -16.5813 -13.9105 -11.4985 -14.8852 -11.7582 -9.365001 
-26.2305 -21.8411 -16.0949 -16.3119 -26.2394 -23.7315 -20.689 -17.4348 -19.4905 -16.3582 -15.3737 -11.7582 
-8.8085 -6.5785 -1.756 -3.135 -2.8965 -3.959 -6.8335 -3.557 -2.3335 -11.0905 -2.7415 -3.881 -1.934 -2.461 -4.747 0 
-9.933001 -8.1625 -4.5755 -4.9085 -4.940001 -11.9391 -9.474501 -4.678 -14.6148 -13.832 -5.344501 -5.05 -4.989 -7.457001 -4.546 
-11.609 -10.6605 -5.9285 -7.0295 -13.2807 -14.5801 -10.7655 -17.1593 -17.3563 -16.435 -6.251 -8.441501 -9.9645 -7.061 
-14.107 -12.0135 -7.565001 -15.6952 -15.9217 -15.8711 -23.2468 -19.9008 -19.9593 -17.3415 -9.6715 -13.687 -9.9055 
-15.46 -13.65 -16.3145 -18.3362 -17.2127 -28.3524 -25.9883 -22.5038 -20.8658 -20.762 -15.0064 -13.687 
-7.3985 -10.7545 -3.17 -3.7375 -3.8905 -2.3615 -3.8405 -3.469 -1.7695 -6.28 -2.461 -8.9495 -2.5045 -8.543 -6.163 -8.8065 
-11.08 -13.9245 -8.518 -8.471001 -6.4535 -5.371 -7.603001 -5.5245 -8.095 -7.3635 -11.6781 -11.773 -10.4855 -14.9522 -15.6297 
-14.25 -19.2725 -13.2643 -11.4144 -9.9536 -9.2085 -10.5135 -12.915 -10.7285 -17.4856 -14.5016 -19.754 -16.8947 -24.4189 
-19.598 -24.0188 -16.2077 -14.9145 -13.7911 -12.4224 -17.904 -15.203 -20.737 -20.7235 -22.4826 -26.1632 -26.3614 
-24.3443 -26.9622 -19.7078 -18.752 -17.005 -19.8129 -20.192 -25.3545 -23.5605 -28.7045 -28.8918 -35.6299 
-8.585501 -6.5785 -1.756 -2.8965 -4.051 -4.936 -2.8645 -3.818 -5.0545 -3.251 -1.4985 -11.0905 -4.399 -1.7695 -7.14 -4.153 -5.804 0 
-15.7662 -8.1625 -3.751 -6.3285 -7.7545 -7.832001 -6.522 -8.337 -6.196 -5.0745 -13.6828 -15.4895 -6.509 -9.0635 -10.5535 -7.718501 -4.165 
-17.3502 -10.4595 -6.844 -9.8605 -10.553 -11.6487 -9.373 -9.6845 -7.398 -17.6158 -18.0818 -17.5995 -14.2808 -12.959 -12.977 -6.5765 
-19.6472 -13.5525 -10.4845 -12.6738 -14.3697 -14.4997 -10.4685 -10.188 -20.3183 -22.0148 -20.1918 -25.3713 -18.1763 -15.3825 -12.977 
-22.7402 -17.193 -13.2978 -16.4905 -17.2207 -15.5952 -10.625 -23.1083 -24.7173 -24.1248 -27.9636 -29.2668 -20.5998 -15.3825 
