-4.759 
n/a 
n/a 
n/a 
n/a 
-4.759 
n/a 
n/a 
n/a 
n/a 
-4.759 
n/a 
n/a 
n/a 
n/a 
-4.759 
n/a 
n/a 
n/a 
n/a 
-2.8965 -6.694 -1.7565 -3.098 -4.0415 
-9.349501 -7.7795 -5.764501 -6.801 
-10.6272 -12.1701 -9.613501 
-15.0178 -16.0191 
-18.8668 
-3.571 -3.522 -2.0935 -3.4625 -1.7565 -3.098 
-6.5295 -5.772 -5.371 -4.9855 -5.764501 
-8.0425 -10.1855 -6.839 -6.5745 
-13.0126 -11.6535 -7.6485 
-14.4806 -12.463 
-3.571 -4.584 -4.154 -3.098 -4.426 
-8.349001 -9.2435 -8.264 -7.2705 
-13.1479 -13.3793 -12.9625 
-17.2837 -18.0778 
-21.9822 
-2.7455 -3.098 -3.6615 -3.571 -3.522 
-6.9725 -6.3605 -7.7605 -6.5295 
-9.048 -10.389 -11.0436 
-13.1965 -13.6721 
-16.4796 
