-4.759 
n/a 
n/a 
n/a 
n/a 
-4.759 
n/a 
n/a 
n/a 
n/a 
-4.759 
n/a 
n/a 
n/a 
n/a 
-4.759 
n/a 
n/a 
n/a 
n/a 
-2.5045 -3.543 -6.102 0 -2.4265 -4.8845 -2.7455 -1.4985 -8.863001 -1.7565 -1.4985 -4.6335 -4.002 -3.849 -5.432 -2.3335 -2.4945 -3.8755 -2.3345 -3.6835 -2.3335 -2.4945 -4.554 0 -4.709 0 -1.756 -4.2665 0 
-5.323 -10.907 -6.102 -2.4265 -6.515 -6.2255 -3.637 -9.452001 -9.506501 -2.4195 -5.611501 -10.411 -8.172501 -9.602 -7.023 -3.947 -5.463 -4.4955 -5.9315 -7.120501 -3.947 -6.5665 -4.554 -4.709 -4.709 -1.756 -5.529 -4.2665 
-12.9602 -10.907 -8.262501 -6.515 -8.1335 -6.848 -11.9889 -9.549001 -10.0395 -6.539501 -11.809 -14.5815 -14.3553 -11.2412 -7.757 -6.653 -6.347 -7.692 -9.9805 -9.116001 -7.714001 -6.5665 -8.493 -4.709 -5.77 -5.529 -5.529 
-12.9602 -13.0675 -12.941 -8.1335 -8.651501 -15.5753 -12.0859 -10.088 -14.1595 -12.8906 -15.9795 -20.7643 -15.9945 -11.9752 -10.5425 -7.3135 -9.007 -10.702 -12.0446 -12.9266 -7.714001 -10.3885 -8.493 -5.77 -9.729 -5.529 
-15.1207 -17.746 -14.5595 -8.651501 -17.4132 -15.6723 -12.6249 -14.208 -20.5106 -17.0611 -22.1623 -22.4035 -16.7285 -14.7607 -11.203 -9.912001 -12.2256 -12.7661 -15.8552 -12.9266 -11.8032 -10.3885 -10.019 -9.729 -9.729 
-4.426 -1.7565 -1.4985 -3.0835 -4.7285 -4.1555 -5.2405 -5.1875 -2.229 0 -3.6835 -5.164 -5.216 -4.879 -4.554 -3.6835 -6.4155 -5.8925 -4.2425 -1.756 -4.9325 
-5.47 -2.4195 -3.535 -6.042 -8.4455 -6.9195 -9.8455 -7.694 -2.229 -3.6835 -5.399 -10.1115 -10.7335 -9.5635 -7.908501 -11.488 -13.0888 -9.439001 -5.5135 -6.404 
-5.9535 -4.6785 -6.335501 -9.523001 -11.835 -14.1145 -12.169 -7.694 -5.9135 -5.399 -10.6595 -15.8144 -15.418 -13.0222 -16.0258 -18.1613 -16.6353 -10.4955 -10.674 
-8.021 -7.476501 -10.0095 -12.997 -18.3682 -16.6506 -12.4014 -11.8127 -8.743 -10.6595 -16.3624 -20.4989 -18.8767 -21.1395 -22.6991 -21.7078 -17.6918 -15.656 
-9.983001 -11.3061 -13.5935 -19.5302 -20.4221 -16.6506 -16.7729 -14.6422 -14.1449 -16.3624 -21.0469 -23.9576 -26.994 -27.8128 -26.2456 -22.7643 -22.8523 
-2.925 -3.998 -2.3335 -4.251 -2.0935 -6.102 -4.1715 -1.4985 -3.9195 -1.7565 -5.3435 0 -1.8085 -4.554 -4.6895 -4.495 -1.7565 -3.5855 -4.603 -3.135 -4.6335 -4.1 -2.3335 -3.757 -1.934 -1.8085 -4.513 0 
-5.7515 -5.1075 -6.330501 -6.6685 -7.744501 -10.214 -4.693 -4.9505 -4.9355 -5.8395 -5.3435 -1.8085 -5.742001 -9.1625 -10.2985 -5.435 -4.6335 -9.324 -6.869 -7.449 -8.9195 -5.8155 -6.101 -5.7075 -3.2685 -5.558001 -4.513 
-6.809501 -9.349001 -9.176001 -12.6565 -12.1465 -10.476 -8.334001 -5.2775 -10.5975 -5.8395 -7.2115 -5.742001 -9.5775 -15.1409 -11.2385 -10.3675 -10.6875 -11.99 -11.5778 -11.952 -10.5755 -9.130001 -8.734501 -6.878 -6.695 -5.558001 
-11.2598 -12.4305 -15.2332 -17.0585 -12.4085 -14.117 -8.918501 -11.1225 -10.5975 -7.89 -11.67 -9.5775 -16.0377 -16.0809 -16.171 -16.6863 -13.3535 -16.6988 -16.0808 -13.608 -13.89 -11.9873 -10.0815 -10.1105 -6.695 
-14.3413 -18.4877 -19.6352 -17.3205 -16.0495 -14.7015 -14.9059 -11.1225 -12.648 -12.5591 -15.5055 -16.0377 -16.9777 -21.0134 -22.4898 -19.3523 -18.0623 -21.2018 -17.7368 -16.9225 -16.7473 -13.3343 -13.314 -10.1105 
-1.934 -8.373501 -2.5685 -3.6835 -3.5185 -1.4985 -4.879 -1.4985 -4.0335 -5.359 -3.5855 -2.186 -4.3705 
-10.533 -11.4514 -6.053 -8.705 -4.9765 -6.525001 -5.9585 -5.143001 -9.417 -9.030001 -5.7365 -6.6125 
-13.6109 -14.9359 -11.6903 -10.254 -9.755501 -8.321 -10.1895 -9.955501 -13.2824 -11.9866 -10.8044 
-17.0954 -20.5732 -13.2393 -15.033 -11.5515 -12.7078 -15.0758 -14.1369 -16.239 -17.0545 
-22.7327 -22.1222 -18.0183 -16.829 -15.9383 -17.5941 -19.2572 -17.0935 -21.3069 
