-4.759 
n/a 
n/a 
n/a 
n/a 
-4.759 
n/a 
n/a 
n/a 
n/a 
-4.759 
n/a 
n/a 
n/a 
n/a 
-4.759 
n/a 
n/a 
n/a 
n/a 
-2.7835 -1.4985 -4.4935 -5.5765 0 -3.757 -4.375 -1.934 -2.8195 
-3.7575 -5.5255 -9.066 -5.5765 -3.757 -6.601 -5.221 -4.706 
-7.345 -10.13 -9.066 -9.928 -6.601 -7.636001 -8.923 
-10.347 -10.13 -13.8585 -12.772 -7.636001 -11.6154 
-10.347 -14.9225 -16.7025 -13.807 -11.6154 
-2.7835 -3.1495 -4.4935 -2.4945 -3.557 0 -2.4265 -2.186 -5.749 -1.7695 -4.008 -2.5045 -2.8195 0 
-5.437 -6.215 -6.1065 -5.304 -3.557 -2.4265 -3.292 -6.1665 -6.0315 -4.6125 -5.275001 -4.4345 -2.8195 
-7.7805 -7.1625 -8.717 -5.304 -5.193 -3.292 -6.252 -6.353 -8.666 -6.028 -5.790501 -4.4345 
-8.364 -9.550501 -8.717 -7.785001 -6.839 -6.252 -6.3645 -8.9305 -9.876 -6.733 -5.790501 
-11.1958 -9.550501 -11.3992 -8.285001 -9.8395 -6.3645 -8.9355 -10.078 -10.3135 -6.733 
-3.557 -3.321 -4.008 -2.5045 -2.8195 
-6.6975 -6.999001 -5.275001 -4.4345 
-10.8537 -8.301001 -5.790501 
-12.1557 -8.913 
-12.7677 
-2.7835 -2.3585 -2.674 -4.5815 0 -3.183 -4.008 -1.934 -2.8195 -4.179 
-3.296 -3.6565 -7.802501 -4.5815 -3.183 -6.4285 -4.890501 -4.706 -7.604501 
-4.201 -8.449 -7.802501 -7.445 -6.4285 -7.331 -8.441001 -10.0475 
-8.5985 -8.449 -10.494 -9.8825 -7.331 -11.2379 -14.1689 
-8.5985 -11.3799 -12.9315 -11.5256 -11.2379 -16.9658 
