-4.759 
n/a 
n/a 
n/a 
n/a 
-4.759 
n/a 
n/a 
n/a 
n/a 
-4.759 
n/a 
n/a 
n/a 
n/a 
-4.759 
n/a 
n/a 
n/a 
n/a 
-3.4635 -3.277 -7.093 -5.9065 -4.0555 -2.5045 -1.4985 -3.498 -1.7565 -4.751 -4.153 
-6.783 -10.932 -13.7151 -8.637001 -6.253 -3.1915 -4.0295 -4.005 -7.120501 -6.173501 
-14.7336 -17.5541 -16.4456 -11.6117 -6.7275 -4.454 -4.188 -8.785001 -7.8805 
-21.3557 -20.2846 -19.4203 -12.0862 -7.488 -4.526 -9.14 -9.054001 
-24.0862 -23.2593 -19.8948 -12.8467 -7.547 -9.556001 -9.275001 
-3.4635 -3.277 0 -1.4985 -3.982 -5.1215 -3.9535 -4.0225 -1.934 -1.4985 -4.751 -4.153 
-6.783 -3.277 -1.4985 -4.566 -7.8995 -8.7665 -6.7915 -5.3785 -2.6125 -5.714001 -6.173501 
-6.783 -4.8285 -4.566 -8.950001 -10.335 -10.76 -7.532001 -6.403 -6.782001 -6.5705 
-8.345 -8.3195 -8.950001 -11.4465 -12.5897 -11.5005 -8.757 -10.733 -7.0315 
-11.9384 -12.7519 -11.4465 -13.7012 -13.3302 -12.7255 -13.0858 -10.9825 
-3.4635 -3.277 0 -3.982 -5.1215 -3.9535 -4.0225 -2.3345 -1.4985 -3.498 -1.7565 -4.751 -4.153 0 
-6.783 -3.277 -3.982 -7.8995 -8.7665 -6.7915 -6.5435 -3.233 -4.0295 -4.005 -7.120501 -6.173501 -4.153 
-6.783 -8.200001 -7.8995 -10.335 -10.76 -9.1735 -7.734 -5.098 -4.188 -8.785001 -7.8805 -6.173501 
-12.0016 -10.757 -10.335 -12.5897 -13.142 -10.0075 -8.587 -5.1255 -9.14 -9.054001 -7.8805 
-14.5586 -10.779 -12.5897 -14.9717 -13.976 -10.8605 -8.5935 -10.2975 -9.275001 -9.054001 
-3.4635 -3.277 -1.4985 -5.59 -3.9535 -1.7695 -3.6955 -1.934 -4.751 -4.153 
-6.783 -4.8285 -6.333 -8.642 -5.098001 -4.452 -4.938 -7.2725 -6.173501 
-8.345 -9.269001 -9.184 -9.211 -7.0755 -5.7405 -10.2325 -7.868 
-12.8879 -12.1368 -9.759001 -11.3229 -8.007 -10.717 -10.828 
-15.7557 -12.7118 -11.9217 -12.2544 -13.2245 -11.3125 
