-4.759 
n/a 
n/a 
n/a 
n/a 
-4.759 
n/a 
n/a 
n/a 
n/a 
-4.759 
n/a 
n/a 
n/a 
n/a 
-4.759 
n/a 
n/a 
n/a 
n/a 
-3.893 -2.186 -4.851 -3.5215 -3.644 -3.1575 -8.953001 -2.186 -4.887 -3.672 -3.213 -2.264 -1.4985 -3.1335 -1.934 -3.9175 -1.7565 -3.3635 0 
-6.4325 -8.0605 -9.714001 -6.4975 -4.568501 -12.87 -10.1285 -7.007 -9.2635 -7.382501 -4.6045 -2.9195 -4.5045 -5.0035 -4.681 -4.64 -5.5755 -3.3635 
-13.0498 -13.7815 -12.69 -6.811 -14.0257 -14.3048 -17.0435 -12.0385 -13.1044 -9.304001 -5.2965 -6.0955 -6.298 -8.313001 -4.7425 -10.3675 -5.5755 
-18.7708 -16.7575 -13.0035 -16.6624 -15.4887 -21.0382 -22.075 -15.8794 -15.0259 -9.8835 -8.8105 -7.7925 -9.6485 -8.335501 -10.66 -10.3675 
-21.7468 -17.071 -22.8549 -17.93 -22.2221 -26.0697 -25.9159 -17.8009 -15.6054 -13.4967 -10.5991 -11.7404 -9.6805 -14.4594 -10.66 
0 -3.893 0 -2.229 0 -4.851 -1.934 -4.675 -4.732 -3.3635 0 -4.278 -3.251 -4.3375 -2.5045 -4.2775 -3.1335 0 
-3.893 -3.893 -2.229 -2.229 -4.851 -7.126 -6.3865 -10.884 -8.132 -3.3635 -4.278 -8.2755 -6.318 -4.952 -6.0845 -7.108 -3.1335 
-3.893 -5.894 -2.229 -6.953001 -7.126 -12.0457 -13.1323 -14.284 -8.132 -8.414001 -8.2755 -11.6007 -6.846 -9.710501 -9.193001 -7.108 
-5.894 -5.894 -6.953001 -9.769001 -12.0457 -18.7915 -16.5323 -14.284 -13.4863 -10.733 -11.6007 -12.1287 -11.6087 -12.9128 -9.193001 
-5.894 -11.6904 -9.769001 -14.7483 -18.7915 -22.1915 -16.5323 -19.6383 -15.8053 -14.0582 -12.1287 -16.8914 -14.811 -12.9128 
-1.934 -4.675 -3.893 0 -2.229 -2.186 -3.1635 -3.834 -3.3635 0 -4.278 -4.254 -2.5045 -1.8085 -3.4865 -3.1335 
-6.3865 -9.486 -3.893 -2.229 -5.1225 -6.3985 -7.772 -6.7825 -3.3635 -4.278 -9.865001 -5.522 -3.3625 -4.572001 -6.401501 
-10.1855 -9.486 -5.894 -5.1225 -9.046 -11.4902 -10.4765 -6.7825 -8.414001 -9.865001 -11.133 -5.7455 -5.953 -7.024 
-10.1855 -11.6804 -9.0915 -9.046 -14.4875 -14.1947 -10.4765 -12.3812 -14.2114 -11.133 -11.3565 -8.2945 -8.110001 
-12.7979 -14.8779 -13.0976 -14.4875 -17.192 -14.1947 -16.0752 -18.1786 -15.4794 -11.3565 -13.9055 -10.4765 
-10.6925 -2.229 0 -1.934 -4.675 -3.1635 -5.088 0 -4.732 -3.3635 -8.4445 -4.254 -2.5045 -7.727 -3.1335 
-13.1143 -2.229 -1.934 -6.3865 -8.7965 -8.179501 -5.088 -4.732 -8.132 -12.402 -13.0887 -5.522 -9.857 -10.8415 
-13.1143 -4.573 -6.3865 -10.3675 -14.2079 -8.179501 -10.0315 -8.132 -17.4743 -17.0462 -14.3567 -13.9355 -12.9715 
-15.4583 -9.074 -10.3675 -15.7789 -14.2079 -13.8262 -13.9143 -17.4743 -22.1185 -18.3142 -22.7702 -17.05 
-19.9593 -13.2558 -15.7789 -15.7789 -19.8546 -17.709 -23.2566 -22.1185 -23.3865 -26.7277 -25.8847 
