-4.759 
n/a 
n/a 
n/a 
n/a 
-4.759 
n/a 
n/a 
n/a 
n/a 
-4.759 
n/a 
n/a 
n/a 
n/a 
-4.759 
n/a 
n/a 
n/a 
n/a 
-3.5025 -2.186 -1.8085 -3.188 -4.0005 -2.915 -3.433 -9.465 -1.7695 -4.256 -1.4985 -3.5965 -2.356 -6.769001 -1.756 -4.0535 
-5.481 -3.164 -4.8525 -4.969501 -6.888 -4.682 -14.8362 -12.528 -7.2295 -6.263 -4.746 -5.74 -9.2475 -8.356501 -5.6 
-6.424 -5.9125 -6.2445 -8.040501 -8.297501 -16.8172 -17.0992 -18.7768 -9.123 -8.853001 -6.938001 -13.5597 -11.0178 -9.465 
-8.726501 -7.1145 -9.0225 -9.923 -20.9515 -19.0802 -23.348 -20.6703 -11.7976 -10.7495 -15.0349 -15.33 -12.1263 
-8.992001 -9.5755 -11.2822 -22.577 -23.2145 -25.329 -25.2415 -23.3449 -13.6941 -18.8464 -16.8052 -16.4385 
-1.4985 -3.9355 -3.16 -1.756 -3.188 -4.0005 -3.16 -3.2955 -1.934 -3.3715 -4.029 -2.5045 -1.4985 -3.486 -8.188001 -3.1495 -3.2495 -2.4945 -2.6165 -6.031 -3.757 -2.915 -1.7565 -1.4985 -3.188 -5.5865 -4.174 -3.991 -3.458 -1.4985 -6.587501 -4.0935 -3.818 -5.276 -1.756 -4.3005 -8.708 -2.186 -1.4985 -3.1335 -1.7565 -5.5215 -2.186 -4.256 -2.3345 -1.4985 -4.138 -5.2125 -1.756 -1.4985 -3.6395 -1.756 -1.4985 -3.682 
-4.8035 -7.783501 -5.1995 -5.351 -4.969501 -5.2365 -7.6995 -4.2285 -4.622 -5.29 -6.316501 -3.583 -3.5655 -9.719501 -10.7355 -4.8975 -5.757 -3.8065 -8.755 -11.005 -7.058001 -5.2705 -2.4195 -3.619 -9.761001 -9.206501 -8.738501 -5.4535 -4.063 -8.269 -9.376 -8.291 -7.293 -6.8145 -5.733 -9.782001 -10.411 -3.339 -4.5045 -5.0585 -8.208501 -7.352 -5.3665 -5.9745 -3.233 -4.746 -10.575 -6.1755 -3.0405 -5.0345 -5.4715 -3.0405 -5.0885 
-8.4475 -8.765 -9.2255 -6.765501 -5.246 -9.408501 -8.932 -6.33 -5.569 -7.1545 -7.574 -6.26 -9.936001 -12.217 -11.883 -6.7505 -7.0755 -11.2345 -13.0745 -13.3794 -9.0275 -5.726501 -4.4095 -11.2825 -13.148 -12.702 -11.0008 -5.9625 -10.2745 -11.1485 -13.468 -12.0996 -8.408 -9.1455 -10.8 -11.7539 -11.3054 -6.7835 -5.7615 -13.082 -10.0855 -11.05 -7.0515 -7.0625 -6.9585 -11.6562 -11.538 -7.5495 -6.894 -6.548 -6.705 -6.9775 
-8.8395 -13.6098 -10.0165 -7.192 -9.416 -10.6345 -11.5047 -7.54 -7.481501 -8.5185 -10.6095 -13.551 -12.311 -13.7655 -13.397 -8.077001 -14.1844 -15.4538 -17.5037 -16.0513 -9.724501 -8.387 -12.7583 -14.5688 -17.1268 -15.9635 -11.5098 -11.248 -13.4955 -15.8945 -17.435 -13.2146 -9.1685 -11.8682 -13.4144 -12.7307 -14.8829 -8.139 -13.94 -14.1775 -14.8916 -13.3911 -8.1905 -11.1442 -14.0545 -12.6192 -12.912 -11.6992 -8.398001 -7.5845 -11.7542 
-13.8021 -14.4008 -10.234 -11.6704 -10.6355 -13.2072 -12.7147 -8.8875 -8.649501 -11.5924 -17.6753 -15.6153 -13.8595 -15.2795 -14.8423 -15.8332 -18.3831 -19.7416 -19.4732 -16.7483 -12.8316 -17.5502 -15.7158 -18.5476 -20.1775 -16.4725 -17.0865 -15.2231 -18.0119 -19.7065 -18.55 -13.9751 -12.0949 -14.5486 -14.2444 -16.3082 -16.3738 -16.7017 -15.1023 -18.7986 -16.7241 -14.6796 -12.3772 -18.2402 -15.0175 -13.9932 -17.0617 -13.2032 -8.6 -12.5479 
-3.0365 -2.4945 -3.3715 -4.1755 -2.229 -3.458 -3.4605 -1.756 -3.16 -3.16 -2.186 -3.7905 -2.0935 -1.4985 -4.2115 -3.0365 -2.4945 -2.5685 -1.4985 -3.17 -5.003 -3.9355 -3.2955 -1.934 -3.16 -1.756 -4.2115 0 
-3.688 -4.846 -8.428 -7.615001 -6.5045 -8.198501 -4.9755 -4.9715 -5.739 -5.883 -6.653501 -5.4935 -2.9725 -5.954 -7.139 -3.688 -4.6335 -3.7015 -3.7115 -8.7325 -9.1215 -6.479 -4.2285 -5.4145 -5.1995 -5.902 -4.2115 
-4.8765 -9.374001 -10.151 -8.340501 -11.6106 -9.027501 -7.569 -8.647 -8.976001 -10.6605 -9.436501 -6.448 -7.679501 -8.9655 -7.369501 -6.390501 -5.883 -6.452 -10.155 -13.1868 -12.0372 -6.8075 -7.458 -7.3205 -9.2155 -5.902 
-9.387501 -10.524 -10.7245 -13.7362 -12.4396 -10.013 -12.0665 -12.2814 -14.0365 -13.4435 -10.9144 -12.1834 -10.361 -9.2445 -10.3745 -7.4785 -8.757501 -13.5509 -14.7907 -16.1025 -12.3657 -10.099 -9.3455 -12.2891 -9.2155 
-10.5235 -11.0975 -16.1202 -14.5652 -13.4251 -15.1363 -15.7009 -17.3419 -16.8195 -14.9214 -16.6498 -14.8649 -10.488 -12.4581 -11.6733 -10.5425 -15.9546 -18.1866 -17.7064 -16.431 -15.6572 -12.2513 -14.6405 -12.2891 
-3.5025 -1.756 -3.188 -4.0005 -3.16 -1.934 -2.3615 -3.2495 -3.9355 -3.3425 -4.4715 -6.690001 -3.5025 -1.756 -3.4605 -2.186 -2.6165 -6.9885 -2.186 -4.1865 -3.324 -2.915 -5.7945 -5.432 -1.4985 -4.0395 -3.458 -4.0535 -1.756 -3.331 -1.934 -1.4985 -7.057 -2.186 -2.871 -1.7565 -1.4985 -3.5025 -4.35 -5.56 -4.3325 -2.356 -7.0125 -3.299 -3.4095 -1.756 -3.6395 
-5.073 -5.351 -4.969501 -5.2365 -5.5715 -3.539 -5.9175 -5.9285 -6.9805 -7.457 -11.951 -10.1345 -5.073 -5.6665 -4.916 -3.5105 -11.0825 -9.496 -7.231501 -7.8735 -5.771 -7.279 -11.509 -6.7715 -4.995 -7.117001 -7.382 -5.1915 -4.813 -5.4835 -2.6125 -8.979 -9.285001 -4.247 -3.5385 -2.4195 -4.16 -8.6055 -10.9805 -10.7825 -4.9715 -9.8655 -10.8995 -8.092001 -5.0475 -6.2985 
-7.345 -6.765501 -5.246 -7.206501 -7.4015 -6.998 -8.8795 -9.483 -11.5436 -15.2727 -16.0417 -13.7939 -8.0035 -7.857 -5.956 -12.3278 -14.0828 -13.5655 -11.4293 -10.7749 -10.6895 -13.6108 -13.3243 -9.8785 -8.476501 -11.3394 -7.647 -5.4855 -6.7935 -6.289001 -10.27 -11.24 -12.574 -4.411 -3.7675 -5.2215 -9.1 -15.8958 -17.195 -12.2231 -12.925 -13.7525 -15.6925 -10.1765 -9.070001 
-7.352 -7.192 -7.211501 -8.842001 -11.5593 -10.4578 -12.5724 -14.1973 -19.3593 -19.2986 -19.0647 -16.9522 -10.8778 -9.474501 -16.6905 -15.3213 -17.7381 -18.2211 -14.3307 -16.3504 -17.6063 -15.0493 -16.5967 -13.4194 -12.9069 -11.6044 -7.7235 -7.435 -7.6815 -13.352 -13.3977 -14.241 -12.8133 -4.5655 -6.8675 -10.688 -16.6037 -21.6929 -17.76 -20.3292 -16.812 -18.5455 -17.777 -14.4528 
-7.3545 -9.069501 -8.846001 -13.24 -15.0191 -14.1507 -17.2867 -22.013 -23.3852 -22.3216 -22.223 -19.8265 -12.4953 -20.0936 -19.159 -18.9766 -22.3179 -21.1225 -19.9062 -22.6102 -18.8428 -18.3217 -20.1376 -17.8498 -13.1719 -11.6809 -9.215 -8.103001 -14.6217 -16.1189 -16.0115 -14.3865 -12.9803 -7.936 -13.7246 -18.1917 -22.4008 -22.2579 -25.8661 -24.2162 -21.605 -20.63 -22.0533 
