-4.759 
n/a 
n/a 
n/a 
n/a 
-4.759 
n/a 
n/a 
n/a 
n/a 
-4.759 
n/a 
n/a 
n/a 
n/a 
-4.759 
n/a 
n/a 
n/a 
n/a 
-4.9045 -2.0935 -3.2495 -2.645 -3.277 -1.934 -6.0845 -3.2875 -4.179 0 -4.254 -1.934 -4.0805 -3.115 -5.5075 -3.0435 -3.3035 -1.756 -6.0845 -3.8225 -4.5525 -3.774 0 
-6.838 -4.798 -5.487 -5.7085 -4.8125 -7.621 -7.9265 -6.8465 -4.179 -4.254 -5.313 -6.2185 -6.384 -9.150001 -7.6515 -6.0645 -4.902 -8.165001 -10.6178 -8.110001 -7.631001 -3.774 
-8.318501 -6.7205 -6.922 -7.172501 -10.7495 -8.591001 -11.6055 -6.8465 -8.1435 -5.313 -8.96 -8.268001 -10.688 -11.5344 -10.513 -8.148001 -12.153 -13.0775 -14.9053 -12.0255 -7.631001 
-10.1765 -7.415 -8.3575 -13.3569 -11.7195 -12.4186 -11.6055 -10.958 -9.9975 -8.96 -10.147 -12.6546 -13.6642 -14.3959 -12.5965 -15.9146 -17.0655 -17.365 -18.8208 -12.0255 
-10.5935 -8.922501 -14.5753 -14.3269 -15.5471 -12.4186 -15.717 -12.812 -13.8121 -10.147 -14.7724 -15.6308 -16.5257 -16.4794 -20.3631 -20.8271 -21.353 -21.2805 -18.8208 
-3.882 -2.9805 -4.254 -1.934 -2.688 -3.586 -2.0935 -3.2495 -3.277 -1.934 -1.8085 -5.5075 -3.3035 -1.756 -1.4985 -2.688 -3.586 -3.564 -3.326 -3.774 0 
-5.755 -5.5985 -5.313 -4.282 -3.615 -6.1765 -4.798 -4.6515 -4.8125 -3.2685 -6.493501 -7.076 -4.902 -3.0405 -3.702 -3.615 -7.216001 -5.921 -6.369 -3.774 
-7.955 -6.56 -7.519 -4.681 -6.1955 -8.2745 -5.685 -6.029 -6.006001 -7.619501 -7.4715 -8.486 -5.838 -5.272 -4.631 -7.232 -10.533 -9.835501 -6.369 
-8.748501 -8.681001 -7.7005 -6.7045 -8.288 -8.7895 -6.8415 -6.7355 -10.151 -8.4505 -8.784 -9.491 -8.0745 -6.203 -8.454 -10.553 -14.4475 -9.835501 
-10.9895 -8.828 -8.809 -8.604501 -8.807501 -10.1225 -7.219 -11.4451 -10.982 -9.688001 -9.833501 -11.7523 -8.416 -10.28 -12.2646 -14.4675 -14.4475 
-2.9805 -4.254 -1.934 -6.0845 -3.2875 -2.5045 -5.5075 -3.3035 0 
-5.5985 -5.313 -7.621 -7.9265 -6.0605 -8.311001 -7.076 -3.3035 
-6.56 -11.6282 -8.591001 -10.4945 -12.3836 -9.894501 -7.076 
-13.0728 -12.5982 -10.757 -16.8176 -13.9671 -9.894501 
-14.0428 -14.7642 -17.0801 -18.4011 -13.9671 
-2.9805 -4.657 -1.934 -2.688 -3.586 -2.0935 -3.2495 -3.277 0 -1.756 -4.254 -1.934 -1.8085 -3.0435 -5.5075 -3.3035 0 -1.756 -1.934 -2.688 -3.586 -3.8225 -3.326 -3.307 -3.843 0 
-5.941 -5.156 -4.282 -3.615 -6.1765 -4.798 -4.6515 -3.277 -1.756 -5.6615 -5.313 -3.2685 -4.549 -8.2665 -7.076 -3.3035 -1.756 -4.0205 -4.282 -3.615 -7.858001 -7.427 -5.021501 -7.3305 -3.843 
-6.4985 -6.9695 -4.681 -6.1955 -8.2745 -5.685 -4.6515 -4.6195 -5.6615 -6.5015 -6.3405 -6.1245 -10.631 -10.8166 -7.076 -4.902 -4.0205 -6.796 -4.681 -7.8725 -12.4139 -9.852501 -9.4315 -7.3305 
-8.1805 -7.2095 -6.7045 -8.288 -8.7895 -5.685 -5.949 -7.6305 -6.5015 -7.646 -8.944 -12.9801 -13.1811 -10.8166 -8.486 -7.043 -6.796 -7.171 -8.755 -12.5262 -14.8394 -14.3255 -9.4315 
-8.3585 -8.125 -8.604501 -8.807501 -8.7895 -6.619 -8.9455 -8.464001 -7.646 -10.7325 -16.0884 -15.5302 -13.1811 -12.2266 -10.485 -9.248501 -7.171 -11.5716 -14.0075 -14.9517 -19.3124 -14.3255 
