-4.759 
n/a 
n/a 
n/a 
n/a 
-4.759 
n/a 
n/a 
n/a 
n/a 
-4.759 
n/a 
n/a 
n/a 
n/a 
-4.759 
n/a 
n/a 
n/a 
n/a 
-3.321 0 -3.9785 -1.7565 -4.98 -1.756 -6.8025 -1.7695 -3.429 -1.756 -3.8055 -3.135 -4.3895 -4.7975 0 -5.004 -3.013 -5.651501 -4.157 -3.873 0 -3.628 -4.142 -1.7565 -3.873 -1.756 -4.503 -1.7695 -4.2425 -4.614 -1.7565 -4.4385 
-3.321 -3.9785 -4.924 -5.953001 -6.4295 -7.239501 -8.1455 -4.032 -6.002 -5.035501 -5.8575 -7.291501 -6.8065 -4.7975 -5.004 -7.1665 -8.529501 -8.099001 -8.599001 -3.873 -3.628 -8.338501 -5.3145 -5.002 -5.114 -5.9905 -6.4725 -6.383 -10.068 -5.2405 -6.204 
-8.1055 -4.924 -10.688 -7.614 -7.2535 -8.486 -10.7692 -6.496 -8.458 -6.981 -9.284 -9.232 -6.8065 -10.451 -7.1665 -13.0054 -12.1705 -13.025 -8.599001 -7.686 -8.338501 -9.844001 -7.342 -6.0885 -9.603001 -8.377001 -10.6875 -12.8409 -10.7723 -10.7175 
-9.365 -10.688 -12.349 -9.349001 -8.494 -11.1899 -13.2332 -9.1625 -10.564 -10.218 -11.4065 -9.232 -13.1712 -12.6135 -13.0054 -17.6498 -16.4297 -13.2928 -12.8056 -13.1633 -9.844001 -12.3501 -9.282001 -10.8721 -12.0651 -12.733 -17.1454 -13.5452 -16.2493 
-15.3294 -12.349 -14.084 -10.6105 -11.2029 -13.6539 -15.8997 -11.2719 -13.801 -12.4655 -11.4065 -15.7971 -15.3337 -18.4524 -17.6498 -21.6786 -16.4297 -17.8934 -18.2829 -14.6688 -12.3501 -14.2901 -14.17 -13.3342 -16.4211 -19.1909 -17.8497 -19.0222 
-3.882 -2.925 -3.7085 -1.4985 -4.3895 -4.7975 -3.458 -3.16 -1.7565 -3.473 -4.825 -1.756 -4.98 -4.825 -1.756 -4.8415 -2.925 -4.7975 -2.5195 -3.957 -4.227 -3.7515 -1.4985 -3.873 0 -1.7695 -3.0465 -1.8085 -7.5715 -4.0395 0 
-6.1415 -5.836 -4.704 -5.727 -6.8065 -8.609501 -6.929501 -5.266 -6.304 -6.446 -6.2745 -6.8165 -8.118 -6.2745 -6.5125 -8.203501 -9.4265 -7.245 -6.772 -7.2215 -5.9895 -4.6795 -4.7405 -3.873 -1.7695 -3.683 -4.1205 -8.1675 -12.3218 -4.0395 
-9.755501 -6.9075 -8.952001 -8.005001 -10.31 -12.433 -9.744 -11.0753 -8.331 -7.372 -7.3945 -9.703 -9.014501 -10.6335 -9.686001 -14.7654 -12.1412 -11.7721 -10.8179 -8.7165 -6.355 -8.061501 -4.7405 -5.7395 -3.683 -4.729 -11.5299 -13.2284 -12.3218 
-10.313 -11.3147 -11.365 -10.476 -14.3361 -15.2475 -15.6635 -13.1023 -9.471001 -7.9465 -10.396 -10.7115 -14.0993 -13.807 -16.3529 -17.4801 -16.6683 -15.818 -12.3129 -8.913501 -9.549001 -8.061501 -6.3875 -8.13 -4.729 -12.4006 -16.5908 -13.2284 
-15.3652 -13.7277 -13.836 -14.6439 -17.1506 -21.167 -17.6905 -14.2423 -9.695001 -11.1634 -11.4045 -15.7963 -17.2728 -20.4739 -19.0676 -22.0072 -20.7142 -17.313 -12.5099 -12.3459 -9.549001 -9.9665 -8.931001 -9.188001 -12.4006 -17.4615 -16.5908 
-3.321 -2.7295 -3.429 -4.3005 -4.7975 -2.5045 -3.2495 -5.004 -1.756 -3.8055 -1.7695 -2.5045 -3.873 0 
-4.911 -5.087 -8.465 -8.203001 -7.402 -5.694 -6.601501 -6.0555 -5.035501 -5.554501 -5.32 -6.964001 -3.873 
-7.427 -10.4505 -12.6707 -11.2813 -10.209 -10.233 -7.8215 -8.7065 -6.964 -9.366 -10.6215 -6.964001 
-13.3347 -14.6562 -15.749 -14.0883 -14.748 -11.453 -10.2035 -10.9302 -11.0801 -14.5991 -10.6215 
-17.5404 -17.7345 -18.556 -18.6273 -15.968 -13.835 -12.4592 -15.0463 -16.3132 -14.5991 
-4.426 -1.7565 -1.4985 -3.6115 -4.7285 -4.1555 -6.4085 -2.3335 -4.946 -1.4985 -4.7975 -1.934 -3.458 -1.7565 -1.4985 -4.98 -1.756 -1.4985 -3.291 -4.825 -2.925 -3.1425 -3.952 -2.985 -4.2285 -5.0655 -1.7695 -4.8285 -1.4985 -4.7975 -1.7695 -4.2095 -2.264 -1.4985 -4.1375 -3.4945 -4.157 -1.4985 -4.1375 -4.4165 -2.5045 -1.8085 -4.201 -1.7565 -4.5125 -4.3825 -2.5195 -1.4985 -4.1375 -1.8085 -4.0685 -7.6445 -2.742 -3.6955 
-5.47 -2.4195 -4.081 -6.5495 -8.4455 -8.8085 -7.9735 -7.252001 -5.7945 -6.196501 -6.601 -5.207 -7.4175 -2.4195 -6.212501 -6.4295 -3.0405 -3.9665 -8.5065 -7.986001 -4.669 -6.3025 -6.429501 -5.5375 -9.0235 -6.7245 -6.1815 -6.4125 -6.196501 -6.7855 -5.2875 -6.421 -2.9195 -4.955 -7.3085 -8.0115 -5.6235 -4.955 -8.376 -7.386 -3.913 -5.440001 -5.451 -5.428 -6.684 -6.8075 -3.1695 -4.955 -6.494 -4.7835 -12.6132 -10.543 -5.043 
-5.9535 -5.180501 -6.670501 -9.978001 -12.7935 -10.808 -13.17 -7.9575 -9.615 -7.751 -9.626 -7.9395 -8.2255 -7.006001 -7.047 -7.6875 -5.731 -8.741501 -11.8795 -9.6675 -7.523 -8.465 -8.296 -10.1035 -10.3615 -11.7037 -7.296 -10.375 -7.9125 -9.9455 -7.437 -7.054 -5.378 -7.673 -12.2539 -9.294001 -7.607 -8.5385 -11.7019 -8.5245 -5.985 -5.923 -8.696 -8.4095 -8.208 -7.1185 -6.1615 -7.0555 -9.223001 -14.0046 -15.5117 -12.844 
-8.462501 -7.797 -10.054 -14.3044 -14.5227 -16.1507 -14.0765 -11.8806 -10.043 -11.1956 -12.5085 -8.804001 -12.879 -7.939 -8.012 -10.092 -10.1065 -12.3149 -13.561 -12.5281 -9.0015 -10.5425 -10.733 -11.4415 -15.3407 -12.8182 -11.5051 -12.437 -10.292 -12.3882 -8.1665 -7.896501 -8.052 -12.8618 -13.5364 -11.5287 -10.5745 -12.0528 -12.8404 -9.04 -6.4725 -8.6475 -10.436 -9.8435 -8.2095 -9.175501 -8.242001 -9.637 -18.5489 -16.9031 -17.8127 
-10.2375 -11.2985 -14.4168 -16.0336 -19.9222 -16.8562 -17.9996 -12.3086 -13.75 -14.0781 -13.373 -13.4937 -13.812 -8.697001 -10.4755 -10.7655 -13.6799 -13.9964 -16.4216 -14.0066 -11.1694 -12.9795 -12.071 -16.4207 -16.4552 -17.0273 -13.5671 -14.8165 -12.9295 -13.1177 -9.498 -11.2305 -13.4222 -14.1443 -15.7711 -14.4962 -14.0888 -13.1913 -13.3559 -9.787001 -9.144 -10.1565 -12.188 -10.2275 -10.7745 -11.3682 -10.9389 -19.1007 -21.4474 -19.2041 
