-4.759 
n/a 
n/a 
n/a 
n/a 
-4.759 
n/a 
n/a 
n/a 
n/a 
-4.759 
n/a 
n/a 
n/a 
n/a 
-4.759 
n/a 
n/a 
n/a 
n/a 
-1.934 0 -4.3665 0 -3.17 -1.7565 -3.277 -3.8185 -5.0275 
-1.934 -4.3665 -4.3665 -3.17 -4.179 -4.25 -7.113501 -8.678 
-7.241 -4.3665 -7.4145 -4.179 -5.4445 -7.936 -12.4244 
-7.241 -7.4145 -7.987 -5.4445 -8.804001 -13.2293 
-10.485 -7.987 -8.5495 -8.804001 -14.4063 
-3.17 -1.7565 -1.4985 -3.1385 -1.934 -3.676 -4.3535 -5.0275 -5.867 0 
-4.179 -2.4195 -4.2575 -4.522 -4.7985 -8.4865 -9.495001 -10.6605 -5.867 
-4.497 -5.013 -5.28 -6.740001 -9.2665 -14.0232 -15.1524 -10.6605 
-6.2035 -6.1235 -8.0625 -11.8464 -14.9988 -19.6806 -15.1524 
-7.1825 -8.414001 -13.3631 -17.5787 -20.6562 -19.6806 
-3.135 -3.264 -1.7565 -3.1385 -2.4945 -3.4635 -4.4805 -3.892 0 
-6.7145 -3.6125 -4.388 -4.588 -6.1285 -7.245 -9.587501 -3.892 
-6.915501 -5.281 -5.892 -7.7665 -9.0315 -12.8062 -9.587501 
-8.709001 -7.0825 -9.094001 -10.5325 -14.6289 -12.8062 
-9.790001 -10.0435 -12.062 -16.1299 -14.6289 
-1.934 -3.676 -3.17 -1.7565 -3.277 -2.4945 -3.4635 -5.0275 -4.2655 0 
-4.7985 -6.661 -4.179 -4.25 -5.237 -6.1285 -9.142501 -7.095 -4.2655 
-6.7995 -7.742001 -5.4445 -5.3725 -8.9545 -10.66 -11.3166 -7.095 
-8.4595 -8.8315 -6.1755 -9.019001 -13.623 -12.8341 -11.3166 
-9.404501 -9.628 -9.948001 -13.7183 -15.7971 -12.8341 
