-4.759 
n/a 
n/a 
n/a 
n/a 
-4.759 
n/a 
n/a 
n/a 
n/a 
-4.759 
n/a 
n/a 
n/a 
n/a 
-4.759 
n/a 
n/a 
n/a 
n/a 
-2.925 -4.9775 -5.986 0 -5.4615 -3.772 
-6.54 -12.1607 -5.986 -5.4615 -11.08 
-14.3544 -12.1607 -8.1295 -11.08 
-14.3544 -14.3042 -14.2294 
-16.4979 -20.4041 
-2.9805 -4.3215 -2.3335 -4.922 -4.231 -2.4945 -9.346001 -4.922 -3.1385 -1.756 -4.597 -3.277 -5.986 -1.756 -5.4615 -3.222 -2.985 -4.0335 0 
-6.933001 -6.283 -6.6945 -9.3655 -5.8785 -10.613 -13.508 -8.257501 -4.6325 -5.957 -6.0245 -9.634001 -6.8815 -6.838 -8.424 -5.116 -6.2 -4.0335 
-8.751 -11.0192 -11.9686 -11.345 -13.2542 -15.654 -17.0915 -10.31 -8.438001 -6.922 -13.0223 -10.6057 -8.627501 -9.93 -10.177 -8.1705 -6.2 
-13.6392 -16.2933 -13.9481 -18.7207 -19.9648 -19.3591 -19.144 -14.1155 -8.64 -14.1928 -13.994 -12.3517 -11.9263 -11.7208 -13.2315 -8.1705 
-18.9133 -18.2728 -21.3238 -25.4313 -23.3003 -21.4116 -22.9495 -14.3175 -16.0728 -15.1645 -15.74 -15.6505 -13.7171 -14.7753 -13.2315 
-2.9805 -4.816 -2.3335 -5.986 -1.756 -5.4615 -3.152 -4.226 -2.5195 -4.559 -5.1585 -2.3345 -2.985 -4.231 
-6.43 -5.693501 -7.934501 -6.8815 -6.838 -8.304001 -5.9325 -4.796 -7.1155 -8.9315 -7.257 -4.871 -6.377 
-7.1255 -10.6215 -9.2215 -8.627501 -9.0035 -11.1787 -6.4355 -9.753501 -11.9242 -11.2112 -9.472 -7.8195 
-12.1437 -11.9085 -10.3045 -10.4425 -11.9202 -11.6817 -11.4804 -14.5622 -14.2039 -13.4262 -12.6019 
-13.4307 -12.9915 -12.3157 -13.3592 -12.4232 -16.7266 -16.2891 -16.8419 -16.4189 -16.5561 
-2.9805 -4.816 -2.3335 -2.3335 -1.4985 -7.634501 -1.7565 -1.4985 -4.922 -5.8705 -1.756 -5.2645 -1.756 -1.4985 -5.5305 -4.231 -3.0695 -4.172 -3.277 -7.199 -3.277 0 
-6.43 -5.693501 -5.204 -3.3515 -8.282001 -8.245501 -2.4195 -5.496 -10.564 -7.356 -6.9345 -6.865 -3.0405 -6.423 -9.4905 -5.9045 -6.1505 -6.401 -11.117 -10.674 -3.277 
-7.1255 -8.275001 -6.598001 -9.641001 -8.625 -8.628501 -6.146501 -11.5788 -12.0495 -8.7355 -8.8475 -8.2775 -7.823 -9.986501 -11.3002 -8.717501 -7.993001 -15.4416 -14.592 -10.674 
-9.525001 -9.522 -12.9847 -9.950001 -8.972 -12.6275 -12.4523 -13.0643 -13.429 -10.495 -10.1855 -13.3366 -11.5327 -12.4928 -14.1132 -10.0505 -16.7668 -18.9166 -14.592 
-10.8226 -15.9913 -13.2937 -10.322 -13.0982 -18.9333 -13.9378 -14.4438 -15.1885 -11.833 -15.3918 -17.0463 -14.039 -15.3058 -15.4462 -18.9553 -20.2418 -18.9166 
