-4.759 
n/a 
n/a 
n/a 
n/a 
-4.759 
n/a 
n/a 
n/a 
n/a 
-4.759 
n/a 
n/a 
n/a 
n/a 
-4.759 
n/a 
n/a 
n/a 
n/a 
-3.0835 -4.584 0 -6.019 -5.0235 -3.213 
-7.693501 -4.584 -6.019 -11.7251 -8.133501 
-7.693501 -11.5702 -11.7251 -14.8351 
-15.0433 -17.2763 -14.8351 
-20.7494 -20.3863 
-4.0105 -4.867 0 -9.6365 -5.2915 -3.594 
-9.665001 -4.867 -9.6365 -15.0542 -8.496 
-9.665001 -15.4993 -15.0542 -18.2587 
-20.4769 -20.917 -18.2587 
-25.8946 -24.1215 
-3.0365 -2.4945 -3.3715 -4.2235 -2.9195 -2.7455 -3.729 -3.433 0 
-3.688 -4.846 -7.040501 -7.424001 -5.022 -6.2045 -6.64 -3.433 
-4.8765 -8.198 -10.9376 -8.7825 -8.9585 -9.5325 -6.64 
-8.2145 -12.3811 -12.2961 -14.1624 -12.7791 -9.5325 
-12.4102 -13.7396 -17.676 -17.983 -12.7791 
-4.359 -4.867 0 -8.27 -4.3075 -6.0675 -3.594 
-11.046 -4.867 -8.27 -13.0043 -9.345501 -8.851501 
-11.046 -14.1328 -13.0043 -18.0423 -12.2105 
-20.3118 -18.8671 -18.0423 -20.9073 
-25.0461 -23.9051 -20.9073 
