-4.759 
n/a 
n/a 
n/a 
n/a 
-4.759 
n/a 
n/a 
n/a 
n/a 
-4.759 
n/a 
n/a 
n/a 
n/a 
-4.759 
n/a 
n/a 
n/a 
n/a 
-5.052 -3.4635 -1.7695 -1.4985 -4.481 0 
-9.06 -4.2045 -2.7955 -6.0425 -4.481 
-9.853001 -4.7965 -7.404 -6.0425 
-10.4305 -9.087501 -7.404 
-14.7215 -9.087501 
-5.4525 -3.3715 -3.319 -1.7565 -4.957 0 
-9.363501 -7.602501 -4.165 -6.8025 -4.957 
-13.7423 -7.992501 -9.844501 -6.8025 
-14.1323 -13.8516 -9.844501 
-19.9914 -13.8516 
-3.9035 -3.4635 -1.7695 -5.4525 0 
-7.5865 -4.2045 -7.874001 -5.4525 
-8.156 -9.304501 -7.874001 
-13.4992 -9.304501 
-13.4992 
-1.934 -5.4525 -3.1385 -3.0695 -3.152 -4.077 -3.43 -3.6065 -3.9035 
-6.905 -9.143001 -4.286 -4.8015 -5.8555 -8.2295 -7.4475 -5.818501 
-10.7175 -10.524 -5.8625 -6.7805 -9.7405 -12.5288 -10.0095 
-12.0985 -12.1005 -7.648 -10.396 -14.1496 -15.0908 
-13.675 -13.886 -11.3321 -14.8051 -16.7116 
