-4.759 
n/a 
n/a 
n/a 
n/a 
-4.759 
n/a 
n/a 
n/a 
n/a 
-4.759 
n/a 
n/a 
n/a 
n/a 
-4.759 
n/a 
n/a 
n/a 
n/a 
-4.2115 -4.8645 -2.5195 -3.691 -4.4725 -2.823 -2.5045 -5.1005 
-10.6345 -6.9735 -5.5405 -8.986501 -9.026001 -6.2795 -8.104501 
-12.7435 -10.6919 -11.59 -14.0926 -13.2097 -12.5783 
-16.4619 -16.7414 -16.6961 -18.2763 -19.5085 
-22.5114 -21.8475 -20.8798 -24.5751 
-1.4985 -3.5025 -2.186 -1.8085 -3.6605 -3.127 -3.969 -3.2 
-4.16 -5.481 -3.164 -4.875 -6.4215 -5.910501 -5.9495 
-5.628 -6.424 -5.7605 -7.7605 -8.894001 -7.3755 
-6.493001 -7.8465 -8.975 -9.5395 -9.9335 
-7.884 -10.139 -10.104 -9.976001 
-5.6735 -4.3465 -2.823 -2.0935 -1.4985 -3.5025 -2.9705 -2.7415 -4.609 -2.5195 -3.691 0 
-9.219 -10.093 -5.4575 -2.9725 -4.16 -6.636 -4.512 -6.401 -7.195001 -5.5405 -3.691 
-15.3289 -12.7275 -6.422 -5.945 -6.724 -8.12 -8.6905 -9.18 -10.6234 -5.5405 
-17.9634 -13.692 -10.1425 -8.4975 -8.248501 -12.5563 -11.8797 -12.7108 -10.6234 
-18.9279 -17.4125 -12.695 -10.2695 -12.704 -15.7455 -15.4105 -12.7108 
-1.7695 -2.3615 -2.9825 -2.9705 -2.186 -3.7445 -2.5195 -3.691 0 -5.6735 -4.1935 -2.823 -3.893 0 
-3.736 -3.915 -5.7605 -3.89 -5.5855 -5.7215 -5.5405 -3.691 -5.6735 -9.622 -10.1075 -6.976501 -3.893 
-5.2105 -6.6485 -6.4475 -6.9775 -7.337501 -9.649 -5.5405 -9.666 -9.622 -15.7706 -14.261 -6.976501 
-7.5855 -7.601501 -8.887501 -8.821 -11.7086 -9.649 -12.2695 -13.8783 -15.7706 -19.9241 -14.261 
-8.799 -9.6735 -11.325 -13.2935 -11.7086 -16.6508 -16.4818 -20.0269 -19.9241 -19.9241 
