-4.759 
n/a 
n/a 
n/a 
n/a 
-4.759 
n/a 
n/a 
n/a 
n/a 
-4.759 
n/a 
n/a 
n/a 
n/a 
-4.759 
n/a 
n/a 
n/a 
n/a 
-3.1495 -4.1555 -1.7695 -2.3615 -4.3565 
-8.5375 -4.988501 -3.736 -5.8495 
-9.232501 -7.6025 -7.254 
-11.9965 -11.3175 
-15.7115 
-2.3615 -3.3755 -6.723001 -2.3615 -7.653501 
-4.8525 -10.177 -9.885501 -9.314 
-11.8904 -13.3395 -16.8672 
-15.0529 -20.3212 
-22.0346 
-2.3615 -3.7535 -2.186 -3.3165 -2.3335 -3.3755 
-5.2855 -5.946 -6.0985 -6.134 -4.985001 
-6.554 -10.4613 -9.723001 -7.1045 
-11.5701 -14.0858 -10.6765 
-15.1946 -15.0393 
-3.115 -2.3615 -1.4985 -4.3565 -4.1555 
-4.312 -4.913 -5.2825 -7.116 
-6.134 -8.3915 -7.272501 
-9.710001 -9.491 
-10.8163 
