-4.759 
n/a 
n/a 
n/a 
n/a 
-4.759 
n/a 
n/a 
n/a 
n/a 
-4.759 
n/a 
n/a 
n/a 
n/a 
-4.759 
n/a 
n/a 
n/a 
n/a 
-2.3615 -3.729 -2.186 -3.859 -2.0935 -1.4985 -4.933 -1.7565 -3.8905 
-6.068501 -5.6265 -6.7795 -6.2965 -2.9725 -6.417001 -6.0765 -4.622 
-6.9685 -9.887001 -8.309501 -7.132 -7.7275 -6.913501 -7.4195 
-11.4632 -11.446 -9.245001 -12.3746 -8.185 -7.928 
-13.0222 -12.3815 -14.5266 -12.8321 -9.059501 
-1.7695 -3.779 -4.9185 -1.4985 -4.6495 -2.229 -4.92 0 
-4.6635 -8.507 -6.613 -5.6025 -6.453501 -6.4585 -4.92 
-10.0745 -9.874001 -10.228 -6.934 -9.2075 -6.4585 
-10.3215 -10.3645 -10.369 -9.489 -9.2075 
-10.3765 -10.376 -10.3805 -9.489 
-2.4265 -2.186 -1.7695 -4.933 -1.4985 -4.6495 -2.3335 -2.3615 -3.729 -2.8645 -3.1125 -4.0835 0 0 
-3.292 -3.8745 -6.324 -6.1645 -5.6025 -7.369 -4.2805 -6.068501 -6.25 -3.5345 -5.886001 -4.0835 0 
-5.165 -8.165 -7.081 -8.9265 -8.023001 -9.3935 -7.783501 -7.5365 -6.8245 -6.3055 -5.886001 -4.0835 
-9.231501 -8.778501 -9.3815 -11.2946 -10.057 -13.2445 -9.014001 -8.079 -8.677501 -6.3055 -5.886001 
-9.9405 -11.3018 -11.802 -13.3286 -13.8546 -14.475 -9.548501 -10.2635 -8.677501 -6.3055 
-2.3615 -3.729 -2.7415 -4.492 -1.7695 -3.6845 -3.098 -1.756 -4.7155 -1.7695 -1.4985 -4.6495 0 
-6.068501 -5.9115 -5.722 -5.955 -4.2695 -7.25 -4.558 -6.666 -6.859 -2.7955 -5.6025 -4.6495 
-7.1125 -8.88 -6.763 -8.668 -8.193501 -7.744501 -7.808001 -8.181001 -7.936 -6.943 -5.6025 
-9.955501 -9.903501 -9.355 -12.78 -8.910501 -11.7955 -9.2355 -9.1525 -12.2947 -6.943 
-11.2572 -12.5083 -13.5714 -13.497 -13.4507 -13.223 -9.8995 -13.575 -12.2947 
