-4.759 
n/a 
n/a 
n/a 
n/a 
-4.759 
n/a 
n/a 
n/a 
n/a 
-4.759 
n/a 
n/a 
n/a 
n/a 
-4.759 
n/a 
n/a 
n/a 
n/a 
-2.3615 -4.3215 -2.742 -2.489 -4.896 -2.3345 -12.16972 0 -2.9805 -2.186 -4.156 -4.328 -1.7565 -5.965 0 
-8.158 -7.575001 -3.301 -6.743 -6.413001 -14.83482 -12.16972 -2.9805 -4.1635 -6.5635 -6.2095 -5.0935 -7.106 -5.965 
-11.4755 -8.198501 -7.9005 -7.6355 -19.61632 -14.83482 -15.15022 -4.1635 -7.7095 -9.338 -7.0935 -9.223001 -7.106 
-12.099 -13.0016 -8.2965 -20.97522 -19.61632 -17.81532 -16.33322 -7.7095 -10.199 -9.8195 -9.246 -9.223001 
-16.9021 -13.3976 -21.65662 -20.97522 -22.59682 -18.99832 -19.87922 -10.199 -10.8431 -12.0068 -9.246 
-3.433 -1.7565 -3.091 -4.662 -2.9805 -3.7555 -5.5395 -2.3345 -2.3335 -2.95 -5.3885 -4.156 -4.328 -9.251 0 
-4.1845 -4.0655 -7.0575 -7.582 -5.3095 -9.5425 -6.665 -5.2215 -4.8245 -9.113501 -9.179001 -6.2095 -14.8762 -9.251 
-5.7165 -8.228001 -8.728001 -10.2485 -11.5519 -10.487 -9.382001 -6.246 -11.2618 -13.2098 -9.3925 -17.4845 -14.8762 
-10.1505 -9.591001 -11.4009 -16.6025 -12.4964 -13.204 -10.6269 -12.8705 -15.3581 -13.4233 -21.6729 -17.4845 
-11.5135 -12.4907 -17.7549 -17.547 -15.2134 -14.4489 -17.2514 -16.9668 -15.5716 -25.7037 -21.6729 
-12.16972 -1.4985 -3.321 -4.156 -4.328 -1.7565 -5.965 -5.6445 -3.091 -6.3525 -1.7695 -4.649 -2.0935 -2.3615 -4.3285 0 
-13.66822 -5.696501 -7.2115 -6.2095 -5.0935 -7.106 -12.4343 -7.721001 -7.3125 -7.902 -6.7605 -7.7615 -3.854 -6.568501 -4.3285 
-17.86622 -7.848501 -8.376 -7.0935 -9.223001 -13.9077 -14.5108 -10.111 -8.892 -13.2424 -8.756001 -9.364 -8.2635 -6.568501 
-20.01822 -8.514001 -8.8015 -9.246 -16.4979 -15.9842 -16.9008 -10.5005 -14.39 -15.2379 -9.639501 -14.0379 -8.2635 
-20.68372 -8.913501 -10.4585 -16.5455 -18.5744 -18.3742 -17.2903 -15.9985 -16.3855 -16.1214 -14.6166 -14.0379 
-5.965 -3.1715 -4.156 -4.328 -4.668 -5.5395 -1.4985 -3.685 -1.7565 -8.110001 0 
-8.389 -7.225501 -6.2095 -9.0725 -7.387 -6.387 -4.771501 -4.5825 -9.84 -8.110001 
-12.7662 -8.274501 -11.6808 -10.1775 -7.691 -8.709001 -5.532001 -14.1504 -9.84 
-13.8152 -13.9198 -12.7858 -10.39 -9.887 -9.3905 -15.2091 -14.1504 
-19.4605 -15.0248 -12.9983 -12.586 -10.2785 -19.233 -15.2091 
