-4.759 
n/a 
n/a 
n/a 
n/a 
-4.759 
n/a 
n/a 
n/a 
n/a 
-4.759 
n/a 
n/a 
n/a 
n/a 
-4.759 
n/a 
n/a 
n/a 
n/a 
-3.6085 -3.1385 0 -3.0695 -6.403 -1.7695 -3.691 -2.674 -4.0005 -4.4345 0 -4.7625 -1.4985 -3.6085 -3.1385 -2.925 -2.4945 -6.453 0 
-6.699 -3.1385 -3.0695 -7.285001 -6.6235 -5.5435 -6.7065 -6.2225 -6.6525 -4.4345 -4.7625 -5.4475 -5.023 -6.699 -5.268001 -3.7675 -9.102501 -6.453 
-6.699 -4.286 -7.285001 -7.492501 -7.628 -8.418501 -10.3885 -9.401 -6.6525 -9.492001 -5.4475 -8.453501 -7.278 -9.1225 -6.487 -10.028 -9.102501 
-8.283501 -8.6455 -7.492501 -8.546 -10.609 -12.3591 -13.7742 -9.401 -12.4888 -10.0865 -8.453501 -10.7613 -9.576 -10.0315 -13.0629 -10.028 
-12.7914 -8.9385 -8.546 -11.645 -14.5496 -15.7448 -13.7742 -15.8593 -13.0833 -13.2543 -10.7613 -13.0593 -10.544 -16.6074 -13.0629 
-1.4985 -3.17 -3.6085 -3.1385 -3.0695 -5.7565 -2.5195 -4.088 -1.7695 -3.691 -4.7625 -4.3665 -2.4945 -4.1205 -2.5045 -6.453 0 
-3.7115 -7.321 -6.699 -4.286 -7.263 -6.703 -6.0615 -6.1505 -5.5435 -8.337001 -8.531 -5.6425 -5.191 -5.3175 -8.610001 -6.453 
-8.342501 -8.665501 -8.283501 -8.341001 -7.9075 -9.102 -7.083 -8.6155 -9.956 -12.4037 -10.151 -8.4615 -6.498 -11.9822 -8.610001 
-10.0494 -10.3675 -12.4869 -8.871501 -9.9375 -9.392501 -8.9075 -13.1518 -13.9849 -14.0237 -12.97 -10.533 -13.1669 -11.9822 
-11.7514 -14.5709 -13.0174 -11.0371 -10.2525 -11.409 -13.4892 -17.1807 -15.6049 -16.8427 -15.0415 -17.2019 -13.1669 
-1.4985 -3.6085 -4.4775 -1.8085 -4.3125 -3.4465 -1.934 -1.4985 -3.254 -1.7565 -3.45 -3.0695 -5.7565 -1.7695 -3.691 0 -2.925 -3.152 -2.6165 -3.115 -4.3665 -2.872 -1.4985 -6.453 -1.7565 -1.4985 -4.088 0 
-5.023 -9.2025 -6.259501 -4.6875 -8.0695 -5.361 -2.6125 -4.4095 -4.0065 -4.322 -4.273 -7.263 -6.202 -5.5435 -3.691 -2.925 -4.203 -4.6295 -5.172501 -7.385 -6.7135 -4.035 -7.4305 -7.904 -2.4195 -6.322001 -4.088 
-11.4466 -11.3177 -8.932501 -8.205 -9.407001 -5.722 -5.405 -4.8735 -6.5305 -5.289 -8.375 -7.602 -8.438001 -5.5435 -6.889501 -4.203 -5.583 -7.7675 -8.837001 -8.917 -7.788501 -9.775501 -8.6105 -8.4245 -7.1885 -6.322001 
-13.5618 -13.9907 -13.235 -9.507501 -9.6245 -9.901001 -5.9115 -7.093 -7.2365 -9.1215 -8.844501 -9.405001 -8.438001 -8.090501 -8.1955 -5.583 -8.447001 -11.704 -10.135 -10.322 -13.7496 -11.0159 -9.172501 -13.5743 -7.1885 
-16.2348 -18.2932 -14.5375 -9.708501 -14.0435 -10.5265 -8.244 -7.7105 -11.6214 -9.537001 -10.7595 -9.405001 -10.575 -9.257501 -9.812 -8.447001 -12.4963 -13.002 -11.65 -16.2831 -14.99 -11.5779 -14.3879 -13.5743 
-2.4265 -2.186 -4.1955 -4.4155 -2.3335 -4.015 -4.4345 -1.7565 -4.065 -3.1385 -5.7565 -3.222 -3.691 -2.4945 -2.6165 -3.115 -4.3665 -2.3345 -5.086 0 
-3.292 -5.1285 -8.947001 -5.6635 -5.5505 -8.2325 -4.719 -5.305501 -6.6145 -7.9635 -7.265 -6.6475 -6.250501 -3.8065 -5.172501 -7.385 -6.700001 -7.832001 -5.086 
-5.699 -9.8205 -9.649501 -9.488501 -9.645 -8.555 -8.7255 -7.7815 -11.8525 -9.319501 -10.382 -8.820001 -7.7685 -6.784 -8.837001 -9.9505 -12.7405 -7.832001 
-9.9245 -10.0285 -13.5929 -13.605 -10.4149 -12.8065 -10.019 -13.1901 -13.2085 -12.4501 -12.5545 -10.119 -10.749 -9.7845 -11.5823 -15.991 -12.7405 
-10.0345 -13.9689 -17.7094 -14.3749 -14.6664 -14.1 -15.6078 -14.5461 -16.3391 -14.6226 -13.8535 -13.0995 -13.7495 -12.8434 -17.6228 -15.991 
