-4.759 
n/a 
n/a 
n/a 
n/a 
-4.759 
n/a 
n/a 
n/a 
n/a 
-4.759 
n/a 
n/a 
n/a 
n/a 
-4.759 
n/a 
n/a 
n/a 
n/a 
-3.995 -12.16972 -4.1085 -1.7695 -3.711 -3.3715 -4.712 -1.7565 -3.89 -3.737 -3.1495 -3.5505 0 -9.875 -4.8095 -1.756 -3.074 0 
-17.29412 -16.27822 -4.428 -5.8935 -7.3535 -8.698001 -6.869 -5.5205 -7.547501 -6.0985 -7.176001 -3.5505 -9.875 -14.7733 -6.0425 -4.566 -3.074 
-21.40262 -16.59772 -10.168 -9.095 -13.1132 -11.5524 -11.7516 -9.3585 -9.812 -10.0575 -7.176001 -14.8041 -14.7733 -16.0063 -8.8605 -4.566 
-21.72212 -22.33772 -13.3695 -14.8869 -15.9676 -16.435 -15.5896 -11.609 -14.0078 -10.0575 -18.9836 -19.7024 -16.0063 -18.8243 -8.8605 
-27.46212 -25.53922 -19.1614 -17.7413 -20.8502 -20.273 -17.8401 -15.8048 -14.0078 -22.0303 -23.8819 -20.9354 -18.8243 -18.8243 
-1.4985 -3.8245 -4.3305 -3.995 -2.7415 -3.8755 -1.4985 -3.6835 -3.989 -8.402 -2.186 -3.5505 0 -4.0455 0 -4.8095 0 -5.079 0 -3.8245 -4.714 -1.756 -4.678 
-5.1915 -6.993 -5.8005 -6.3075 -5.065001 -5.275 -4.7155 -9.2475 -13.089 -11.406 -6.6805 -3.5505 -4.0455 -4.0455 -4.8095 -4.8095 -5.079 -5.079 -3.8245 -9.2285 -6.3225 -5.756 
-7.521501 -8.5725 -8.231501 -7.7645 -6.9315 -8.221001 -10.264 -18.7743 -16.1216 -16.5967 -6.6805 -8.443001 -4.0455 -9.904001 -4.8095 -9.678501 -5.079 -9.2425 -9.2285 -10.7605 -11.1099 
-9.665501 -11.8371 -9.672501 -9.6335 -10.361 -14.2257 -19.7174 -21.6075 -21.0591 -16.5967 -12.0856 -8.443001 -9.904001 -9.904001 -9.678501 -9.678501 -9.2425 -15.3107 -10.7605 -15.5479 
-13.0449 -13.2781 -11.7307 -13.1012 -16.3657 -23.6791 -22.5506 -26.545 -21.0591 -22.0018 -12.0856 -14.5971 -9.904001 -14.9622 -9.678501 -14.1836 -15.3107 -16.8427 -15.5479 
-4.426 -1.7565 -1.4985 -3.0835 -4.7285 -4.1555 -3.147 -3.995 -1.934 -4.066 -1.934 -3.458 -3.681 -2.0935 -3.8245 0 -1.934 -2.3615 -3.5505 0 -4.202 0 -4.8095 0 -4.0215 -1.756 -4.07 0 
-5.47 -2.4195 -3.535 -6.042 -8.4455 -5.77 -7.914001 -5.975 -7.1715 -5.226 -5.207 -7.2725 -5.6355 -5.878 -3.8245 -1.934 -3.539 -6.4975 -3.5505 -4.202 -4.202 -4.8095 -4.8095 -4.0215 -5.213 -5.9625 -4.07 
-5.9535 -4.6785 -6.335501 -9.523001 -9.541501 -10.3615 -10.396 -11.9011 -8.6145 -8.264 -8.642 -9.451 -9.193501 -5.878 -4.7245 -3.539 -7.8105 -6.4975 -7.979501 -4.202 -9.908501 -4.8095 -9.241001 -5.213 -10.5737 -5.9625 
-8.021 -7.476501 -10.0095 -10.7035 -14.133 -12.8435 -16.3221 -13.3441 -11.7445 -11.9208 -10.9329 -13.2208 -9.193501 -6.8935 -6.682 -7.8105 -7.8105 -11.5607 -7.979501 -9.908501 -9.908501 -9.241001 -10.143 -10.5737 -10.5737 
-9.983001 -11.3061 -11.3 -15.295 -16.615 -18.7696 -17.7651 -16.4741 -15.4013 -14.2117 -14.7027 -13.2208 -10.734 -8.6425 -11.5785 -7.8105 -13.3561 -11.5607 -14.2872 -9.908501 -14.34 -10.143 -15.5037 -10.5737 
-5.054 -3.8245 -3.89 -3.6845 -3.6835 -5.164 -3.3715 -3.681 0 -2.925 -3.6845 -3.5505 0 -4.442 0 -4.8095 0 -4.286 -1.756 -3.6835 -5.3655 
-10.7759 -6.634 -7.7245 -8.121 -5.399 -8.297 -5.4275 -3.681 -2.925 -5.672 -7.351 -3.5505 -4.442 -4.442 -4.8095 -4.8095 -4.286 -5.3085 -4.803 -7.958001 
-13.5854 -10.3745 -12.6398 -9.0375 -8.4825 -10.5535 -5.4275 -5.7295 -5.672 -9.1225 -7.351 -8.104501 -4.442 -9.599501 -4.8095 -9.316501 -5.3085 -8.084001 -8.683001 
-17.3259 -15.4692 -13.5563 -12.4266 -10.7696 -10.5535 -7.5435 -8.716001 -9.1225 -9.1225 -12.78 -8.104501 -9.599501 -9.599501 -9.316501 -9.862 -8.084001 -12.8884 
-22.4206 -16.3857 -16.9454 -14.7137 -10.7696 -12.6695 -10.203 -12.3121 -9.1225 -14.6659 -12.78 -13.5954 -9.599501 -14.1429 -9.862 -12.8121 -12.8884 
