-4.759 
n/a 
n/a 
n/a 
n/a 
-4.759 
n/a 
n/a 
n/a 
n/a 
-4.759 
n/a 
n/a 
n/a 
n/a 
-4.759 
n/a 
n/a 
n/a 
n/a 
-1.934 -5.9195 0 -2.5045 -1.4985 -4.4525 -1.7565 -12.576 -5.2845 -1.756 -9.117001 -4.2995 -4.09 0 -2.4265 -2.7415 -4.707 -1.7695 -4.2765 -3.8275 -3.458 -4.87 -1.756 -8.087001 
-7.7935 -5.9195 -2.5045 -3.583 -5.199 -5.1195 -12.5645 -16.506 -6.826 -11.8816 -13.8947 -8.0105 -4.09 -2.4265 -3.681 -6.116 -5.0995 -4.5005 -7.615001 -6.105 -7.8485 -5.5635 -9.6625 
-7.7935 -9.102501 -3.583 -7.495 -5.311501 -16.3803 -18.5308 -18.0475 -17.542 -16.6593 -17.6057 -8.0105 -6.5335 -3.681 -6.284 -6.424 -7.283 -7.721001 -9.731001 -9.441501 -7.8925 -15.3376 
-10.494 -10.6475 -7.495 -7.5735 -16.76 -22.247 -20.0723 -28.7635 -22.3197 -20.3703 -17.6057 -10.068 -7.7245 -6.284 -6.4825 -8.551001 -10.7175 -9.816001 -13.0505 -9.482 -17.6066 
-12.039 -14.5595 -7.5735 -19.1626 -22.4601 -23.7885 -30.7883 -33.5412 -26.0307 -20.3703 -19.6632 -11.259 -10.3675 -6.4825 -8.627 -12.1295 -12.8125 -13.1455 -13.091 -19.5857 
-1.934 -7.120501 -3.5015 -1.4985 -4.6555 -2.186 -4.911 -2.3345 -9.110001 0 -2.3345 -1.4985 -3.898 -1.7565 -7.056 -3.685 0 -2.925 -4.8165 -2.3335 -2.925 -4.9045 -3.8115 -1.7695 -3.935 -1.4985 -4.3685 -3.458 -4.87 -1.756 -9.110001 0 
-9.711 -11.2544 -4.9995 -5.724501 -6.441 -6.506001 -5.8965 -9.72 -6.757 -2.3345 -3.233 -5.0465 -4.9795 -9.149 -11.6976 -3.685 -2.925 -7.1545 -5.8995 -4.0295 -6.572001 -8.379 -3.8325 -4.6555 -5.08 -5.106 -6.168 -7.8485 -5.5635 -8.7435 -6.757 
-14.1609 -12.7524 -9.4895 -7.847001 -10.2435 -7.2535 -13.4845 -8.6875 -9.1555 -3.233 -6.93 -5.3325 -13.027 -13.8562 -11.6976 -6.7915 -7.1545 -7.809 -7.208 -7.6905 -10.4691 -8.406 -6.545 -5.519001 -8.7895 -6.761 -11.0345 -7.8925 -10.719 -8.0005 
-15.6589 -17.2424 -11.8766 -11.8935 -10.573 -14.8499 -13.4845 -11.4038 -9.962001 -6.93 -7.175 -13.5716 -17.7342 -13.8562 -14.8041 -10.2085 -7.809 -8.472 -11.3592 -11.6984 -10.4961 -11.5833 -7.2805 -9.114501 -9.699 -11.7661 -11.0785 -10.1125 -9.710001 
-20.1489 -19.6295 -15.9231 -12.223 -18.1694 -14.8499 -16.2008 -12.2103 -14.0624 -7.175 -15.5701 -18.2788 -17.7342 -16.9627 -18.2211 -10.863 -8.472 -12.8038 -15.3671 -11.7254 -13.6734 -12.3188 -10.586 -9.988501 -15.2041 -11.8101 -13.0815 -9.8955 
-3.0365 -2.186 -2.847 -3.6885 -4.9565 -3.458 -4.489 0 -10.283 
-3.66 -4.1045 -5.1925 -6.2345 -8.793 -7.651 -4.489 -10.283 
-4.256001 -6.3565 -9.376 -10.1035 -13.1914 -7.651 -15.7802 
-6.5815 -11.0124 -13.285 -15.0053 -13.1914 -20.395 
-11.382 -14.9214 -18.1868 -15.0053 -25.9354 
-2.5045 -11.339 -4.7015 -3.9535 -6.183 -1.934 -7.120501 -3.8195 -1.756 -1.4985 -4.719 -7.056 -4.2995 -4.4725 -4.25 -2.4265 -2.7415 -4.1205 -2.3335 -1.4985 -3.8275 -3.458 -9.110001 -1.756 -4.87 -3.8635 -2.489 -6.2705 
-11.9685 -12.785 -8.633 -9.0845 -7.803 -9.711 -11.5724 -5.127 -3.0405 -5.66 -12.852 -12.3121 -8.9835 -7.450001 -6.7635 -3.681 -5.631001 -5.9915 -3.3515 -4.726 -6.105 -9.919001 -8.539001 -6.8225 -9.097501 -4.4165 -7.168 
-15.5821 -16.4356 -14.4334 -10.0615 -16.1466 -14.4789 -12.8799 -6.357 -7.2475 -14.2226 -18.1081 -16.9961 -10.477 -9.344501 -8.386001 -6.542 -7.324 -6.5335 -6.5045 -6.6875 -10.227 -9.7825 -9.7845 -10.396 -9.749501 -8.6785 
-18.3341 -22.4148 -15.4104 -18.6651 -20.9145 -15.7864 -14.1099 -10.485 -15.9771 -19.4787 -22.7921 -18.4896 -12.3715 -9.941001 -11.3612 -7.3445 -7.8455 -10.0375 -8.561501 -10.266 -9.863501 -10.4725 -13.0284 -11.048 -14.0525 
-24.1373 -23.3918 -24.014 -23.433 -22.222 -17.0164 -18.2379 -19.2146 -21.2332 -24.1627 -24.2856 -20.3841 -12.968 -12.9162 -12.1637 -7.8545 -11.3967 -12.1187 -12.4336 -10.54 -10.308 -13.3882 -13.8282 -15.351 
