-4.759 
n/a 
n/a 
n/a 
n/a 
-4.759 
n/a 
n/a 
n/a 
n/a 
-4.759 
n/a 
n/a 
n/a 
n/a 
-4.759 
n/a 
n/a 
n/a 
n/a 
-9.018001 -4.639 -9.27 -10.7545 -4.2635 -4.493 
-13.8224 -15.0324 -20.1705 -15.018 -7.163 
-24.2158 -25.9329 -24.434 -17.9175 
-35.1163 -30.1964 -27.3335 
-39.3798 -33.0959 
-4.675 -1.7565 -6.899 -4.639 -10.7545 
-5.6675 -8.5275 -12.5484 -16.5169 
-13.3559 -14.3665 -24.4263 
-19.1949 -26.2444 
-31.0728 
-7.5865 -4.639 -5.022 -9.738001 -5.4295 
-13.3075 -8.950001 -10.7495 -15.3047 
-17.6185 -14.9119 -16.3162 
-23.5804 -20.4786 
-29.1471 
-8.461 -4.639 -4.7735 -12.16972 -4.7035 -4.493 
-13.275 -8.622001 -17.72122 -16.87322 -10.0445 
-17.258 -21.93832 -22.42472 -22.21422 
-30.57432 -26.64182 -27.76572 
-35.27782 -31.98282 
