-4.759 
n/a 
n/a 
n/a 
n/a 
-4.759 
n/a 
n/a 
n/a 
n/a 
-4.759 
n/a 
n/a 
n/a 
n/a 
-4.759 
n/a 
n/a 
n/a 
n/a 
-1.934 -6.864 -2.95 -5.1845 -1.756 -5.389 0 -4.389 -4.266 -4.0735 -6.269001 
-9.2825 -10.884 -9.214001 -7.2435 -6.929 -5.389 -4.389 -8.314001 -6.6295 -9.859 
-13.4907 -17.148 -11.2494 -10.7175 -6.929 -11.117 -8.314001 -10.1995 -13.1836 
-19.7547 -19.1834 -14.7234 -10.7175 -13.0738 -15.042 -10.1995 -16.7536 
-21.7901 -22.6574 -14.7234 -16.8623 -16.9988 -16.9275 -16.7536 
-9.3675 -4.266 -4.0735 -9.962501 -7.537 -1.934 -4.365 -3.5435 -3.8405 
-13.7733 -6.6295 -14.9032 -17.6889 -11.08 -6.322 -8.9755 -7.9315 
-16.1368 -18.2278 -22.6296 -21.2319 -15.468 -11.5899 -13.8615 
-27.7351 -25.9542 -26.1726 -25.6199 -20.7359 -16.4759 
-35.4615 -29.4972 -30.5606 -30.8878 -25.6219 
-5.1845 -1.756 -5.4685 -3.5455 -6.864 -3.8405 -2.3345 -4.389 -5.278 -4.0735 -7.058001 -2.229 -4.1595 
-7.2435 -6.951 -8.51 -10.0285 -8.532001 -6.2685 -7.255 -9.678501 -8.541 -11.9987 -9.684501 -6.084001 
-13.2105 -10.016 -15.5516 -10.6655 -11.2906 -11.77 -13.0985 -12.8831 -16.5418 -14.6252 -13.8211 
-16.2755 -17.01 -16.1886 -13.4241 -16.7921 -17.6135 -16.3031 -20.8839 -19.1683 -18.7618 
-23.2695 -17.647 -18.9472 -18.9256 -22.6356 -20.8181 -24.3039 -23.5104 -23.3049 
-8.257501 -4.739 -5.1845 -1.756 -5.3765 0 -4.1595 -1.7695 -6.460001 -4.266 -4.0735 -6.269001 
-13.4257 -11.0273 -7.2435 -7.376 -5.3765 -4.1595 -6.358 -6.900001 -10.7665 -6.6295 -9.859 
-19.714 -13.0863 -13.6355 -7.376 -10.147 -6.358 -11.9815 -11.8781 -13.13 -13.1836 
-21.773 -19.4783 -13.6355 -12.4541 -12.5193 -11.9815 -16.9596 -14.2416 -19.6841 
-28.165 -19.4783 -18.7136 -14.8264 -18.1428 -16.9596 -19.3231 -20.7957 
