-4.759 
n/a 
n/a 
n/a 
n/a 
-4.759 
n/a 
n/a 
n/a 
n/a 
-4.759 
n/a 
n/a 
n/a 
n/a 
-4.759 
n/a 
n/a 
n/a 
n/a 
-2.4265 -2.674 -3.3715 -4.229 0 
-5.6185 -5.4105 -6.913 -4.229 
-8.5235 -8.9425 -6.913 
-12.1969 -8.9425 
-12.1969 
-3.1435 -3.918 -2.186 -1.8085 -4.124 -2.356 -3.3715 -4.229 0 
-6.3365 -5.801001 -3.164 -5.9635 -6.252 -5.039001 -6.913 -4.229 
-7.858 -7.026501 -7.116 -7.775001 -8.633 -8.284 -6.913 
-8.765 -11.2735 -9.638 -9.772 -11.969 -8.284 
-13.1518 -13.7955 -11.7014 -13.108 -11.969 
-2.3615 -3.251 -3.3715 -4.229 -1.934 -2.4265 0 
-6.0015 -5.8955 -6.913 -5.7675 -4.6645 -2.4265 
-8.946 -9.429501 -8.272 -8.617001 -4.6645 
-12.7068 -10.6895 -10.041 -8.617001 
-13.9668 -12.4585 -10.041 
-2.3615 -5.056 -4.0395 -2.8645 -3.3715 -4.229 
-7.9925 -8.482 -6.379001 -5.473001 -6.913 
-11.6477 -10.703 -8.833501 -8.689 
-13.8687 -13.1575 -12.2849 
-16.3232 -16.6089 
