-4.759 
n/a 
n/a 
n/a 
n/a 
-4.759 
n/a 
n/a 
n/a 
n/a 
-4.759 
n/a 
n/a 
n/a 
n/a 
-4.759 
n/a 
n/a 
n/a 
n/a 
-3.2615 -2.3615 -3.5035 -1.4985 -4.065 -3.4465 -2.7415 -3.931 0 
-5.276 -5.7945 -5.2165 -4.824 -8.727 -6.6895 -7.734 -3.931 
-8.588 -7.184 -8.5835 -9.243501 -12.4438 -12.2986 -7.734 
-10.316 -10.7025 -13.2438 -13.2439 -18.0529 -12.2986 
-13.8345 -15.3628 -17.2442 -18.853 -18.0529 
-3.819 -2.3615 -3.5035 -4.0555 -1.934 -1.7695 -3.895 -7.572001 -4.0555 -1.7695 -2.664 -3.498 -1.934 -1.4985 -4.3105 -4.1265 0 
-5.870501 -5.7945 -7.321 -5.263 -4.0395 -5.279 -12.5142 -12.1345 -4.7475 -4.185 -5.1155 -5.52 -2.6125 -4.977 -8.185 -4.1265 
-9.111 -8.674 -8.441 -6.6225 -8.1245 -14.4364 -17.0767 -12.8265 -6.349 -5.6315 -6.476501 -6.4315 -6.096001 -8.3135 -8.185 
-12.7405 -10.0125 -9.3535 -9.9455 -17.4693 -18.9989 -17.7687 -14.428 -6.4995 -6.9255 -7.548 -10.1545 -10.1035 -8.3135 
-14.079 -11.0172 -13.2743 -19.3453 -22.0318 -19.6909 -19.3702 -14.5785 -7.3775 -7.6105 -11.581 -14.8136 -10.1035 
-3.2615 -3.1495 -4.179 -3.152 -4.4945 0 -1.4985 -4.559 -2.229 -3.355 -1.934 -3.8655 -4.0555 -1.7695 -2.664 -3.498 0 
-6.233 -6.1305 -6.4505 -6.8615 -4.4945 -1.4985 -7.208 -5.3525 -5.6335 -4.8475 -4.9135 -8.0515 -4.7475 -4.185 -5.1155 -3.498 
-9.33 -7.597 -10.8972 -6.8615 -5.6555 -7.208 -7.673 -9.043 -7.134 -8.479501 -8.668 -8.786 -6.349 -5.6315 -5.1155 
-9.902 -12.1761 -10.8972 -8.070001 -11.864 -7.673 -11.8829 -9.286 -10.933 -13.295 -9.5155 -10.1155 -6.4995 -5.6315 
-14.7157 -12.1761 -12.1057 -14.3617 -12.329 -11.8829 -12.1259 -13.3694 -15.7485 -14.1425 -10.6895 -10.206 -6.4995 

n/a 
n/a 
n/a 
n/a 
