-4.759 
n/a 
n/a 
n/a 
n/a 
-4.759 
n/a 
n/a 
n/a 
n/a 
-4.759 
n/a 
n/a 
n/a 
n/a 
-4.759 
n/a 
n/a 
n/a 
n/a 
-3.115 -2.3615 -4.3615 -3.824 -2.4945 -3.8535 -1.934 -1.8085 -5.004 -4.0395 -2.4265 -4.4825 0 
-4.312 -6.7665 -8.352501 -5.6875 -5.5465 -5.002 -3.2685 -6.269 -8.9585 -6.398 -5.5995 -4.4825 
-8.738001 -11.4171 -10.038 -9.182 -6.6265 -6.0005 -7.379001 -9.7565 -11.3436 -10.6095 -5.5995 
-13.5922 -13.1026 -13.5325 -10.3825 -7.498 -10.6454 -11.0219 -12.311 -15.5551 -10.6095 
-15.2777 -16.5971 -14.733 -11.254 -12.2905 -14.2883 -13.5764 -16.5225 -15.5551 
-2.3615 -3.319 -1.7565 -12.16972 -1.7565 -7.3885 -2.742 -3.0465 -4.221 -3.7575 -5.004 
-4.9575 -4.165 -14.87542 -13.92622 -8.875 -10.3285 -4.8155 -7.2665 -8.688 -8.473001 
-5.092 -18.14792 -16.63192 -21.04472 -12.1 -12.5724 -8.724001 -12.0983 -10.622 
-19.35652 -19.90442 -23.75042 -24.26972 -14.3439 -16.4809 -13.7064 -14.0323 
-21.11302 -27.02292 -26.97542 -26.51362 -18.2524 -21.4633 -15.6404 
-2.3345 -2.9705 -2.4265 -4.1675 -3.115 -5.7055 -4.4385 0 
-5.03 -4.867001 -4.8995 -4.664 -8.977001 -7.3975 -4.4385 
-6.4895 -7.991 -5.1585 -11.047 -10.647 -7.3975 
-10.2585 -8.169001 -11.6811 -12.717 -10.647 
-10.4365 -15.0904 -13.3511 -12.717 
-2.3615 -3.3755 -1.7565 -5.1605 -2.8645 -1.4985 -4.4385 -2.5045 -3.535 -2.9775 -5.004 -3.432 -4.91 0 
-4.8525 -4.5295 -6.723001 -8.283 -4.3545 -5.331 -6.503 -5.9135 -7.5135 -8.8055 -8.192 -8.633 -4.91 
-6.5115 -10.361 -9.501 -9.978001 -7.616 -7.988501 -9.9835 -10.647 -13.8757 -12.1945 -14.5082 -8.633 
-12.8932 -13.7096 -11.2172 -13.2395 -10.067 -11.7548 -14.7226 -17.0092 -17.2647 -18.5107 -14.5082 
-16.2418 -15.4258 -14.4787 -15.6905 -13.9129 -16.4939 -21.0848 -20.3982 -23.5809 -18.5107 
