-4.759 
n/a 
n/a 
n/a 
n/a 
-4.759 
n/a 
n/a 
n/a 
n/a 
-4.759 
n/a 
n/a 
n/a 
n/a 
-4.759 
n/a 
n/a 
n/a 
n/a 
-2.4265 -3.2645 -2.489 -8.67 -1.756 -2.4265 -3.2645 -4.4295 -1.4985 -3.308 -2.229 -3.3425 -4.394 
-4.563 -3.7195 -10.884 -9.465 -3.949 -4.563 -6.603001 -5.163 -4.846 -5.583 -5.556 -8.004001 
-4.8385 -12.4993 -11.679 -12.1638 -5.9305 -8.039001 -7.3125 -9.203 -6.989 -8.039001 -9.745501 
-13.7463 -13.2943 -14.3778 -14.1453 -9.368501 -8.738501 -11.6629 -10.622 -8.718 -12.4753 
-14.5413 -15.9931 -16.3593 -17.5833 -9.993 -13.1893 -13.0819 -12.351 -13.3273 
-6.4885 -1.756 -4.4895 -4.347 -4.676 
-8.141 -6.191 -9.0835 -10.66 
-12.883 -10.5975 -15.9053 
-17.2895 -17.4193 
-24.1113 
-4.8835 -6.4885 -1.756 -1.7565 -3.6435 -10.8475 -3.147 0 
-12.5274 -8.141 -4.57 -4.219 -15.4826 -13.9945 -3.147 
-14.1799 -11.262 -5.1105 -16.3989 -18.6296 -13.9945 
-17.3009 -11.8025 -17.3328 -19.5459 -18.6296 
-17.8414 -24.0248 -20.4798 -19.5459 
-4.841 0 -5.265 -1.4985 -4.031 -5.943501 -1.934 -3.135 -3.3755 
-4.841 -5.265 -6.1485 -4.937 -10.9723 -7.7205 -4.4015 -5.492001 
-10.733 -6.1485 -9.524 -13.2143 -12.7493 -9.4785 -5.684501 
-11.6165 -9.524 -17.9057 -14.9913 -14.5073 -10.505 
-14.992 -17.9057 -19.6827 -16.7493 -15.5338 
