-4.759 
n/a 
n/a 
n/a 
n/a 
-4.759 
n/a 
n/a 
n/a 
n/a 
-4.759 
n/a 
n/a 
n/a 
n/a 
-4.759 
n/a 
n/a 
n/a 
n/a 
-3.254 -1.7565 -5.9725 -7.789001 -1.934 -5.4665 
-4.0065 -7.603001 -14.5837 -9.5325 -5.509501 
-9.659 -16.5884 -16.3272 -13.285 
-19.3482 -18.3319 -20.0797 
-21.0917 -22.0844 
-3.254 -1.7565 -5.9725 -5.0235 -1.934 -5.4665 
-4.0065 -7.603001 -9.116 -6.6285 -5.509501 
-9.659 -9.76 -9.685 -9.139001 
-9.8605 -9.8365 -9.861501 
-9.864 -9.864501 
-3.254 -1.7565 -5.9725 -5.0235 -1.934 -5.4665 
-4.0065 -7.603001 -9.116 -6.6285 -5.509501 
-9.659 -9.76 -9.685 -9.139001 
-9.8605 -9.8365 -9.861501 
-9.864 -9.864501 
-3.254 -1.7565 -5.9725 -5.0235 -1.934 -5.4665 
-4.0065 -7.603001 -9.116 -6.6285 -5.509501 
-9.659 -9.76 -9.685 -9.139001 
-9.8605 -9.8365 -9.861501 
-9.864 -9.864501 
