-4.759 
n/a 
n/a 
n/a 
n/a 
-4.759 
n/a 
n/a 
n/a 
n/a 
-4.759 
n/a 
n/a 
n/a 
n/a 
-4.759 
n/a 
n/a 
n/a 
n/a 
-3.321 -2.4265 -2.7415 -4.164 -3.2615 -1.8085 -5.116 -2.3335 -2.925 -3.1425 -4.452 -2.985 -3.2895 -5.1585 0 
-4.872 -3.681 -5.8395 -6.537 -4.417 -5.955501 -6.8455 -4.0295 -4.669 -6.1445 -5.7375 -5.671 -9.296 -5.1585 
-6.058001 -7.098 -7.882 -7.8525 -8.538 -7.247001 -8.8855 -5.462501 -7.119 -7.178 -8.1845 -10.543 -9.296 
-8.7615 -9.091001 -9.120501 -12.1427 -10.4425 -9.261001 -10.127 -7.8395 -7.7535 -9.388 -13.3367 -10.543 
-11.2275 -10.467 -13.5421 -14.0472 -12.4565 -10.6345 -12.504 -8.377501 -10.111 -14.742 -13.3367 
-3.882 -3.0365 -2.7415 -5.116 -1.756 -2.925 -3.152 -3.43 -1.7695 -4.452 -2.985 -3.2895 -3.8725 -2.3345 -3.8725 0 
-6.492001 -4.2225 -8.869 -6.516 -4.2585 -4.203 -5.144 -4.647 -4.9815 -5.7375 -5.671 -8.222 -4.892 -4.9005 -3.8725 
-7.232 -9.537001 -9.954 -8.8085 -5.539 -6.452001 -5.958 -8.805 -6.518001 -8.1845 -10.4505 -9.252501 -4.905 -4.9005 
-12.7073 -10.534 -12.2465 -10.119 -8.061501 -7.529 -10.2585 -9.922501 -9.154501 -13.2442 -11.481 -9.2665 -4.905 
-13.7043 -12.8265 -13.557 -12.7599 -8.686 -12.2471 -11.376 -12.6264 -14.1608 -14.2747 -11.495 -9.2665 
-3.321 -6.0915 -1.756 -3.5745 -2.3335 -4.9225 -2.4945 -3.5745 -5.651501 -2.674 -2.9995 -3.2895 
-9.969501 -7.0265 -5.2215 -5.5335 -7.651 -6.9525 -7.627 -9.1155 -6.316 -4.4625 -5.82 
-10.4005 -11.4274 -7.554 -11.3574 -9.286 -12.403 -11.9023 -10.533 -9.086 -7.245501 
-14.8428 -13.7599 -13.4125 -12.9924 -14.8275 -16.6783 -13.1923 -9.9905 -11.943 
-17.1753 -19.6184 -15.0475 -18.5339 -19.1028 -17.9683 -14.1813 -12.6911 
-3.321 -1.8085 -5.116 -2.7415 -4.254 -2.9905 -1.756 -2.4265 -2.7415 -3.0415 -3.8535 -2.3335 -1.4985 -3.499 -4.4825 -1.7695 -4.452 -2.985 -3.2895 -3.8725 -2.3345 -3.8725 
-5.149 -5.955501 -7.155 -7.027 -5.5485 -4.565001 -3.949 -3.681 -4.9125 -7.1725 -5.6205 -3.3515 -4.967 -9.120001 -5.05 -4.9815 -5.7375 -5.671 -8.222 -4.892 -4.9005 
-9.128 -7.551001 -8.953 -7.4205 -7.001 -6.394001 -4.9795 -5.6545 -8.698 -8.996 -7.282001 -6.5735 -10.172 -9.2215 -8.74 -6.518001 -8.1845 -10.4505 -9.252501 -4.905 
-10.2815 -9.056001 -8.959001 -8.6505 -8.428 -7.279 -6.705 -9.007 -9.925501 -10.013 -10.7038 -12.2963 -10.2065 -13.3263 -9.901 -9.154501 -13.2442 -11.481 -9.2665 
-11.7395 -9.061001 -10.0965 -10.1035 -9.1745 -9.0185 -9.2405 -10.6595 -11.1553 -13.4348 -16.4266 -12.3308 -14.5335 -14.4873 -12.6655 -14.1608 -14.2747 -11.495 
