-4.759 
n/a 
n/a 
n/a 
n/a 
-4.759 
n/a 
n/a 
n/a 
n/a 
-4.759 
n/a 
n/a 
n/a 
n/a 
-4.759 
n/a 
n/a 
n/a 
n/a 
-4.2485 -1.756 -4.152 -4.126 0 
-5.4505 -5.8515 -8.654501 -4.126 
-9.273001 -10.6334 -8.654501 
-14.3229 -10.6334 
-14.3229 
-3.8105 -1.756 -3.852 -3.6615 
-6.2345 -6.3855 -7.7485 
-12.7336 -9.3745 
-15.7226 
n/a 
-4.426 -1.7565 -1.4985 -3.6115 -4.7285 -4.1555 -3.147 -5.626 -1.756 -4.763 
-5.47 -2.4195 -4.081 -6.5495 -8.4455 -5.77 -10.0285 -6.608 -6.6655 
-5.9535 -5.180501 -6.670501 -9.978001 -9.541501 -12.7925 -11.1003 -12.5855 
-8.462501 -7.797 -10.054 -11.0524 -16.564 -13.8643 -17.0778 
-10.2375 -11.2985 -11.1648 -18.0749 -17.6358 -19.8418 
-4.113 -1.756 -3.852 
-5.653501 -6.3855 
-8.774 
n/a 
n/a 
