-4.759 
n/a 
n/a 
n/a 
n/a 
-4.759 
n/a 
n/a 
n/a 
n/a 
-4.759 
n/a 
n/a 
n/a 
n/a 
-4.759 
n/a 
n/a 
n/a 
n/a 
-3.0365 -2.4945 -2.645 -4.91 -1.756 -5.59 -3.1385 -1.934 -1.4985 -3.8005 -3.5125 
-3.688 -4.6775 -5.327001 -6.106501 -6.813 -8.141001 -4.522 -2.6125 -5.7805 -7.1505 
-5.477 -7.811501 -7.469001 -8.5895 -8.9265 -9.34 -5.087501 -7.015501 -9.1425 
-9.463501 -8.384001 -9.837501 -9.586 -10.2235 -9.861501 -9.946 -10.609 
-10.4955 -10.9443 -11.1466 -10.8702 -10.5515 -14.803 -13.5395 
-3.5455 -1.4985 -3.5125 -1.7565 -3.8005 0 -3.849 -4.571 -5.219 -3.152 -3.557 0 
-3.91 -4.7015 -4.312 -5.0365 -3.8005 -3.849 -9.545501 -11.08 -7.7465 -5.1785 -3.557 
-7.8095 -4.846 -7.2005 -5.0365 -8.0175 -9.545501 -16.4407 -13.6075 -10.1838 -5.1785 
-7.93 -7.865 -7.2005 -9.051001 -14.0042 -16.4407 -18.9682 -16.0448 -10.1838 
-11.3296 -7.865 -11.743 -15.1841 -20.8994 -18.9682 -21.4055 -16.0448 
-1.934 -3.8005 -3.0415 -3.3715 -8.572001 -2.4945 -3.0365 
-4.8035 -7.0245 -4.5985 -13.2335 -10.66 -4.952001 
-7.4455 -9.074 -14.7103 -15.3215 -13.1175 
-9.489501 -19.3482 -16.7983 -17.779 
-19.8421 -21.4362 -19.2558 
-3.8005 -3.5125 -4.196 -4.0725 -6.509 -3.962 0 
-7.1505 -8.405001 -7.4635 -12.1163 -11.537 -3.962 
-12.7544 -12.0013 -16.8313 -17.1443 -11.537 
-16.3507 -21.3691 -21.8593 -17.1443 
-25.7185 -26.3971 -21.8593 
