-4.759 
n/a 
n/a 
n/a 
n/a 
-4.759 
n/a 
n/a 
n/a 
n/a 
-4.759 
n/a 
n/a 
n/a 
n/a 
-4.759 
n/a 
n/a 
n/a 
n/a 
-4.1455 -4.916 -2.186 -1.8085 -3.355 -1.7565 -3.6385 -2.0935 -1.4985 -4.0535 -1.7565 -4.361 -4.7455 
-7.763 -6.886001 -3.164 -4.6195 -3.725 -5.035 -5.8025 -2.9725 -4.5605 -4.5115 -5.442 -6.913 
-9.134001 -8.005001 -5.552 -4.725 -7.528501 -7.3665 -6.426 -4.908 -4.6195 -7.6485 -7.6965 
-10.195 -9.7075 -5.599 -8.613001 -9.574 -8.0275 -8.805 -4.941 -7.6765 -9.878 
-11.8975 -9.744 -9.374001 -10.9081 -10.599 -9.722 -8.869 -7.693501 -9.934501 
-4.1455 -5.4625 -2.186 -1.8085 -3.6835 -4.916 -3.557 -1.934 -1.4985 -4.0435 -4.35 -1.7565 -1.4985 -3.6835 -3.7435 0 
-7.027 -9.203501 -3.164 -5.1055 -7.299001 -8.661501 -4.4175 -2.6125 -5.16 -7.907001 -5.3865 -2.4195 -4.7155 -5.62 -3.7435 
-10.396 -10.3105 -6.349 -8.5015 -11.8743 -8.957001 -4.9675 -6.8275 -8.1575 -8.3 -6.2025 -5.337 -5.785501 -5.62 
-11.503 -13.4955 -10.054 -13.2412 -12.1698 -9.388 -9.006001 -9.6145 -8.498 -8.738501 -9.076 -6.3325 -5.785501 
-14.688 -17.2005 -14.9193 -13.5367 -12.6008 -13.6553 -12.0544 -9.852 -8.827001 -11.7914 -10.2485 -6.3325 
-3.6385 -3.8015 -2.186 -2.9905 -3.8055 -1.7565 -3.189 0 
-7.249001 -5.967 -5.0885 -6.777 -7.3295 -4.498 -3.189 
-9.545 -9.0465 -9.1555 -8.209001 -10.379 -4.498 
-12.8007 -13.3647 -10.8159 -11.4127 -10.379 
-17.1189 -15.0251 -14.0196 -11.4127 
-5.0295 -2.186 -1.4985 -4.916 -4.2705 -1.7695 -4.7455 0 
-6.8165 -3.339 -6.064 -9.3745 -5.3315 -7.1215 -4.7455 
-8.2825 -7.706 -10.5745 -10.21 -12.0481 -7.1215 
-10.3345 -12.8761 -11.41 -17.2188 -12.0481 
-15.5046 -13.7116 -18.4188 -17.2188 
