-4.759 
n/a 
n/a 
n/a 
n/a 
-4.759 
n/a 
n/a 
n/a 
n/a 
-4.759 
n/a 
n/a 
n/a 
n/a 
-4.759 
n/a 
n/a 
n/a 
n/a 
-2.4265 -2.186 -3.849 -2.5045 -1.8085 -4.055 0 
-3.292 -4.8565 -6.305 -3.3625 -5.689 -4.055 
-5.872 -7.104 -6.9375 -7.339001 -5.689 
-8.048 -7.7625 -11.5984 -7.339001 
-8.833501 -12.543 -11.5984 
-3.1435 -3.849 -4.055 
-6.4005 -8.2925 
-11.0392 
n/a 
n/a 
-2.4265 -2.186 -3.849 -2.0935 -3.535 -4.055 
-3.292 -4.8565 -5.268 -5.035501 -7.382 
-5.872 -6.553 -9.221001 -9.215501 
-7.893001 -10.718 -13.2882 
-12.2714 -14.7852 
-2.3615 -2.186 -3.849 -2.5045 -1.8085 -4.055 0 
-3.5005 -4.8565 -6.305 -3.3625 -5.689 -4.055 
-5.99 -7.104 -6.9375 -7.339001 -5.689 
-8.515 -7.7625 -11.5984 -7.339001 
-9.4095 -12.543 -11.5984 
