-4.759 
n/a 
n/a 
n/a 
n/a 
-4.759 
n/a 
n/a 
n/a 
n/a 
-4.759 
n/a 
n/a 
n/a 
n/a 
-4.759 
n/a 
n/a 
n/a 
n/a 
-4.4695 -3.668 -2.0935 -2.3615 -2.186 -4.987 -3.898 -4.422 
-7.2275 -5.612 -3.854 -3.5005 -7.104 -8.429001 -8.440001 
-9.491501 -7.317501 -5.761 -8.9945 -11.2524 -13.2206 
-10.1485 -8.2115 -11.351 -13.2633 -16.044 
-10.7685 -13.9267 -15.6198 -18.0549 
-1.4985 -4.59 -3.668 -2.186 -4.8565 -2.7455 -1.7565 -4.3845 0 
-6.7325 -8.247 -5.4075 -7.713 -7.9185 -6.741 -5.4745 -4.3845 
-10.4425 -9.4055 -10.9503 -11.2982 -12.4826 -10.4345 -5.4745 
-11.601 -15.1051 -14.5355 -15.8623 -16.1761 -10.4345 
-17.3006 -18.6903 -19.0996 -19.5558 -16.1761 
-4.3705 -4.7875 -3.594 -6.193 -6.418 
-8.474501 -6.699 -10.4425 -10.7665 
-10.411 -10.6735 -15.016 
-14.3855 -15.247 
-18.959 
-1.4985 -4.8415 -5.465 -4.6805 -1.7565 -3.999 -4.625 -3.871 -3.2775 -2.5045 -1.4985 -6.3765 -4.7715 -5.132 -1.756 -7.1155 0 
-5.634501 -7.2045 -8.991501 -4.722 -5.718 -7.092 -7.9105 -6.282001 -3.678 -3.583 -7.746 -6.955 -8.652 -6.653501 -8.3025 -7.1155 
-7.781 -10.2085 -9.0415 -8.7005 -8.307 -9.25 -9.353001 -6.3175 -4.625 -9.7095 -8.379001 -9.503 -9.6115 -9.975501 -8.3025 
-10.45 -10.318 -10.675 -10.334 -10.1185 -10.249 -9.37 -7.7645 -10.3675 -10.241 -10.45 -10.196 -10.577 -9.975501 
-10.5075 -10.692 -10.698 -10.684 -10.549 -10.2575 -10.4605 -10.5745 -10.544 -10.5975 -10.546 -10.595 -10.577 
