-4.759 
n/a 
n/a 
n/a 
n/a 
-4.759 
n/a 
n/a 
n/a 
n/a 
-4.759 
n/a 
n/a 
n/a 
n/a 
-4.759 
n/a 
n/a 
n/a 
n/a 
-5.1235 -8.007501 -2.7455 -3.3435 -1.756 -5.178 -4.094 -1.7695 -4.397 -3.4985 -3.8245 
-12.9105 -10.1465 -5.8205 -4.576 -6.614 -9.967001 -6.540501 -5.136 -7.118501 -6.415 
-14.8584 -12.0645 -6.726 -9.92 -11.7032 -12.4583 -9.7335 -7.8125 -9.9895 
-17.4069 -13.5415 -12.6554 -15.0146 -14.1945 -15.6513 -13.038 -10.7589 
-18.7719 -19.4709 -17.75 -17.5059 -17.3875 -18.9558 -15.9844 
-1.934 -5.1235 -3.355 -2.7455 -3.8245 -2.95 0 -1.756 -3.869 -4.688 -1.934 -3.3435 0 
-6.839 -8.047001 -6.113 -6.1815 -7.9115 -2.95 -1.756 -5.541 -8.4045 -6.177 -5.009501 -3.3435 
-10.5145 -11.3434 -8.503 -10.7495 -7.9115 -4.287 -5.541 -10.4093 -9.594501 -9.384501 -5.009501 
-13.8109 -13.7334 -13.8242 -10.7495 -9.298 -8.6595 -10.4093 -11.5993 -13.0062 -9.384501 
-16.2009 -19.0546 -13.8242 -12.136 -13.9593 -13.7326 -11.5993 -15.011 -13.0062 
-4.3735 -4.126 -3.8245 -1.7565 -4.2225 0 -4.712 -1.7565 -4.6345 0 
-8.006001 -8.772001 -6.695 -5.459 -4.2225 -4.712 -6.869 -6.1305 -4.6345 
-12.9232 -11.9917 -9.7275 -5.459 -10.329 -6.869 -12.3616 -6.1305 
-16.1429 -15.0242 -9.7275 -12.0509 -12.486 -12.3616 -12.3616 
-19.1754 -15.0242 -17.1822 -14.2079 -17.9786 -12.3616 
-5.1235 -5.213 -4.6525 -3.8245 -3.8405 -1.756 -3.3435 -4.8795 
-8.637001 -10.168 -9.5845 -9.011 -5.3535 -5.1365 -8.645 
-13.8724 -15.1946 -15.2004 -10.419 -9.1695 -11.1684 
-18.899 -20.8105 -16.6084 -14.235 -15.524 
-24.5149 -22.2185 -20.4244 -20.5895 
