-4.759 
n/a 
n/a 
n/a 
n/a 
-4.759 
n/a 
n/a 
n/a 
n/a 
-4.759 
n/a 
n/a 
n/a 
n/a 
-4.759 
n/a 
n/a 
n/a 
n/a 
-2.264 -3.524 -4.642 -4.6825 -4.99 -5.1835 -4.8 0 
-4.855 -6.367001 -10.7495 -10.6095 -10.5135 -10.513 -4.8 
-7.186501 -13.4043 -16.6765 -16.133 -15.843 -10.513 
-14.331 -19.3313 -22.2 -21.4625 -15.843 
-20.258 -24.8548 -27.5295 -21.4625 
-3.524 -2.7035 0 -4.6825 -4.3645 -4.518 -4.8 -4.3305 -2.0935 -3.6115 -2.95 0 
-5.565001 -2.7035 -4.6825 -9.711 -9.2145 -8.654501 -7.776 -6.66 -5.7115 -5.347 -2.95 
-5.565001 -7.389 -9.711 -14.6124 -13.9082 -12.1741 -10.6711 -10.9886 -7.028 -5.347 
-11.3777 -13.8653 -14.6124 -19.3061 -17.4278 -15.0692 -14.9997 -12.3051 -7.028 
-17.854 -18.7667 -19.3061 -22.8257 -20.3229 -19.3978 -16.3162 -12.3051 
-3.524 -2.7035 -6.443 -4.6825 -5.1835 -4.6895 -3.6115 -2.95 
-5.565001 -9.616 -10.674 -10.5135 -10.6215 -9.421 -5.347 
-13.6047 -14.0494 -16.505 -15.9515 -15.353 -11.2347 
-18.0381 -19.8804 -21.943 -20.683 -17.1667 
-23.8691 -25.3184 -26.6745 -22.4967 
-3.524 -2.7035 0 -4.6825 -3.7345 -4.335 -3.251 -5.1835 -1.4985 -4.6895 -4.3305 0 
-5.565001 -2.7035 -4.6825 -8.985001 -6.686 -7.071 -6.8625 -5.817 -5.91 -8.3575 -4.3305 
-5.565001 -7.389 -8.985001 -12.6357 -9.594001 -9.925 -7.1745 -11.0731 -9.779 -8.3575 
-11.3777 -13.1393 -12.6357 -15.5437 -12.5782 -10.115 -12.6026 -14.9421 -9.779 
-17.128 -16.79 -15.5437 -18.5279 -12.7682 -15.6791 -16.4716 -14.9421 
