-4.759 
n/a 
n/a 
n/a 
n/a 
-4.759 
n/a 
n/a 
n/a 
n/a 
-4.759 
n/a 
n/a 
n/a 
n/a 
-4.759 
n/a 
n/a 
n/a 
n/a 
-3.2615 -4.79 -4.153 -4.39 -1.756 -5.611 -2.5195 -3.5455 -3.584 -1.7695 -4.4755 -4.9115 -1.934 -3.8735 
-8.571 -6.2405 -8.580501 -5.675 -7.128 -8.231501 -5.71 -8.470501 -5.014 -5.448 -8.0415 -6.2355 -4.885 
-10.089 -11.2624 -9.834001 -8.425501 -9.585501 -11.689 -10.1 -10.001 -8.146 -8.328 -8.795501 -8.245501 
-15.1109 -12.5159 -12.8555 -10.7575 -13.1752 -16.079 -12.2255 -13.2388 -11.3208 -9.4095 -10.5325 
-16.3644 -15.5374 -15.1875 -14.3472 -17.5652 -18.2045 -15.4633 -16.4136 -12.4023 -11.3229 
-3.2615 -4.79 -4.153 -5.1255 -4.0555 -1.7695 -3.5455 -3.8735 -1.756 -3.5435 0 -4.6825 -1.4985 -7.8435 -3.7555 -1.934 -1.7695 -3.8735 -1.756 -4.7195 -3.8735 0 
-8.571 -6.2405 -8.626501 -8.323501 -4.7475 -5.643 -6.514501 -5.3865 -5.099 -3.5435 -4.6825 -6.23 -9.160001 -11.913 -5.738 -4.0395 -5.578001 -5.3865 -6.515 -9.4355 -3.8735 
-10.089 -10.4505 -12.1397 -8.6875 -7.7805 -8.328501 -7.935501 -8.903501 -5.099 -9.080501 -6.23 -14.3561 -13.4023 -13.8955 -7.469 -8.9125 -6.726 -10.1385 -11.7708 -9.4355 
-14.299 -13.9637 -12.5037 -9.946 -10.233 -9.3675 -11.6725 -8.903501 -10.6735 -10.276 -14.3561 -18.5984 -15.3848 -15.6265 -12.7756 -9.906 -11.6592 -15.4923 -11.7708 
-17.8122 -14.3277 -13.7622 -13.5149 -11.4826 -13.2265 -11.6725 -15.165 -11.869 -19.0099 -18.5984 -20.5809 -17.1158 -20.9331 -13.7691 -14.9432 -17.013 -15.4923 
-3.2615 -3.062 -4.184 -4.153 -4.9115 -4.4755 -3.222 -3.8735 -3.3255 -5.1255 -3.717 -2.5195 -1.4985 -3.5455 -1.756 -4.196 -1.4985 -4.6825 -1.756 -3.4155 -4.6825 
-6.7815 -6.092 -5.8855 -8.370501 -8.041 -6.851501 -6.9535 -7.1315 -9.812501 -9.087 -6.723001 -3.1695 -4.554 -5.364501 -5.8785 -5.5315 -5.612 -6.147 -5.2205 -7.5575 
-9.348001 -7.556 -9.834001 -9.913 -9.788501 -9.764 -8.940001 -13.9029 -13.774 -12.3322 -7.352 -5.8305 -5.8465 -9.277 -6.916501 -9.2405 -7.024 -9.3345 -10.172 
-11.139 -11.6621 -11.3919 -11.8061 -12.7034 -11.8347 -15.8682 -17.8644 -17.0192 -12.9612 -8.995501 -7.016 -9.48 -10.002 -10.13 -10.5335 -10.5745 -14.7254 
-15.2451 -13.22 -13.285 -14.721 -14.7741 -18.7629 -19.8297 -21.1096 -17.6482 -14.6047 -9.896501 -10.243 -10.1275 -13.2973 -11.483 -14.084 -15.9654 
-3.2615 -4.79 -4.153 0 -4.9115 -3.1385 -4.4275 -3.222 -3.5435 -1.756 -3.4155 -3.9725 -2.5195 -3.5455 -3.8735 -1.756 -3.9535 -1.7695 -4.4035 -4.9115 -4.2655 -1.934 -3.8735 0 
-8.571 -6.2405 -4.153 -4.9115 -8.340501 -7.557001 -5.144 -6.891 -4.862 -5.2205 -6.882501 -6.885 -5.71 -6.514501 -5.3865 -5.4855 -5.098001 -4.8505 -10.287 -7.343501 -5.8575 -4.885 -3.8735 
-10.089 -6.2405 -8.370501 -8.340501 -12.9908 -8.719501 -9.486501 -8.125501 -9.14 -9.189 -8.887501 -9.938001 -8.150001 -7.935501 -9.0205 -6.2925 -7.2585 -10.6875 -12.719 -8.971001 -8.126 -4.885 
-10.089 -9.958501 -12.0997 -12.9908 -14.1533 -13.2424 -10.8682 -12.5191 -13.3065 -11.2976 -12.6707 -12.4964 -9.249001 -11.7895 -10.281 -8.750501 -13.3349 -13.1195 -14.3465 -11.4437 -8.126 
-13.807 -13.7479 -16.75 -14.1533 -18.6762 -14.6241 -15.2618 -16.6856 -15.4151 -15.0808 -15.2291 -13.5954 -13.131 -13.05 -12.739 -14.8709 -15.7669 -14.747 -16.8192 -11.4437 
