-4.759 
n/a 
n/a 
n/a 
n/a 
-4.759 
n/a 
n/a 
n/a 
n/a 
-4.759 
n/a 
n/a 
n/a 
n/a 
-4.759 
n/a 
n/a 
n/a 
n/a 
-4.732 -4.79 -4.153 0 -4.4175 0 -1.4985 -7.4885 -5.1605 -1.934 -6.557 
-8.735001 -6.2405 -4.153 -4.4175 -4.4175 -1.4985 -8.1875 -9.995501 -6.4305 -7.536 
-10.4265 -6.2405 -6.4735 -4.4175 -6.3965 -8.1875 -10.298 -11.3521 -12.6599 
-10.4265 -8.256001 -6.4735 -6.3965 -13.4287 -10.298 -11.6546 -17.5815 
-12.442 -8.256001 -7.514 -13.4287 -15.5392 -11.6546 -17.884 
-2.925 -1.7695 -8.807 -4.153 -7.4885 -5.1605 -5.1845 -5.74 
-3.71 -11.1165 -13.1046 -10.784 -9.995501 -10.0545 -5.7465 
-13.7382 -15.4141 -19.7356 -13.291 -14.9761 -10.2005 
-18.0358 -22.0451 -22.2426 -18.2716 -15.1221 
-24.6668 -24.5521 -27.2232 -18.4176 
-6.864 -2.229 -5.1605 -5.1845 -5.74 -4.732 -4.79 -4.153 0 
-8.205501 -8 -10.0545 -5.7465 -9.889501 -8.735001 -6.2405 -4.153 
-14.8587 -13.0542 -10.2005 -9.896501 -14.0901 -10.4265 -6.2405 
-19.9129 -13.2002 -14.3505 -14.1019 -15.7816 -10.4265 
-20.0589 -17.3502 -18.5559 -15.7934 -15.7816 
-9.342 -4.184 -4.153 -3.5725 -4.365 -3.5435 -1.934 -3.0365 0 
-11.4015 -5.8855 -7.7335 -9.068001 -8.9755 -5.3395 -5.1375 -3.0365 
-14.415 -9.292 -13.4404 -13.8903 -11.2695 -9.3785 -5.1375 
-18.0563 -14.9877 -18.2627 -16.1843 -15.3085 -9.3785 
-23.752 -19.81 -20.5567 -20.2233 -15.3085 
