-4.759 
n/a 
n/a 
n/a 
n/a 
-4.759 
n/a 
n/a 
n/a 
n/a 
-4.759 
n/a 
n/a 
n/a 
n/a 
-4.759 
n/a 
n/a 
n/a 
n/a 
-1.4985 -3.5125 -1.7565 -3.959 -2.9705 -5.1605 -2.3345 -3.4225 -4.0965 
-4.7015 -4.312 -5.672 -6.136 -7.283 -6.162 -6.0735 -4.2 
-4.846 -8.772 -7.509 -11.1505 -9.6475 -10.733 -7.705 
-9.0305 -10.8934 -12.7085 -13.515 -14.2597 -12.3645 
-11.2823 -16.0929 -15.073 -18.1272 -15.8912 
-3.5125 -1.7565 -3.59 -3.7965 -5.455 
-4.312 -5.59 -7.676 -8.658001 
-7.6305 -10.2865 -14.1283 
-13.4408 -16.7388 
-19.8931 
-3.5125 -1.7565 -3.4225 -4.39 
-4.312 -5.6355 -4.7525 
-7.705 -6.6575 
-9.126 
n/a 
-3.5125 -1.7565 -3.4225 -4.1265 -3.59 0 
-4.312 -5.6355 -6.775001 -8.1225 -3.59 
-7.705 -8.59 -10.0255 -8.1225 
-11.4779 -11.8181 -10.0255 
-14.706 -11.8181 
