-4.759 
n/a 
n/a 
n/a 
n/a 
-4.759 
n/a 
n/a 
n/a 
n/a 
-4.759 
n/a 
n/a 
n/a 
n/a 
-4.759 
n/a 
n/a 
n/a 
n/a 
-4.942 -1.934 -4.0275 -4.3955 -3.9355 
-6.8795 -5.881001 -7.189 -7.632501 
-11.4519 -9.489501 -9.507501 
-15.0604 -12.1528 
-17.7237 
-5.4175 -1.934 -1.4985 -3.519 -1.7565 -10.939 
-7.0025 -2.6125 -4.4155 -4.4175 -13.6447 
-7.62 -4.8345 -4.839 -16.7477 
-9.852 -4.9455 -17.46 
-9.8595 -17.5749 
-4.447 -1.934 -6.219 -3.9355 
-6.538 -8.000501 -7.2165 
-13.3193 -8.982 
-14.3008 
n/a 
-4.447 -4.1645 -1.934 -3.535 -3.9355 0 
-9.3815 -5.8745 -5.3 -7.455 -3.9355 
-11.0991 -9.4825 -8.422501 -7.455 
-14.7071 -12.6948 -8.422501 
-17.9194 -12.6948 
