-4.759 
n/a 
n/a 
n/a 
n/a 
-4.759 
n/a 
n/a 
n/a 
n/a 
-4.759 
n/a 
n/a 
n/a 
n/a 
-4.759 
n/a 
n/a 
n/a 
n/a 
-12.16972 -4.5875 -2.461 -3.9035 
-16.75722 -8.332001 -6.557 
-20.50172 -12.689 
-24.85872 
n/a 
-3.0365 -2.4945 -3.54 -3.699 -4.612 -4.7075 -2.3345 -9.3465 0 
-3.688 -5.328 -6.5415 -9.165 -10.985 -5.697001 -12.0116 -9.3465 
-5.4375 -7.486 -12.6749 -15.8402 -11.9745 -16.1485 -12.0116 
-7.594 -13.9248 -19.3501 -16.8297 -22.426 -16.1485 
-14.0632 -20.6 -20.3396 -27.2812 -22.426 
-9.3465 -5.3285 -3.54 -4.763 
-14.9856 -9.030001 -6.4445 
-18.6871 -12.1919 
-21.849 
n/a 
-12.16972 -9.630501 -3.54 -5.5145 0 
-21.80022 -13.5153 -8.077001 -5.5145 
-25.68502 -18.0523 -8.077001 
-30.22202 -18.0523 
-30.22202 
