-4.759 
n/a 
n/a 
n/a 
n/a 
-4.759 
n/a 
n/a 
n/a 
n/a 
-4.759 
n/a 
n/a 
n/a 
n/a 
-4.759 
n/a 
n/a 
n/a 
n/a 
-2.5195 -3.428 0 -3.7825 -3.1715 -3.299 -4.5385 -2.674 -4.8165 -1.4985 -4.008 -3.333 -2.264 -3.486 -3.8315 -4.371 -2.186 -4.1715 -4.579 -4.765 -5.2115 -1.7695 -2.645 -3.1575 -4.8655 -3.468 -2.674 -3.7855 -4.53 -1.7695 -1.4985 -3.683 -4.008 -3.333 -3.7015 -3.2775 -5.2695 -1.934 -2.7405 0 -2.3345 -4.4485 -1.7565 -1.4985 -3.1715 -4.179 0 -4.5955 -1.756 -4.465 -2.674 -3.7905 -1.4985 -3.0835 -3.2495 -3.468 -1.7695 -4.928 -3.486 -3.8315 -5.2695 0 
-6.11 -3.428 -3.7825 -6.917001 -6.405001 -6.997001 -5.9795 -6.5175 -6.0005 -6.205501 -7.6215 -5.732 -6.119 -5.2965 -5.7005 -5.9015 -5.682 -9.745501 -8.922501 -9.404001 -5.282 -4.8565 -3.72 -6.6715 -7.568501 -5.5775 -5.347 -7.4735 -5.354 -2.7955 -4.9055 -8.483 -7.6215 -6.5135 -6.178 -7.5525 -6.7945 -4.858 -2.7405 -2.3345 -6.834001 -5.774 -2.4195 -3.994 -5.7535 -4.179 -4.5955 -6.438 -6.6595 -7.683001 -5.123 -4.969 -3.535 -5.2245 -6.2 -5.279 -5.3835 -8.452001 -5.2965 -6.080501 -5.2695 
-6.11 -7.4505 -6.917001 -9.711 -8.584001 -8.710001 -8.668501 -7.6005 -11.2175 -8.39 -8.8275 -9.594001 -6.942501 -5.7215 -7.324 -9.179001 -12.1672 -14.089 -13.9749 -9.414001 -8.1235 -5.397 -6.963 -9.925501 -8.489 -8.372001 -7.97 -7.9325 -5.798 -6.239 -9.67 -12.4017 -9.178 -8.9825 -9.7015 -9.0115 -9.9355 -4.858 -4.807 -6.834001 -7.924 -6.275 -4.741 -7.33 -5.7535 -8.269001 -6.438 -7.992 -8.3585 -10.181 -6.222 -6.1685 -5.3335 -8.4565 -7.841001 -8.5605 -8.691501 -8.580001 -6.084 -6.080501 
-10.4765 -10.2985 -9.711 -12.2346 -9.519001 -11.5138 -9.495001 -13.0567 -13.402 -9.818001 -12.8771 -10.0585 -7.126 -7.333 -10.9347 -15.831 -16.5107 -19.1414 -13.9849 -12.2875 -8.174 -8.9615 -10.041 -10.846 -11.5457 -11.0166 -8.3555 -8.455501 -9.5635 -11.2457 -13.8423 -13.9582 -11.8966 -12.8506 -10.676 -12.2337 -9.9355 -6.8505 -10.6095 -7.924 -8.2735 -8.73 -8.087001 -7.33 -10.0095 -10.564 -7.992 -9.299 -10.9971 -11.28 -7.713 -8.745001 -8.486501 -8.868501 -10.586 -11.8857 -8.7635 -9.615001 -6.084 
-13.3245 -13.0925 -12.2346 -13.1696 -12.4036 -12.3403 -15.1086 -15.2412 -14.83 -13.8908 -13.3416 -10.6844 -8.668501 -10.9473 -17.5867 -20.1745 -21.5631 -19.1514 -16.8584 -12.338 -12.3631 -11.9735 -10.9615 -13.9027 -14.1903 -11.4021 -8.949 -12.4126 -14.8974 -15.418 -15.3988 -16.6768 -15.7647 -13.8251 -13.8982 -12.2337 -11.928 -13.0228 -12.1225 -8.2735 -11.0283 -12.6336 -8.087001 -11.9614 -12.3045 -12.118 -9.299 -11.9996 -12.0961 -12.771 -9.314501 -12.2522 -8.875001 -12.0899 -13.9112 -11.9577 -9.803 -9.615001 
-2.5195 -1.4985 -3.158 -1.7565 -3.428 0 -1.4985 -3.7825 -4.518 -4.5385 -2.4945 -4.3465 -1.4985 -4.6875 -1.7695 -3.8055 -5.518 -2.0935 -3.486 -4.361 -4.371 -3.433 -2.925 -4.443 -3.45 -2.4945 -3.2295 -1.4985 -3.683 -3.84 -1.4985 -3.237 -1.934 -2.846 -3.1715 -3.251 -4.2675 -1.4985 -5.518 -2.0935 -3.486 -4.361 -4.371 -2.3345 -1.4985 -3.3755 -1.7565 -5.8235 -8.8985 0 -3.535 -2.4945 -1.4985 -4.9735 -3.468 -2.9705 -2.4945 -4.9735 -1.4985 -3.486 -4.361 -4.371 -2.3345 -3.683 -4.1665 -1.934 -1.4985 -2.7405 
-3.1695 -4.178 -4.71 -5.6105 -3.428 -1.4985 -4.8035 -8.139 -6.9905 -6.2415 -9.018001 -5.372001 -5.524 -6.343 -4.5215 -9.881001 -6.8775 -6.009501 -7.9645 -8.8375 -7.2405 -4.511 -5.915 -7.911 -5.354 -5.5185 -3.844 -4.9055 -6.8605 -5.5795 -4.1875 -5.6615 -5.552001 -6.8135 -6.407001 -8.7605 -5.025001 -6.6165 -6.8775 -6.009501 -7.9645 -8.8375 -6.5385 -3.233 -4.057 -4.5295 -7.396501 -15.7502 -8.8985 -3.535 -7.5825 -3.9315 -7.311001 -8.1885 -6.0455 -4.302 -6.615 -5.8595 -3.5655 -7.9645 -8.8375 -6.5385 -6.1285 -6.5335 -5.673 -2.6125 -4.916 
-6.3945 -5.562 -7.881001 -5.6105 -5.087501 -4.8035 -9.112 -10.1675 -8.818001 -13.3886 -10.112 -8.957001 -7.392 -9.113501 -10.4185 -11.7123 -11.1615 -10.443 -10.468 -11.8314 -8.278501 -7.0625 -9.248501 -10.1075 -8.763 -6.5655 -7.346 -7.64 -8.486 -8.528501 -5.918 -9.665001 -9.252001 -10.485 -12.2313 -10.2285 -10.957 -8.596001 -11.1615 -10.443 -10.468 -11.1294 -7.8355 -5.0435 -5.3375 -9.030001 -17.5854 -15.7502 -12.8721 -7.5825 -8.943501 -9.880501 -9.120501 -10.4765 -7.036 -9.283501 -7.312 -8.1925 -8.057001 -10.468 -11.1294 -9.9375 -9.1155 -7.8795 -6.3025 -6.070001 
-7.519 -8.307 -7.881001 -6.6545 -8.355 -9.112 -10.7851 -12.1012 -16.0667 -14.4826 -13.9638 -11.1608 -10.1465 -15.2075 -12.2498 -15.9963 -15.595 -12.9465 -13.8965 -12.8694 -10.467 -10.0815 -11.4636 -13.5267 -9.7165 -8.698001 -10.6875 -9.6645 -11.5886 -10.5542 -10.103 -13.5092 -13.0505 -16.3093 -13.6993 -16.1605 -12.9365 -12.9992 -15.595 -12.9465 -13.1945 -12.4264 -8.943001 -7.0785 -10.688 -19.4865 -17.5854 -19.7238 -16.9196 -8.943501 -14.9555 -10.4545 -11.6359 -11.467 -12.3335 -10.5335 -10.2225 -13.1294 -10.5881 -13.1945 -14.5284 -13.2181 -10.5535 -8.551001 -10.0605 
-9.440001 -8.307 -8.938001 -9.8585 -12.7803 -10.7851 -12.7188 -19.3499 -17.1607 -18.3344 -16.1676 -13.9153 -16.3483 -17.0388 -16.5338 -20.4298 -18.0985 -16.375 -14.9345 -15.0579 -13.486 -12.2966 -14.8828 -14.4802 -11.9974 -12.8041 -12.712 -12.8759 -13.6143 -14.7392 -13.9472 -17.3077 -18.8748 -17.7773 -19.6313 -18.14 -17.3397 -17.4327 -18.0985 -15.673 -14.4915 -13.5339 -11.189 -12.592 -21.1445 -19.4865 -21.559 -23.7713 -18.2806 -14.9555 -15.5295 -13.0843 -12.6264 -16.7645 -13.5835 -13.444 -15.1594 -15.6605 -13.3146 -16.5935 -17.809 -14.6561 -11.225 -12.8074 

n/a 
n/a 
n/a 
n/a 
-2.5195 -3.428 -5.648 0 -3.7375 -3.1715 -4.518 -4.5385 -2.674 -3.7855 -5.3885 0 -5.561 -1.4985 -4.67 -2.264 -3.486 -3.8315 -4.371 -2.5045 -5.6485 -2.872 -4.765 -1.934 -2.645 -3.1575 -2.846 -3.468 -2.674 -4.1535 -1.4985 -12.16972 -3.5035 -5.4945 -2.4265 -1.934 -3.428 0 -6.5045 -1.756 -4.465 0 -4.3195 -1.4985 -3.0835 -3.468 -1.7695 -3.9915 -3.486 -3.8315 -4.371 -2.3345 -3.5035 0 
-6.11 -7.526 -5.648 -3.7375 -7.5895 -6.318 -6.9905 -5.9795 -5.347 -9.654 -5.3885 -5.561 -6.442501 -5.861501 -5.5125 -6.119 -5.2965 -5.7005 -6.445001 -7.0885 -7.424001 -7.6185 -5.969501 -4.899 -3.72 -5.724501 -6.9475 -5.5775 -6.4965 -5.5255 -14.76202 -15.67322 -6.6115 -7.5885 -4.3385 -4.979 -3.428 -6.5045 -7.680501 -6.6595 -4.465 -4.3195 -5.1515 -3.535 -7.400001 -5.279 -4.583 -7.3065 -5.2965 -5.7005 -6.5385 -4.959 -3.5035 
-7.922 -7.526 -10.1 -7.5895 -9.964001 -7.584001 -8.3835 -8.2845 -11.9107 -9.654 -9.474501 -6.442501 -9.785001 -6.3865 -7.4345 -6.942501 -5.7215 -8.0015 -9.572001 -8.849501 -12.4421 -8.768001 -8.885 -5.348001 -5.988501 -9.243 -8.321 -8.359 -7.1145 -19.44362 -18.26552 -18.78122 -9.039001 -8.762 -7.6975 -4.979 -11.08 -7.680501 -12.9212 -6.6595 -8.4335 -5.1515 -5.8475 -7.566501 -7.744 -7.779 -7.8385 -7.5805 -5.7215 -8.0225 -9.3265 -4.959 
-7.922 -12.2046 -13.952 -9.964001 -10.104 -8.637 -10.8719 -15.031 -11.9107 -13.7746 -10.324 -9.785001 -9.9925 -8.308001 -7.445 -7.126 -8.009501 -9.929501 -11.3624 -13.9914 -13.5916 -11.7911 -9.083501 -7.586 -9.348001 -10.214 -10.7575 -9.129001 -21.25702 -22.94712 -21.37352 -21.20872 -10.5645 -12.2938 -7.6975 -13.058 -12.256 -12.9212 -12.9212 -10.016 -8.664001 -5.8475 -9.3645 -7.772001 -9.556001 -9.636001 -7.8745 -8.0625 -8.032001 -10.5745 -9.3265 
-12.9064 -16.0566 -16.3265 -10.104 -10.487 -11.2406 -17.6184 -15.031 -16.0313 -14.6241 -13.6665 -9.9925 -12.2938 -8.318001 -7.567 -9.1175 -9.93 -11.7507 -16.5043 -15.1409 -16.6147 -11.9896 -11.6609 -9.663001 -10.323 -12.6505 -11.5275 -23.41632 -24.76052 -26.05512 -23.80102 -22.73422 -14.0963 -12.2938 -15.9577 -14.234 -17.4967 -12.9212 -16.2777 -10.2385 -9.126 -9.3645 -9.5965 -9.556001 -11.5212 -9.659 -8.344501 -10.0405 -10.5745 -10.5745 
