-4.759 
n/a 
n/a 
n/a 
n/a 
-4.759 
n/a 
n/a 
n/a 
n/a 
-4.759 
n/a 
n/a 
n/a 
n/a 
-4.759 
n/a 
n/a 
n/a 
n/a 
-1.4985 -4.6985 -4.2485 -2.186 -4.157 -2.3345 -3.6605 -3.545 -3.974 0 
-5.1995 -8.135 -5.843 -5.8055 -5.35 -6.268001 -6.163 -7.57 -3.974 
-8.808001 -9.647 -7.857501 -6.56 -10.5535 -8.9455 -7.691 -7.57 
-10.304 -11.7737 -9.0395 -11.8045 -13.231 -10.5225 -7.691 
-12.4307 -12.9557 -14.3336 -14.482 -14.808 -10.5225 
-4.1885 -1.4985 -3.4625 -1.934 -4.2485 -2.186 -4.5085 -1.7695 -2.5045 -3.6605 -3.545 -3.974 
-5.308001 -4.940001 -4.565 -6.183 -5.843 -5.704 -4.58 -4.8865 -6.425 -6.163 -7.57 
-8.681001 -5.5415 -7.204 -7.895 -9.386001 -5.734 -5.027 -8.244 -9.018001 -7.691 
-9.1525 -7.893001 -8.634501 -10.733 -9.413501 -5.9255 -8.298 -10.9348 -10.311 
-11.5366 -9.137501 -11.5383 -10.784 -9.4875 -9.4075 -11.0282 -12.2278 
-2.925 -3.5395 -1.4985 -3.228 -4.4155 -5.473 -3.4625 -2.5045 -1.4985 -3.6605 -3.545 -3.974 0 -2.3615 -4.889 -1.4985 -3.922 -1.934 -1.4985 -3.995 -2.229 -4.2485 -3.034 -1.4985 -5.7545 -2.5195 -1.4985 -3.873 -2.186 -4.9385 -2.3345 -3.535 -5.302 -1.934 -1.4985 -4.6985 0 
-5.629001 -4.8575 -3.9575 -6.9665 -10.1265 -6.14 -5.7225 -3.583 -4.8645 -6.163 -7.57 -3.974 -2.3615 -6.866 -5.215001 -5.1995 -4.558 -2.6125 -4.712 -5.324 -6.615 -7.055501 -3.947 -6.858001 -7.249001 -3.1695 -4.7405 -5.709 -6.214001 -5.823501 -6.0395 -8.452001 -6.466 -2.6125 -5.1995 -4.6985 
-6.6905 -7.9455 -7.2555 -12.8095 -10.7935 -8.926001 -6.5775 -6.9115 -6.765501 -7.691 -7.57 -6.181 -6.866 -7.139 -9.5845 -5.415 -5.195 -6.1055 -5.586 -7.372 -8.921 -7.6435 -9.110001 -8.558001 -7.64 -6.237 -6.214 -9.834001 -6.854001 -9.495001 -10.396 -9.547001 -6.9885 -5.99 -5.1995 
-9.498001 -11.4303 -13.2259 -13.4765 -13.5795 -10.025 -10.6735 -9.288501 -8.004001 -7.691 -9.838 -10.4675 -7.139 -11.9735 -10.324 -6.099 -8.3205 -6.5625 -7.500501 -9.992001 -9.7725 -13.1011 -10.76 -8.844501 -9.595501 -8.48 -10.485 -10.407 -10.5535 -13.9809 -11.491 -9.935 -9.104 -5.99 
-13.0972 -17.4007 -13.8929 -16.2625 -14.6785 -14.121 -13.0505 -9.807501 -8.004001 -9.9455 -14.1477 -10.7405 -11.9735 -12.713 -11.008 -8.9835 -8.361 -8.356501 -10.1335 -10.9319 -15.3181 -14.7511 -11.0465 -10.801 -12.3487 -13.128 -11.058 -14.1175 -15.0394 -15.0759 -11.879 -10.604 -9.104 
-4.1885 -3.135 -1.7565 -1.4985 -3.6615 -1.7565 -4.2485 -1.934 -4.6985 -3.849 -3.6605 -3.545 -6.899 -4.0415 -2.3615 -3.638 -1.7695 -2.8965 -4.1255 -1.7565 -1.4985 -4.6985 0 -1.756 -2.4265 -2.186 -9.393001 -1.934 -2.5685 -4.052 0 -3.5005 -3.251 -3.539 -4.33 -1.4985 -4.1455 -2.3615 -4.72 -3.638 -1.7695 -1.4985 -4.1455 -1.756 -3.999 -4.6985 0 -3.0415 -1.4985 -4.2485 -3.0365 -2.186 -3.93 -3.1575 -2.4265 -3.1425 -2.489 -2.7835 -3.926 -4.593 -2.3345 -4.365 -4.7195 0 
-6.515 -3.9195 -2.4195 -4.9455 -5.606 -5.969 -5.861001 -7.228 -8.481001 -7.0775 -6.163 -10.3015 -11.071 -6.6035 -6.394 -5.5485 -4.497 -5.9735 -5.0625 -2.4195 -5.1995 -4.6985 -1.756 -3.949 -3.292 -11.0655 -9.793501 -4.244 -6.1025 -4.052 -3.5005 -7.271501 -5.7615 -6.848001 -4.900001 -4.870501 -6.503 -8.171 -8.104501 -5.5485 -2.7955 -4.870501 -5.5035 -5.2735 -7.1585 -4.6985 -3.0415 -4.5735 -5.307 -7.445001 -3.66 -5.657001 -4.9745 -5.14 -4.211 -3.7875 -5.6225 -7.048501 -7.8285 -7.2875 -6.422 -6.261001 -4.7195 
-7.731001 -4.168 -5.914001 -6.696001 -7.9935 -7.553 -10.0005 -11.2175 -12.1805 -9.2395 -10.5395 -15.0736 -13.4306 -9.172501 -7.832 -8.2745 -7.382501 -6.5495 -5.4535 -6.2165 -5.1995 -5.7875 -3.949 -4.7355 -10.039 -10.097 -10.485 -6.2965 -6.1025 -7.6035 -7.271501 -10.7575 -8.352 -7.065501 -7.704 -6.948 -12.6427 -10.523 -8.627001 -6.528 -5.8025 -6.1965 -8.425 -8.314 -7.1585 -7.271501 -4.5735 -8.084001 -8.432001 -7.895 -7.936501 -5.9455 -6.859 -6.397501 -4.546 -6.057 -10.5325 -11.5156 -9.5845 -9.188001 -8.083 -6.261001 
-7.881001 -6.837 -7.823501 -8.949501 -9.309 -11.6783 -14.3884 -14.917 -14.3425 -12.833 -15.2301 -17.1436 -16.0886 -9.466001 -9.828 -10.7575 -7.927001 -6.816 -8.631001 -6.2165 -6.337 -7.835001 -4.7355 -11.4735 -10.993 -10.823 -10.2485 -6.2965 -8.351501 -9.755 -10.7575 -13.348 -8.589001 -9.475 -9.418001 -13.2447 -14.9947 -11.0455 -8.8985 -8.835001 -6.907001 -8.951501 -8.849001 -8.314 -9.842 -8.479 -8.084001 -10.494 -8.928 -12.2627 -9.005501 -7.659 -7.849 -6.9055 -6.76 -11.0722 -14.9996 -13.2716 -11.6044 -9.73 -8.083 
-10.218 -9.181001 -10.3345 -10.0215 -13.6195 -16.0662 -18.0879 -17.079 -18.0078 -17.5599 -17.3001 -19.8016 -16.3821 -10.1785 -12.5036 -11.302 -8.0915 -9.793 -8.631001 -7.183001 -8.4335 -8.5275 -11.5925 -12.8773 -11.8983 -10.7005 -10.2175 -8.4905 -9.807 -13.6504 -13.348 -13.585 -10.533 -10.719 -15.7265 -15.5967 -15.5172 -11.317 -11.2949 -10.0375 -10.494 -9.252501 -8.849001 -11.2389 -10.536 -10.76 -10.494 -10.689 -13.1355 -13.3317 -11.0002 -8.611 -8.246501 -7.6095 -11.8356 -15.5393 -16.7556 -15.2915 -12.1464 -9.73 
