-4.759 
n/a 
n/a 
n/a 
n/a 
-4.759 
n/a 
n/a 
n/a 
n/a 
-4.759 
n/a 
n/a 
n/a 
n/a 
-4.759 
n/a 
n/a 
n/a 
n/a 
-2.8645 -4.4515 -2.264 -3.091 -5.5425 -4.1495 
-8.766001 -6.614 -4.534 -8.436001 -8.0415 
-11.2925 -8.623501 -9.980501 -9.55 
-13.302 -14.424 -11.1959 
-19.1025 -15.6394 
-3.469 -4.1495 -1.756 -3.7875 -3.957 -4.4515 
-6.042 -5.4575 -5.223001 -7.7375 -5.96 
-7.0595 -8.775001 -9.054501 -10.3681 
-10.316 -12.7095 -11.7027 
-14.4395 -15.3577 
-1.934 -4.1495 -3.0365 -2.186 -4.4515 
-6.3325 -7.323 -3.66 -7.901501 
-9.703001 -8.010501 -9.8295 
-10.23 -14.3454 
-16.5649 
-3.957 -4.4515 -1.934 -3.8385 -4.1495 
-5.96 -6.223001 -6.1655 -7.348001 
-8.377501 -11.2121 -9.611 
-13.7072 -14.6576 
-17.1527 
