-4.759 
n/a 
n/a 
n/a 
n/a 
-4.759 
n/a 
n/a 
n/a 
n/a 
-4.759 
n/a 
n/a 
n/a 
n/a 
-4.759 
n/a 
n/a 
n/a 
n/a 
-2.3335 -5.1835 -6.85 -3.158 
-7.0485 -13.0981 -8.2515 
-15.5181 -14.4996 
-16.9196 
n/a 
-2.4285 -2.4265 -5.4065 -2.871 -6.85 -3.158 
-5.2275 -6.859 -7.953501 -8.8085 -8.2515 
-9.814501 -9.155001 -14.3584 -9.8015 
-12.2279 -16.0349 -15.3514 
-19.1078 -17.0279 
-2.4285 -2.871 -1.7565 -6.85 -3.158 -3.979 
-5.3155 -3.5385 -8.416 -8.2515 -7.717 
-5.7775 -11.3058 -10.476 -13.2117 
-14.0054 -13.3658 -15.4362 
-16.0654 -18.326 
-3.972 -2.4945 -4.0325 -6.85 -3.158 0 
-6.0975 -7.915 -11.8077 -8.2515 -3.158 
-12.0068 -16.1424 -13.2092 -8.2515 
-20.2342 -17.5439 -13.2092 
-21.6357 -17.5439 
