-4.759 
n/a 
n/a 
n/a 
n/a 
-4.759 
n/a 
n/a 
n/a 
n/a 
-4.759 
n/a 
n/a 
n/a 
n/a 
-4.759 
n/a 
n/a 
n/a 
n/a 
-1.934 -2.3615 -3.6825 -3.5905 -4.231 -3.563 -1.4985 -3.275 -1.7695 -7.6105 -1.756 -3.321 -4.24 -1.4985 -3.6825 -3.213 -2.3615 -3.264 -2.5045 -6.3085 -1.756 -2.9805 -4.2675 0 
-3.539 -6.2875 -8.0345 -8.0905 -8.0935 -5.088 -4.7845 -4.9815 -9.8785 -8.845 -4.0055 -6.894 -5.0855 -4.87 -7.5345 -5.6365 -6.4515 -5.7165 -8.849501 -7.78 -4.3555 -7.594 -4.2675 
-7.8945 -11.3883 -12.9343 -12.3552 -9.675501 -8.147 -6.805 -14.1169 -10.7215 -11.4249 -7.4325 -7.6255 -8.592001 -8.879001 -10.051 -9.495001 -9.0365 -12.7479 -9.7545 -10.2485 -9.646 -7.594 
-13.1961 -16.2881 -17.199 -13.9372 -12.8703 -9.1485 -16.054 -14.9599 -13.3014 -14.8519 -8.1485 -11.2236 -12.7786 -11.6417 -13.9095 -12.3562 -16.2461 -13.6529 -12.4096 -15.539 -9.646 
-18.0959 -20.5528 -18.781 -17.132 -13.8718 -18.7743 -16.897 -17.5398 -16.7284 -15.5679 -11.8144 -15.4102 -15.5413 -15.5002 -16.7707 -19.5658 -17.1511 -16.308 -17.7001 -15.539 
-3.9345 -1.7695 -2.3335 0 -6.3085 -3.251 -10.205 -4.3285 -2.9325 -8.445001 -2.3335 -1.4985 -4.0225 -4.231 -3.2645 -3.8805 -3.2295 -1.4985 -3.4025 -1.7695 -1.4985 -5.726 -1.756 -3.2645 -3.3165 -2.0935 -4.3915 -1.4985 -3.6825 0 
-3.94 -4.46 -2.3335 -6.3085 -8.492001 -12.2825 -11.021 -7.263 -12.8373 -11.5103 -3.3515 -5.354 -6.5965 -6.685 -7.562 -5.9075 -3.844 -5.701 -5.8625 -2.7955 -6.6075 -7.055 -4.826 -5.4945 -5.1105 -6.223001 -5.311 -4.87 -3.6825 
-6.766 -4.46 -8.616501 -8.492001 -17.7453 -15.9172 -14.7381 -17.517 -15.9026 -12.5283 -7.2735 -7.904 -8.778501 -11.3439 -8.2255 -6.5535 -8.328 -7.301001 -6.91 -7.956 -7.985001 -10.1945 -7.459001 -6.989 -10.3285 -7.269501 -9.009 -4.87 
-6.766 -11.3264 -9.676001 -17.7453 -21.1522 -19.1339 -24.9921 -20.5823 -16.9206 -16.4503 -9.458501 -10.5855 -13.7986 -12.0074 -8.745501 -11.2299 -9.9425 -8.479 -12.7227 -9.06 -11.1757 -12.9087 -9.252501 -12.2988 -11.375 -11.3137 -9.009 
-14.028 -12.3859 -18.9293 -21.1522 -24.3689 -29.3879 -28.0574 -21.6003 -20.8426 -18.6353 -12.1688 -15.6056 -14.4621 -12.5274 -13.5141 -12.8444 -11.1205 -14.3777 -13.8267 -12.2679 -13.8899 -14.7022 -14.5791 -13.3453 -15.4192 -11.3137 
-3.9345 -1.7695 -2.3615 -3.6205 0 -4.0225 -3.1385 -3.2645 -3.3755 -5.895 -4.2325 -1.7695 -4.7405 -4.2085 -1.756 -3.2645 -3.0465 -4.077 -1.934 -4.085 -3.3825 -1.756 -8.8655 -6.3085 -4.3285 -1.7695 -2.3615 -3.034 -4.1585 0 
-3.94 -3.736 -5.509501 -3.6205 -4.0225 -7.2275 -5.695001 -8.959001 -9.783501 -9.967001 -5.228 -6.612 -6.349501 -5.578501 -4.826 -5.4685 -4.85 -4.43 -7.2585 -8.693501 -4.5235 -10.841 -8.9285 -10.0225 -6.210001 -3.736 -5.7235 -6.818 -4.1585 
-5.875 -6.981 -5.509501 -7.9055 -7.2275 -9.724501 -11.9351 -15.4568 -13.9139 -10.722 -9.8735 -8.7915 -7.757501 -8.901001 -7.3685 -7.509501 -5.806 -9.856501 -12.2106 -9.386 -14.8239 -10.904 -12.9479 -12.042 -8.3365 -7.1195 -9.618 -6.818 
-8.2705 -6.981 -10.0815 -11.5453 -9.724501 -15.9708 -18.4329 -19.5872 -14.6689 -15.3675 -12.0876 -10.1855 -10.702 -11.5237 -9.3155 -7.943501 -10.757 -14.8564 -12.9031 -20.1622 -14.8869 -14.9234 -14.9674 -14.1685 -12.2606 -11.1814 -9.618 
-8.2705 -11.8632 -13.7873 -14.0423 -15.9708 -22.4686 -22.5633 -20.3422 -19.3144 -17.5816 -13.4816 -13.13 -13.3247 -13.4707 -9.6365 -12.9703 -15.7569 -15.5489 -23.6793 -20.2252 -18.9063 -16.9429 -17.0939 -18.0926 -16.3225 -11.1814 
-2.5045 -3.543 0 -2.9805 -4.1585 -1.7695 -10.0495 -2.3335 -2.5685 -1.4985 -4.0225 -4.231 -1.934 -3.6825 -3.2645 -5.895 -2.985 -4.6195 -1.7695 -1.4985 -5.726 -1.756 -3.3165 -1.7695 -3.6825 -2.229 -3.213 -6.3085 -4.3285 -2.3615 0 
-5.323 -3.543 -2.9805 -5.319 -5.604 -10.415 -11.5195 -4.5535 -3.7015 -5.354 -6.5965 -5.3585 -6.5925 -6.5835 -9.463 -9.1155 -6.571 -5.89 -2.7955 -6.6075 -7.055 -4.952 -3.881 -5.981 -5.3925 -4.994 -10.4425 -10.0225 -6.601 -2.3615 
-5.323 -8.4515 -5.319 -8.231501 -13.854 -11.9015 -13.0242 -5.5235 -7.828 -7.904 -7.8115 -9.969501 -9.4305 -12.9464 -12.9829 -12.8329 -7.5185 -6.9525 -7.956 -7.985001 -10.7595 -5.6175 -8.1545 -8.503 -8.466001 -12.5769 -14.1565 -12.433 -6.601 
-9.163 -10.883 -8.231501 -16.7029 -15.8666 -14.2713 -13.9942 -9.2465 -9.555 -9.1005 -12.7303 -12.8641 -16.7272 -16.4663 -16.7003 -13.7804 -8.658501 -12.6924 -9.06 -11.7407 -11.425 -10.0435 -9.2875 -11.8061 -16.2581 -16.2909 -16.567 -12.433 
-12.1583 -13.7955 -16.7029 -18.7155 -18.2028 -15.2413 -17.7172 -10.7605 -10.4445 -14.1285 -15.6249 -20.1608 -20.2471 -20.1837 -17.6478 -14.9204 -14.623 -13.7964 -12.8329 -12.4062 -15.851 -10.738 -13.0804 -19.5982 -19.9721 -18.7014 -16.567 
