-4.759 
n/a 
n/a 
n/a 
n/a 
-4.759 
n/a 
n/a 
n/a 
n/a 
-4.759 
n/a 
n/a 
n/a 
n/a 
-4.759 
n/a 
n/a 
n/a 
n/a 
-3.5455 -1.4985 -5.362 -1.7565 -7.4885 0 -5.1845 -2.7415 -2.5045 -3.1435 -4.53 
-3.91 -6.038501 -5.843 -9.320001 -7.4885 -5.1845 -8.745501 -5.0365 -4.8495 -6.261 
-6.6785 -6.073501 -14.3543 -9.320001 -11.0145 -8.745501 -11.1837 -6.752501 -6.602 
-6.683001 -14.7386 -14.3543 -12.9998 -14.5755 -11.1837 -12.8997 -7.466001 
-15.6471 -14.7386 -18.0341 -16.5608 -17.0137 -12.8997 -13.6132 
-5.1845 -4.8635 -6.180501 -3.5455 -6.864 -3.8405 
-11.136 -12.4812 -7.652501 -10.0285 -8.532001 
-18.7537 -13.9532 -14.8403 -10.6655 
-20.2257 -21.141 -15.4773 
-27.4135 -21.778 
-5.1845 -2.7415 -5.3905 -1.934 -6.864 -2.229 -3.8405 
-8.745501 -7.4615 -7.544 -9.2825 -8.205501 -6.798501 
-13.6087 -8.968 -15.4227 -10.8122 -13.6572 
-15.1152 -17.0135 -16.9524 -16.2639 
-23.1607 -18.5432 -22.4041 
-5.1845 -2.186 -1.4985 -3.17 -3.6975 -3.6885 -1.934 -6.864 -3.8405 0 
-7.895 -3.339 -3.7115 -4.1885 -7.426001 -5.5135 -9.2825 -8.532001 -3.8405 
-8.77 -4.888 -5.088 -7.7665 -8.7015 -13.4708 -11.1387 -8.532001 
-9.601501 -6.213 -8.303 -8.879001 -16.9502 -15.327 -11.1387 
-11.4977 -8.955501 -9.0825 -17.3867 -18.8064 -15.327 
