-4.759 
n/a 
n/a 
n/a 
n/a 
-4.759 
n/a 
n/a 
n/a 
n/a 
-4.759 
n/a 
n/a 
n/a 
n/a 
-4.759 
n/a 
n/a 
n/a 
n/a 
-3.5155 -6.095 -5.481 -1.756 -4.3105 -5.481 -5.404 -6.04 -3.8375 -2.4265 -2.186 -3.5455 -1.7695 -4.474 0 
-9.4315 -10.3415 -6.7895 -6.2255 -10.4945 -11.678 -12.6526 -7.703001 -6.5795 -3.292 -6.533501 -5.7145 -6.567 -4.474 
-14.2316 -11.8898 -11.8106 -12.6655 -16.6915 -18.9266 -14.3156 -9.698501 -7.127 -7.998001 -8.8155 -9.6975 -6.567 
-15.7799 -16.9109 -18.2506 -18.8625 -23.9401 -20.5896 -16.3111 -10.762 -12.153 -9.9665 -13.0531 -9.6975 
-20.801 -23.3509 -24.4476 -26.1111 -25.6031 -22.5851 -17.3746 -15.788 -14.1215 -14.1459 -13.0531 
-3.5155 -9.9965 -4.502 -1.756 -4.3105 -4.502 -4.5595 -1.934 -4.474 -2.229 -9.9545 -3.8375 0 
-14.3176 -14.6469 -5.842 -6.2255 -8.0955 -9.661001 -5.96 -5.7135 -6.2665 -12.7785 -13.9178 -3.8375 
-18.968 -15.9869 -10.634 -10.3885 -13.6357 -11.1077 -9.135 -7.364 -17.6208 -16.7418 -13.9178 
-20.308 -20.7789 -14.797 -15.9287 -15.0824 -14.2827 -10.9277 -19.1769 -21.5841 -16.7418 
-25.1 -24.9419 -20.3372 -17.3754 -18.2574 -16.0754 -22.7406 -23.1402 -21.5841 
-6.095 -4.502 0 -4.3105 -4.502 -3.5155 -2.4945 -6.666 -1.934 -1.4985 -3.5455 -3.7575 -1.7565 -1.4985 -5.1505 -6.04 -3.8375 0 
-8.019 -4.502 -4.3105 -8.0955 -8.1625 -5.4445 -10.5887 -8.762501 -2.6125 -4.554 -5.799001 -4.4575 -2.4195 -6.188001 -9.012501 -7.703001 -3.8375 
-8.019 -8.83 -8.0955 -12.1372 -9.743501 -13.6273 -12.6852 -9.5495 -5.298 -6.087 -6.1545 -4.7 -6.938001 -10.3955 -10.8833 -7.703001 
-10.419 -9.579 -12.1372 -13.7182 -17.9263 -15.7238 -13.4722 -12.3664 -7.9515 -6.23 -6.498001 -9.892 -11.2897 -12.5013 -10.8833 
-10.687 -13.9455 -13.7182 -21.901 -20.0228 -16.5108 -16.2891 -15.0199 -8.22 -6.5295 -12.2632 -14.2437 -13.3955 -12.5013 
-3.5155 -4.29 -4.502 -1.756 -4.3105 -4.502 -2.4945 -4.2765 -4.6105 -1.934 -7.5715 -3.8375 0 -4.474 
-7.578 -9.266001 -5.842 -6.2255 -8.0955 -7.267 -5.554501 -9.8205 -6.099501 -10.147 -11.887 -3.8375 -4.474 
-13.3372 -10.635 -10.634 -10.3885 -10.476 -10.5762 -11.7687 -11.3719 -14.9407 -14.4625 -11.887 -7.4205 
-14.7062 -15.427 -14.797 -12.769 -13.7852 -16.7904 -13.3201 -20.2131 -19.2562 -14.4625 -15.47 
-19.4982 -19.59 -17.1775 -16.0782 -19.9994 -18.3418 -22.1613 -24.5286 -19.2562 -18.0455 
