-4.759 
n/a 
n/a 
n/a 
n/a 
-4.759 
n/a 
n/a 
n/a 
n/a 
-4.759 
n/a 
n/a 
n/a 
n/a 
-4.759 
n/a 
n/a 
n/a 
n/a 
-1.934 -4.566 -3.6055 -5.2365 -3.8255 -1.4985 -8.704 -2.3345 -1.4985 -3.7075 -3.2615 -2.3335 -4.86 -3.074 -4.2875 
-5.727 -8.8645 -10.082 -9.1975 -4.982 -9.601501 -10.821 -3.233 -4.6235 -7.198501 -5.0495 -8.989 -8.3225 -7.837501 
-9.522 -15.4774 -14.043 -10.7902 -13.6958 -11.8167 -11.7195 -6.444 -7.6245 -9.155001 -12.1278 -12.5449 -13.3558 
-16.2681 -19.4384 -15.6357 -19.504 -15.911 -12.7152 -14.9305 -9.311501 -9.4975 -16.3885 -15.6837 -17.5782 
-20.2291 -21.0311 -24.3495 -21.7192 -16.8095 -15.9262 -17.798 -11.1851 -16.7824 -19.9444 -20.717 
-1.934 -4.566 -4.3645 -4.4785 -1.7565 -3.6845 -1.7695 -3.8725 -8.316 -1.7695 -4.2485 -4.3655 -1.756 -3.644 -1.7565 -3.436 -2.3335 -4.2485 -1.934 -4.86 -1.7565 -3.8725 -4.921 0 
-5.727 -9.4615 -10.186 -5.3945 -6.842501 -5.38 -5.2995 -13.4255 -10.75 -6.549 -9.3865 -5.9695 -5.0925 -6.118001 -6.343 -5.4805 -6.990001 -5.861001 -6.0945 -7.98 -6.140501 -8.359 -4.921 
-10.4035 -15.433 -11.2248 -11.1123 -8.708501 -10.4945 -15.8619 -15.8595 -15.5295 -12.107 -11.2111 -9.3625 -7.9545 -11.6635 -8.324 -10.281 -8.7545 -10.7719 -8.7345 -12.6426 -10.674 -8.359 
-16.375 -16.4718 -16.9426 -12.9783 -14.1906 -21.0569 -18.2959 -20.639 -21.0875 -13.9316 -14.6041 -12.3649 -13.6074 -13.6445 -13.3427 -12.2265 -13.8646 -13.4119 -13.4573 -17.1761 -10.674 
-17.4138 -22.1896 -18.8086 -18.4604 -24.753 -23.4909 -23.0754 -26.197 -22.9121 -17.3246 -17.6065 -18.0178 -15.5884 -18.6632 -15.2882 -17.3366 -16.5046 -18.1347 -17.9908 -17.1761 
-3.2615 -3.8255 -1.4985 -3.942 -2.5195 -4.566 -3.3255 -5.3955 0 -1.4985 -4.2485 -1.934 -4.6985 -2.4945 -4.0535 -2.4285 -4.4865 -5.084 -2.7835 -2.7295 -3.5795 -1.4985 -3.6075 -5.002 -3.3425 -5.1015 0 -3.321 -2.7295 -3.6595 -2.3335 -1.4985 -4.6985 -4.2485 -2.186 -5.1585 -5.3285 -2.5195 -4.86 -5.648 0 
-5.910501 -4.982 -5.103 -5.846 -6.6285 -7.549 -8.450001 -5.3955 -1.4985 -5.307 -5.861001 -7.228 -7.089 -6.3615 -6.2445 -6.4685 -7.771501 -8.547501 -4.405 -6.1675 -4.5845 -4.5495 -8.1035 -7.9995 -8.389501 -5.1015 -3.321 -4.911 -5.857 -4.406 -3.3515 -5.1995 -8.135 -5.843 -6.515 -7.6125 -7.448501 -7.0375 -9.023001 -5.648 
-6.8455 -8.358001 -6.9115 -10.223 -7.9165 -13.5829 -8.450001 -6.9785 -5.307 -6.708 -10.0005 -9.752001 -11.34 -7.903501 -8.222 -9.355 -11.6654 -10.1345 -7.4125 -6.996 -8.1035 -9.0445 -11.406 -13.3107 -8.389501 -8.199 -4.911 -8.7585 -5.997 -5.081 -7.3125 -8.808001 -9.647 -8.979 -8.625 -9.1835 -12.5027 -9.1415 -9.023001 
-10.553 -9.017 -11.7601 -11.477 -14.7164 -13.5829 -9.760501 -10.322 -6.708 -11.1875 -12.9229 -14.003 -12.882 -9.474501 -11.7861 -13.8009 -13.2524 -13.142 -7.98 -10.0635 -12.8479 -12.4888 -16.7172 -13.3107 -11.9742 -9.922501 -8.7585 -8.9305 -6.5145 -9.795501 -11.7154 -10.304 -12.8952 -11.8426 -10.0785 -14.3893 -14.6067 -9.1415 
-11.212 -14.2548 -13.0141 -18.2769 -14.7164 -14.8934 -13.1528 -11.723 -11.1875 -14.1099 -17.1739 -15.545 -14.453 -13.369 -16.232 -15.3879 -16.2599 -13.7095 -11.0741 -14.8079 -16.2922 -17.8 -16.7172 -16.8954 -13.6977 -13.77 -8.9305 -9.59 -11.454 -14.2154 -13.2114 -13.5522 -15.7588 -13.2961 -15.2843 -16.4933 -14.6067 
-1.4985 -4.3645 -2.915 -3.9595 -4.732 -4.566 -3.837 -1.4985 -4.2485 -2.674 -4.8635 -4.0535 -2.4285 -2.674 -7.8265 -2.3335 -2.7295 -2.7765 -3.047 -1.4985 -4.8515 -3.8255 -5.471 -2.5195 -1.4985 -3.158 -4.86 0 
-5.8055 -7.327 -6.8735 -8.509 -8.889501 -8.712 -4.797 -5.307 -7.699501 -6.043 -7.993 -6.2445 -5.0115 -9.6645 -9.958 -4.056 -4.065 -4.5075 -4.095 -6.0635 -9.172501 -9.251 -7.8835 -3.1695 -4.178 -7.5205 -4.86 
-8.6955 -10.75 -12.7796 -12.9241 -13.1599 -9.6875 -7.872 -9.125 -10.553 -9.514501 -9.9725 -8.872001 -12.4365 -12.2215 -11.8365 -5.108 -5.696 -5.387 -8.3925 -10.3815 -14.7898 -12.0815 -8.543 -6.3945 -8.322001 -7.5205 
-12.3129 -16.6561 -17.1947 -17.1945 -14.1354 -12.7625 -12.0058 -12.1083 -14.0245 -11.559 -12.6 -16.7616 -14.7031 -14.2517 -13.8177 -6.965 -6.5735 -9.001 -12.9019 -15.9988 -17.6203 -12.741 -12.0094 -9.8465 -8.322001 
-18.219 -21.0712 -21.4651 -18.17 -17.2104 -16.8963 -14.9891 -15.5798 -16.069 -14.1865 -20.4896 -18.9476 -16.7333 -15.9397 -15.5337 -7.806 -10.532 -13.5302 -18.5192 -18.8293 -18.2798 -16.2074 -15.4614 -9.8465 
