-4.759 
n/a 
n/a 
n/a 
n/a 
-4.759 
n/a 
n/a 
n/a 
n/a 
-4.759 
n/a 
n/a 
n/a 
n/a 
-4.759 
n/a 
n/a 
n/a 
n/a 
-3.6055 -4.0905 -1.7565 -5.154 -8.066501 -4.1455 -1.7695 -4.245 -1.7565 -4.96 0 
-6.297501 -5.3585 -7.256501 -14.0707 -12.989 -5.983 -6.460001 -6.1035 -6.784501 -4.96 
-8.383501 -12.0269 -16.471 -18.9932 -14.8265 -11.4483 -8.658501 -11.8133 -6.784501 
-15.2493 -21.2414 -21.3935 -20.8307 -20.2918 -13.6468 -14.5813 -11.8133 
-24.4638 -26.1639 -23.231 -26.296 -22.4903 -19.5696 -14.5813 
-1.8085 -3.6765 -2.0935 -5.029 -7.211 -2.9905 -7.2715 -2.5685 -4.798 -5.5995 
-4.452 -5.538 -8.129 -13.073 -10.7831 -10.204 -9.892 -7.543 -11.9371 
-6.5385 -12.4169 -16.3688 -16.6451 -17.9966 -13.0487 -15.2133 -15.2667 
-13.908 -20.6567 -19.9409 -23.8586 -20.8413 -18.37 -22.937 
-22.1478 -24.2288 -27.1544 -26.7033 -26.1626 -26.0937 
-12.16972 -5.154 -7.211 
-17.32372 -10.089 
-22.25872 
n/a 
n/a 
-1.4985 -4.3625 -2.0935 -1.4985 -4.1455 -6.7615 0 -3.251 -4.4195 -1.4985 -5.821 -4.923 -1.7565 -1.4985 -4.1455 0 
-5.416 -5.959 -2.9725 -5.3955 -12.037 -6.7615 -3.251 -6.384 -6.1615 -6.889 -12.1218 -6.6775 -2.4195 -5.3955 -4.1455 
-7.682 -6.476501 -7.2605 -13.8134 -12.037 -9.616 -6.384 -7.306 -11.9572 -13.3578 -13.8763 -7.707 -6.0265 -5.3955 
-8.291 -10.717 -15.7464 -13.8134 -14.8915 -12.7408 -7.306 -13.4387 -18.426 -15.1123 -14.9058 -11.5948 -6.0265 
-12.7121 -19.2029 -15.7464 -16.6679 -18.0163 -13.6628 -13.4387 -19.9075 -20.1805 -16.1418 -18.7936 -11.5948 
