-4.759 
n/a 
n/a 
n/a 
n/a 
-4.759 
n/a 
n/a 
n/a 
n/a 
-4.759 
n/a 
n/a 
n/a 
n/a 
-4.759 
n/a 
n/a 
n/a 
n/a 
-5.633 -5.1735 -5.233 0 -3.8005 -3.801 -3.522 
-11.7951 -10.9855 -5.233 -3.8005 -7.362 -8.102 
-17.6071 -10.9855 -9.58 -7.362 -12.8296 
-17.6071 -15.3325 -13.4015 -12.8296 
-21.9541 -19.154 -18.8691 
-6.9965 -1.7695 -3.5025 -4.867 -1.7695 -3.8005 -3.801 
-8.443001 -5.664001 -8.9305 -6.9255 -5.519001 -7.362 
-12.8771 -11.4826 -11.1232 -11.1048 -9.561001 
-18.6957 -13.6753 -15.3025 -15.1468 
-20.8884 -17.8546 -19.3445 
-3.8315 -5.1735 -2.186 -1.8085 -4.9175 -3.89 0 -4.1125 -3.801 -3.522 
-9.2475 -6.963 -3.164 -5.892 -8.9575 -3.89 -4.1125 -7.9725 -8.102 
-10.5865 -8.057 -7.291 -10.2645 -8.9575 -8.846001 -7.9725 -12.7465 
-11.6805 -12.4872 -12.0455 -10.2645 -13.9929 -12.8776 -12.7465 
-16.1107 -17.2417 -12.0455 -15.2999 -18.0245 -17.6516 
-3.5025 -4.824 0 -4.1125 -3.801 -3.522 
-6.477 -4.824 -4.1125 -7.9725 -8.102 
-6.477 -9.376 -7.9725 -12.7465 
-10.2285 -13.614 -12.7465 
-14.4665 -18.388 
