-4.759 
n/a 
n/a 
n/a 
n/a 
-4.759 
n/a 
n/a 
n/a 
n/a 
-4.759 
n/a 
n/a 
n/a 
n/a 
-4.759 
n/a 
n/a 
n/a 
n/a 
-5.7055 -6.641 -5.54 0 -3.533 0 
-7.9675 -7.9905 -5.54 -3.533 -3.533 
-7.9955 -7.9905 -9.043001 -3.533 
-7.9955 -12.1443 -9.043001 
-12.1507 -12.1443 
-5.7055 -6.187 -5.54 0 -3.533 0 
-12.5057 -10.4945 -5.54 -3.533 -3.533 
-16.8132 -10.4945 -9.043001 -3.533 
-16.8132 -13.9975 -9.043001 
-20.3162 -13.9975 
-5.7055 -6.641 -5.54 0 -3.533 0 
-7.9675 -7.9905 -5.54 -3.533 -3.533 
-7.9955 -7.9905 -9.043001 -3.533 
-7.9955 -12.1443 -9.043001 
-12.1507 -12.1443 
-6.425 -7.0925 -6.1785 0 -3.533 0 
-14.1569 -13.7764 -6.1785 -3.533 -3.533 
-20.8408 -13.7764 -10.054 -3.533 
-20.8408 -17.6519 -10.054 
-24.7163 -17.6519 
