-4.759 
n/a 
n/a 
n/a 
n/a 
-4.759 
n/a 
n/a 
n/a 
n/a 
-4.759 
n/a 
n/a 
n/a 
n/a 
-4.759 
n/a 
n/a 
n/a 
n/a 

n/a 
n/a 
n/a 
n/a 
-2.5045 -1.4985 -2.95 -1.7565 -2.9645 -1.4985 -8.255501 -3.2955 -2.3345 -3.982 0 -3.982 -3.5185 -1.8085 -6.614501 0 -7.4915 0 -3.3755 0 
-3.1915 -3.9285 -4.3785 -3.7085 -3.957 -9.278001 -11.9836 -4.534 -6.7745 -3.982 -3.982 -8.691501 -4.072 -8.4235 -6.614501 -7.4915 -7.4915 -3.3755 -3.3755 
-4.5155 -4.676 -6.838 -6.042 -12.0557 -13.1713 -13.2221 -8.652 -6.7745 -6.2495 -8.691501 -9.528001 -11.8702 -8.4235 -10.151 -7.4915 -11.8304 -3.3755 
-4.837 -7.5975 -8.594501 -14.7087 -15.949 -14.4098 -17.3401 -8.652 -9.54 -11.6708 -9.528001 -17.362 -11.8702 -12.356 -10.151 -11.8304 -11.8304 
-7.755001 -8.862 -17.3542 -18.602 -17.1875 -18.5278 -17.3401 -11.7361 -15.0107 -12.5073 -17.362 -17.362 -15.8027 -12.356 -14.4899 -11.8304 
-2.3615 -3.2955 -11.128 -4.418 -5.4185 -4.0875 -3.251 -4.9595 0 -2.5195 -2.7625 -4.323 -4.142 -3.8115 -1.7695 -4.176 0 
-6.4825 -15.5633 -15.546 -10.8037 -10.0445 -7.096 -9.114 -4.9595 -2.5195 -5.407 -5.97 -8.199 -9.684501 -3.8325 -6.225 -4.176 
-19.3443 -19.9813 -21.9317 -15.4297 -13.1482 -13.4722 -9.114 -8.696001 -5.407 -9.1995 -9.72 -14.0821 -9.752501 -9.881001 -6.225 
-23.7623 -26.367 -26.5577 -18.5334 -19.5244 -13.4722 -13.2799 -11.9471 -9.1995 -13.2573 -15.6367 -14.1501 -15.8482 -9.881001 
-30.148 -30.993 -29.6614 -24.9096 -19.5244 -17.6381 -16.531 -15.7396 -13.2573 -19.174 -15.7047 -20.2458 -15.8482 
-4.176 -2.186 -1.934 -1.4985 -2.7035 -4.323 -4.084 
-6.9315 -4.0835 -2.6125 -5.359 -5.940001 -9.448001 
-9.008 -4.6915 -6.5555 -8.5765 -11.2638 
-9.894501 -8.366 -9.863001 -14.1903 
-13.569 -12.1369 -15.4768 
