-4.759 
n/a 
n/a 
n/a 
n/a 
-4.759 
n/a 
n/a 
n/a 
n/a 
-4.759 
n/a 
n/a 
n/a 
n/a 
-4.759 
n/a 
n/a 
n/a 
n/a 
-3.2615 -3.135 -3.8405 -7.299 -5.123 -3.1435 -3.0835 -3.5015 
-5.675 -6.777 -12.1419 -13.1798 -6.308 -5.1475 -5.07 
-7.6965 -15.964 -18.0227 -14.3648 -8.963 -8.386001 
-17.4595 -21.8448 -19.2077 -17.0198 -12.5491 
-23.3403 -23.0298 -21.8627 -20.6059 
-3.2615 -5.2515 0 -7.299 -3.966 -3.1435 -4.0105 -4.4525 0 
-7.4995 -5.2515 -7.299 -12.0228 -6.0375 -6.0575 -6.885 -4.4525 
-7.4995 -13.4711 -12.0228 -14.0943 -8.967501 -9.1335 -6.885 
-16.0311 -18.1949 -14.0943 -17.0243 -12.1355 -9.1335 
-20.7549 -20.2664 -17.0243 -20.1923 -12.1355 
-3.2615 -3.277 -7.299 -3.966 -2.186 -3.0835 -3.5015 0 
-5.837 -11.6522 -12.0228 -6.587 -5.597 -5.07 -3.5015 
-15.5224 -16.376 -14.6438 -10.2865 -8.6075 -5.07 
-20.2462 -18.997 -18.3433 -13.297 -8.6075 
-22.8672 -22.6965 -21.3538 -13.297 
-3.436 -3.135 -3.277 -7.299 -6.7575 -3.1435 -3.0835 -3.5015 0 
-6.656 -5.790501 -11.6522 -14.8143 -8.771 -5.1475 -5.07 -3.5015 
-9.062 -14.7907 -19.1675 -16.8278 -11.3246 -8.386001 -5.07 
-18.2862 -22.306 -21.181 -19.3814 -14.5631 -8.386001 
-25.8015 -24.3195 -23.7346 -22.6199 -14.5631 
