-4.759 
n/a 
n/a 
n/a 
n/a 
-4.759 
n/a 
n/a 
n/a 
n/a 
-4.759 
n/a 
n/a 
n/a 
n/a 
-4.759 
n/a 
n/a 
n/a 
n/a 
-2.872 -5.4425 -6.5625 -3.5745 -5.651501 -3.6955 0 
-8.647 -7.282 -9.916 -9.1155 -7.515501 -3.6955 
-10.6947 -10.621 -14.0665 -11.356 -8.723001 
-14.0337 -14.7715 -15.9585 -9.375 
-18.1842 -16.6635 -15.9585 
-2.872 -3.5485 -5.4425 -6.5625 -2.6165 -4.0555 0 
-5.6 -9.359 -7.282 -9.842501 -7.995001 -4.0555 
-12.0353 -11.4131 -10.5425 -15.4068 -7.995001 
-14.0894 -14.6736 -16.1068 -15.4068 
-17.3499 -20.2379 -16.1068 
-2.872 -9.1835 -6.5625 -3.5745 -5.651501 -4.0555 0 
-9.941001 -9.251 -9.916 -9.1155 -9.793001 -4.0555 
-12.712 -12.94 -14.0665 -12.335 -9.702001 
-16.139 -17.1785 -19.5477 -12.9642 
-20.2895 -22.6597 -19.5477 
-3.5485 -3.758 -1.8085 -3.0015 -3.118 -5.4425 -6.5625 -2.7415 -2.6165 -4.673 0 
-7.3555 -6.145 -4.626 -5.037 -7.6275 -7.282 -8.714001 -4.266 -6.783 -4.673 
-10.1465 -7.734 -6.734 -7.6475 -7.653 -9.127 -10.1995 -7.457001 -6.783 
-11.8601 -8.028 -7.648 -7.654 -9.481 -10.7019 -13.3905 -7.457001 
-12.1541 -8.076 -7.654 -9.483001 -11.1059 -13.8929 -13.3905 
