-4.759 
n/a 
n/a 
n/a 
n/a 
-4.759 
n/a 
n/a 
n/a 
n/a 
-4.759 
n/a 
n/a 
n/a 
n/a 
-4.759 
n/a 
n/a 
n/a 
n/a 
-4.1865 -6.853 -4.2915 -2.4945 -5.1645 0 -3.6085 0 -5.1845 -9.002001 -3.143 -8.235001 -2.674 -6.802001 -4.7395 0 
-9.747 -11.8685 -6.186 -8.7015 -5.1645 -3.6085 -3.6085 -5.1845 -15.4809 -12.4266 -11.8776 -10.8625 -10.513 -8.047001 -4.7395 
-14.8833 -13.763 -9.724501 -8.7015 -7.0415 -3.6085 -7.535501 -15.4809 -18.9055 -21.1612 -14.5051 -18.7015 -11.758 -8.047001 
-16.7778 -17.3015 -9.724501 -10.1905 -7.0415 -7.535501 -18.4823 -18.9055 -27.6401 -23.7887 -22.3441 -19.9465 -11.758 
-20.3163 -17.3015 -11.3703 -10.1905 -8.968 -18.4823 -21.9069 -27.6401 -30.2676 -31.6277 -23.5891 -19.9465 
-5.1645 0 -3.6085 0 -5.1845 -1.756 -2.8965 -3.143 -3.6885 -2.4945 -4.285 -3.6885 -2.9705 -4.066 -3.325 -6.802001 -4.1785 
-5.1645 -3.6085 -3.6085 -5.1845 -7.2435 -3.751 -6.9675 -7.6255 -6.529 -7.304 -8.276001 -6.237 -5.984 -6.5505 -11.0465 -8.046 
-7.0415 -3.6085 -7.535501 -7.2435 -8.921 -8.415501 -8.817 -11.0828 -10.443 -11.7498 -11.2645 -9.2405 -7.919001 -14.9214 -12.2905 
-7.0415 -7.535501 -8.995501 -8.921 -14.1931 -10.3434 -14.1893 -14.9968 -16.1914 -14.7383 -14.268 -11.2669 -16.5479 -16.1654 
-8.968 -8.995501 -10.9944 -14.1931 -16.121 -15.7157 -18.1033 -20.7452 -19.1799 -17.7418 -16.2944 -19.8958 -17.7919 
-2.3345 -1.4985 -4.4385 -1.7565 -12.16972 -5.1645 0 -3.6085 0 -8.915 -1.756 -2.5685 -2.8965 -3.143 -4.2915 -2.4945 -4.1865 -3.6885 
-3.233 -5.331 -5.339001 -14.87542 -17.33422 -5.1645 -3.6085 -3.6085 -8.915 -11.3124 -4.2335 -4.555 -6.9675 -7.581 -6.186 -7.3655 -7.112 
-7.365 -5.516 -19.22152 -20.03992 -17.33422 -7.0415 -3.6085 -13.5423 -11.3124 -13.7899 -5.4095 -8.7295 -10.459 -9.8015 -10.3345 -10.6236 
-7.54 -19.53452 -24.38602 -20.03992 -19.21122 -7.0415 -13.5423 -15.9397 -13.7899 -14.9659 -10.2435 -12.343 -12.6795 -14.071 -13.896 
-21.95472 -24.69902 -24.38602 -21.91692 -19.21122 -17.8289 -15.9397 -18.4172 -14.9659 -19.7999 -13.857 -14.5635 -16.949 -17.6325 
-6.802001 -1.756 -3.8095 -3.4905 -1.7565 -5.1645 0 -3.6085 0 -5.1845 -1.756 -3.074 -3.143 -4.2915 -4.3215 -3.5435 -4.2915 0 
-8.47 -5.2615 -7.5305 -4.601 -6.994501 -5.1645 -3.6085 -3.6085 -5.1845 -7.2435 -4.566 -7.622001 -7.581 -9.252501 -8.288 -8.683001 -4.2915 
-12.5459 -9.4545 -8.84 -10.698 -6.994501 -7.0415 -3.6085 -7.535501 -7.2435 -9.863001 -9.2945 -12.2856 -13.0914 -13.5086 -13.8225 -8.683001 
-16.7389 -11.0548 -15.171 -10.698 -9.262501 -7.0415 -7.535501 -8.995501 -9.863001 -14.5915 -13.9539 -17.796 -17.3475 -19.0431 -13.8225 
-18.3392 -17.3858 -15.171 -12.966 -9.262501 -8.968 -8.995501 -11.9364 -14.5915 -19.2509 -19.4643 -22.0521 -22.882 -19.0431 
