-4.759 
n/a 
n/a 
n/a 
n/a 
-4.759 
n/a 
n/a 
n/a 
n/a 
-4.759 
n/a 
n/a 
n/a 
n/a 
-4.759 
n/a 
n/a 
n/a 
n/a 
-2.9805 -2.186 -3.849 -2.5045 -3.6115 -6.845 
-4.1635 -4.8565 -6.305 -6.264 -11.5509 
-6.91 -7.104 -9.3645 -14.954 
-9.0845 -9.9355 -18.5121 
-12.021 -19.5229 
-2.9805 -2.7415 -3.9205 -2.5045 -6.845 -3.741 
-4.004 -5.733 -4.449 -10.427 -11.4354 
-6.7285 -6.186501 -12.1023 -15.0174 
-7.211501 -14.2004 -16.6927 
-15.4476 -18.7908 
-2.9805 -2.186 -3.849 -2.5045 -6.845 -3.741 
-4.1635 -4.8565 -6.305 -10.427 -11.4354 
-6.91 -7.104 -14.3311 -15.0174 
-9.0845 -15.2599 -18.9215 
-17.3454 -19.8503 
-2.9805 -3.091 -3.849 -2.5045 -6.845 -3.741 0 
-6.8105 -7.9325 -6.305 -10.427 -11.4354 -3.741 
-10.5035 -10.5787 -14.3311 -15.0174 -11.4354 
-13.1497 -18.6048 -18.9215 -15.0174 
-21.1758 -23.1952 -18.9215 
