-4.759 
n/a 
n/a 
n/a 
n/a 
-4.759 
n/a 
n/a 
n/a 
n/a 
-4.759 
n/a 
n/a 
n/a 
n/a 
-4.759 
n/a 
n/a 
n/a 
n/a 
-4.156 -4.7945 -3.6885 0 -5.125 -3.6885 0 -5.4135 0 -5.151 0 -4.2865 -4.7385 -1.756 -3.45 -1.756 -5.023 -3.6885 -3.45 -2.4945 -2.6165 -1.8085 -3.189 -3.6885 -2.5045 -2.5685 0 
-7.1365 -7.710001 -3.6885 -5.125 -9.069 -3.6885 -5.4135 -5.4135 -5.151 -5.151 -4.2865 -5.437 -5.7115 -4.834 -6.326 -6.3255 -9.3715 -7.535 -5.354 -3.8065 -4.0345 -5.1965 -5.969 -5.969 -4.275 -2.5685 
-9.514501 -7.710001 -9.371 -9.069 -9.069 -9.911 -5.4135 -9.5775 -5.151 -8.825001 -5.437 -6.336 -8.217501 -8.743 -11.7287 -11.0368 -13.2876 -8.812 -6.846 -5.4455 -7.307 -6.4405 -8.279501 -6.5835 -4.275 
-9.514501 -14.0159 -13.4966 -9.069 -15.5047 -9.911 -9.5775 -9.5775 -8.825001 -10.443 -6.336 -8.658501 -12.5491 -14.2971 -16.44 -14.9529 -14.5646 -10.2435 -9.0525 -8.527 -8.9515 -9.4025 -9.901001 -6.5835 
-15.9092 -18.1415 -13.4966 -15.5047 -15.5047 -14.1962 -9.5775 -13.4541 -10.443 -11.342 -8.658501 -13.0913 -18.1032 -19.0084 -20.3561 -16.2299 -15.9961 -12.45 -12.3308 -10.1945 -11.7743 -10.5865 -9.901001 
-2.9995 -4.033 -4.619 -3.115 -5.574 0 -5.98 0 -4.033 -6.341 0 -7.415 0 -4.373 -1.7565 -4.344 -1.756 -5.023 -4.5975 -2.4945 -2.6165 -2.664 -3.634 0 
-6.3425 -6.2015 -7.804501 -8.489 -5.574 -5.98 -5.98 -4.033 -7.6335 -6.341 -7.415 -7.415 -4.373 -4.455 -5.66 -5.5255 -6.3255 -7.4075 -6.4925 -3.8065 -4.827 -4.905 -3.634 
-8.566501 -9.366501 -9.645 -8.489 -7.753 -5.98 -9.468 -7.6335 -7.6335 -14.5484 -7.415 -12.4156 -4.455 -7.408 -6.737 -10.7335 -8.0165 -9.258 -7.802001 -6.2485 -6.1755 -4.905 
-12.3259 -10.3355 -9.645 -9.92 -7.753 -9.468 -13.3853 -7.6335 -16.1105 -14.5484 -12.4156 -12.4976 -7.408 -8.289001 -12.4162 -12.4245 -9.7735 -10.4045 -10.092 -7.583 -6.1755 
-13.2949 -10.3355 -10.545 -9.92 -9.933001 -13.3853 -13.3853 -16.1105 -16.1105 -19.549 -12.4976 -15.4506 -8.289001 -14.2168 -14.1072 -14.1815 -10.649 -13.1281 -11.4265 -7.583 
-3.931 -1.7565 -4.156 -3.519 0 -5.151 0 -5.8445 -2.925 -2.5685 -2.6165 -2.5685 -1.8085 -3.6885 
-4.616 -6.102 -8.041 -3.519 -5.151 -5.151 -5.8445 -8.859 -5.194 -6.164001 -4.806 -5.24 -4.486 
-8.112 -10.0345 -8.041 -9.726501 -5.151 -10.0285 -8.859 -10.299 -8.924001 -7.848001 -7.633 -8.2665 
-12.8391 -10.0345 -14.7315 -9.726501 -10.0285 -13.5328 -10.299 -14.403 -10.3675 -10.8286 -10.5135 
-12.8391 -16.725 -14.7315 -14.8542 -13.5328 -14.9728 -14.403 -15.8465 -13.6313 -13.7091 
-1.4985 -5.0585 -3.115 -6.13 -1.7565 -4.2725 0 -5.8445 0 -5.151 0 -5.043 -5.1195 0 -1.756 -5.023 -4.5975 -2.4945 -2.6165 -2.5045 -2.5685 -1.4985 -5.3255 -3.89 -2.0935 -2.3615 0 
-6.6035 -7.9475 -9.9585 -7.157 -6.351 -4.2725 -5.8445 -5.8445 -5.151 -5.151 -5.043 -6.6075 -5.1195 -1.756 -6.3255 -7.4075 -6.4925 -3.8065 -5.1365 -4.275 -3.7015 -6.0725 -10.19 -5.5035 -3.854 -2.3615 
-10.2865 -15.0302 -11.0041 -12.3525 -6.351 -10.1635 -5.8445 -11.1415 -5.151 -9.1355 -6.6075 -6.6075 -6.1465 -6.3255 -8.0165 -9.258 -7.802001 -6.3345 -5.4535 -5.5665 -8.546 -11.5522 -11.8035 -7.5245 -3.854 
-17.3692 -16.0758 -16.1996 -12.3525 -12.6332 -10.1635 -11.1415 -11.1415 -9.1355 -9.425 -6.6075 -8.0255 -11.8668 -8.0165 -9.7735 -10.4045 -9.638 -6.913 -6.9255 -10.5125 -14.1669 -13.1657 -13.8245 -7.5245 
-18.4148 -21.2713 -16.1996 -18.6347 -12.6332 -15.9257 -11.1415 -15.126 -9.425 -9.425 -8.0255 -14.188 -13.5578 -9.7735 -10.649 -12.6741 -11.0971 -8.311501 -12.2001 -16.1334 -15.7804 -15.1867 -13.8245 
