-4.759 
n/a 
n/a 
n/a 
n/a 
-4.759 
n/a 
n/a 
n/a 
n/a 
-4.759 
n/a 
n/a 
n/a 
n/a 
-4.759 
n/a 
n/a 
n/a 
n/a 
-3.5515 -3.9595 -2.5195 -4.8225 -3.002 -4.3645 -4.25 -1.4985 -4.872 -1.7565 -4.4515 -3.436 -1.4985 -3.7075 0 
-6.723001 -5.087 -7.399 -7.943501 -7.971001 -8.885 -5.251 -6.165 -6.461 -6.639 -7.7335 -4.213 -4.6235 -3.7075 
-7.257 -10.159 -9.995501 -10.361 -12.6879 -9.6835 -9.8345 -6.8645 -11.9503 -10.3345 -8.289001 -6.9625 -4.6235 
-12.7512 -12.7555 -12.5952 -15.0779 -13.4864 -14.267 -10.314 -12.574 -15.6458 -10.89 -10.218 -6.9625 
-15.3477 -15.3552 -17.3121 -15.8764 -18.0699 -14.7465 -16.4029 -16.2695 -16.2013 -12.819 -10.218 
-8.667 -4.4515 -5.6785 -3.6215 -3.7075 -4.055 -2.186 -3.557 -1.934 -3.326 -7.347 -3.002 -1.934 -4.4105 -3.815 -3.8195 0 
-13.7985 -10.575 -9.233 -7.708501 -8.237 -5.900001 -5.0815 -4.4175 -5.401 -11.9784 -10.5865 -5.333 -6.8855 -8.733 -5.729 -3.8195 
-20.2364 -14.1295 -13.5574 -12.7332 -10.354 -8.173 -5.6285 -8.1235 -14.7828 -15.2179 -13.6317 -10.6629 -11.8508 -9.769 -5.729 
-23.7909 -18.4539 -18.5821 -14.8502 -12.627 -8.517 -9.305 -17.7977 -18.0223 -18.2631 -18.9616 -15.6282 -12.8868 -9.769 
-28.1153 -23.4786 -20.6991 -17.1232 -12.971 -12.2719 -19.2526 -21.0372 -21.0675 -23.593 -23.9269 -16.6642 -12.8868 
-4.4515 -3.979 -1.4985 -3.7075 -2.186 -5.717 -3.9205 -2.5045 -3.7075 -3.326 -2.95 -3.562 0 
-8.818001 -5.5255 -4.6235 -5.825 -6.9315 -8.1665 -4.449 -6.858001 -7.9945 -7.078 -7.021 -3.562 
-9.692 -8.8535 -5.975501 -11.2547 -8.8065 -8.34 -8.06 -11.614 -12.3945 -11.5372 -7.021 
-13.381 -10.459 -11.7344 -13.1297 -9.0555 -11.912 -13.1754 -16.014 -16.8537 -11.5372 
-14.9865 -16.2179 -13.6094 -13.3787 -12.7023 -17.0274 -17.5754 -20.4732 -16.8537 
-8.667 -4.8225 -3.002 -4.7035 -1.8085 -3.562 -2.0935 -4.4515 -5.25 -3.7075 0 
-13.1325 -7.943501 -8.4285 -6.181 -4.96 -6.073501 -7.323 -8.953501 -9.901001 -3.7075 
-17.0327 -13.9766 -9.7395 -8.420501 -7.046 -12.1702 -12.2076 -14.0003 -9.901001 
-23.0658 -15.2876 -12.1794 -9.3105 -13.4229 -17.0548 -17.2544 -14.0003 
-24.3768 -17.7275 -13.0694 -16.6084 -18.3075 -22.1016 -17.2544 
