-4.759 
n/a 
n/a 
n/a 
n/a 
-4.759 
n/a 
n/a 
n/a 
n/a 
-4.759 
n/a 
n/a 
n/a 
n/a 
-4.759 
n/a 
n/a 
n/a 
n/a 
-17.0805 -10.8075 0 -9.862 -4.1465 0 
-28.6746 -10.8075 -9.862 -14.1869 -4.1465 
-28.6746 -20.6695 -14.1869 -14.1869 
-38.5366 -24.9944 -14.1869 
-42.8615 -24.9944 
-2.1715 -24.33944 0 -7.54 -4.1465 0 
-26.75454 -24.33944 -7.54 -12.1989 -4.1465 
-26.75454 -31.87944 -12.1989 -12.1989 
-34.29454 -36.53834 -12.1989 
-38.95344 -36.53834 
-23.94122 0 -9.111501 -9.562 0 0 
-24.42942 -9.111501 -18.8517 -9.562 0 
-33.54092 -18.8517 -18.8517 -9.562 
-43.28112 -18.8517 -18.8517 
-43.28112 -18.8517 
-8.0885 
n/a 
n/a 
n/a 
n/a 
