-4.759 
n/a 
n/a 
n/a 
n/a 
-4.759 
n/a 
n/a 
n/a 
n/a 
-4.759 
n/a 
n/a 
n/a 
n/a 
-4.759 
n/a 
n/a 
n/a 
n/a 
-3.0365 -2.4945 -3.486 -4.975 
-3.688 -6.8595 -8.18 
-8.2705 -12.0587 
-13.7885 
n/a 
-2.925 -2.882 -3.5185 -5.373 -5.784 
-4.7805 -6.006001 -9.3585 -7.114 
-7.829501 -12.352 -11.2307 
-14.3693 -14.2242 
-16.2415 
-2.925 -2.7765 -3.519 -1.4985 -5.373 -5.784 0 
-4.3215 -6.266001 -5.0755 -6.404 -7.114 -5.784 
-7.5845 -7.219001 -9.781 -8.022501 -7.114 
-8.633 -12.4541 -10.7055 -8.022501 
-13.9481 -13.3786 -10.7055 
-2.4265 -2.742 -2.489 -3.849 -2.5045 -5.373 -5.784 
-4.095 -3.301 -5.125 -6.305 -8.052501 -7.114 
-4.601 -6.0155 -6.962501 -11.9566 -9.144001 
-7.155 -7.900001 -13.0211 -13.0481 
-8.981501 -14.2308 -14.1126 
