-4.759 
n/a 
n/a 
n/a 
n/a 
-4.759 
n/a 
n/a 
n/a 
n/a 
-4.759 
n/a 
n/a 
n/a 
n/a 
-4.759 
n/a 
n/a 
n/a 
n/a 
-1.4985 -6.943 -3.0695 -2.186 -4.7695 -2.5045 -1.8085 -5.9425 -2.7765 -4.052 -3.091 -4.1425 
-8.142501 -8.3795 -4.2675 -6.515 -7.3215 -3.3625 -6.785 -9.1405 -5.566501 -6.479 -7.49 
-9.517501 -9.6055 -8.0515 -8.904 -7.7345 -8.546 -10.688 -11.9477 -7.836501 -9.4895 
-10.7095 -13.4207 -10.368 -9.354 -13.4554 -11.9948 -13.4952 -14.2177 -11.1138 
-14.5247 -15.7372 -10.818 -15.2343 -16.9042 -14.802 -15.7652 -17.495 
-1.934 -2.3615 -4.0395 0 -2.4265 -3.768 -2.0935 -1.8085 -4.9135 -4.7695 -2.5045 -1.4985 -4.142 -1.7565 -1.4985 -3.9235 -1.7695 -4.3135 -2.5195 -2.871 -3.8685 -1.7695 -3.571 0 
-3.539 -6.036 -4.0395 -2.4265 -5.097 -5.1955 -3.385 -5.7665 -9.211 -7.6435 -3.1915 -4.552 -4.797 -2.4195 -4.814 -5.6555 -5.319 -6.599 -4.743 -6.4475 -5.2975 -4.6785 -3.571 
-7.1465 -6.036 -6.398 -5.097 -5.781 -6.241 -7.3955 -9.4095 -12.7054 -8.2355 -5.0175 -4.8755 -5.014 -5.5365 -6.382 -8.435 -7.587 -8.318001 -7.514 -7.4195 -7.5315 -4.6785 
-7.1465 -8.094501 -9.807301 -5.781 -6.9945 -9.790001 -11.2429 -13.5041 -13.2974 -10.361 -5.1535 -5.057 -8.818501 -7.0735 -9.361 -11.0224 -8.745001 -10.7595 -7.613 -7.736 -7.5315 
-9.196501 -11.9712 -10.4913 -6.9945 -10.476 -14.1738 -15.3375 -14.0961 -15.4229 -10.497 -5.356 -8.896001 -10.003 -10.0405 -12.0754 -12.1804 -11.3177 -10.8585 -7.7455 -7.736 
-5.211 -2.8645 -1.4985 -4.599 -1.7565 -4.1655 -1.7695 -1.4985 -3.93 -6.232 -3.2615 -4.7695 -1.7695 -1.4985 -4.142 -3.518 -1.7565 -4.9075 
-8.156501 -4.3545 -6.797 -7.1555 -5.6785 -5.249 -2.7955 -5.065001 -11.4524 -9.066 -6.7115 -7.228001 -2.7955 -4.552 -7.2 -4.302 -8.1575 
-9.271001 -9.318501 -8.2185 -10.396 -6.7205 -6.018 -6.277 -12.9574 -14.2864 -12.7132 -8.8545 -8.112 -5.558 -7.408 -7.9355 -10.2385 
-14.8018 -10.5865 -10.586 -10.772 -7.5765 -9.128 -14.1774 -15.7914 -17.9336 -14.8562 -9.7605 -11.1127 -8.479501 -8.016001 -14.4438 
-16.0698 -12.954 -10.962 -11.628 -10.5745 -17.128 -17.0114 -19.4386 -20.0766 -15.7622 -13.0538 -14.0342 -9.1265 -14.6301 
-1.8085 -4.983 -3.0695 -4.953 -1.934 -1.4985 -3.9005 -3.518 -1.7565 -1.4985 -6.3015 -3.9665 -4.6305 -2.4265 -4.4005 -1.7695 -4.4075 -3.93 -4.4195 0 
-6.279 -7.092501 -6.821 -6.5965 -2.6125 -4.797 -6.2745 -4.302 -2.4195 -7.079 -10.209 -8.22 -6.135 -5.217 -4.888 -4.624 -6.6895 -7.5435 -4.4195 
-7.872 -9.260501 -8.448 -7.3465 -6.278501 -7.139 -6.7755 -5.435 -7.995001 -11.2253 -14.4625 -9.672 -8.034 -5.587 -7.298 -6.917 -9.673 -7.5435 
-10.6875 -11.6633 -8.9645 -11.4315 -8.844501 -7.6615 -8.573501 -11.3475 -12.2437 -15.4788 -15.9145 -11.9186 -8.087001 -8.153501 -9.701501 -10.019 -9.673 
-13.0903 -12.1798 -13.2279 -13.9975 -9.357 -8.822001 -14.6244 -15.5962 -16.4972 -16.9308 -18.1611 -11.9716 -10.7889 -10.233 -12.8035 -10.019 
