-4.759 
n/a 
n/a 
n/a 
n/a 
-4.759 
n/a 
n/a 
n/a 
n/a 
-4.759 
n/a 
n/a 
n/a 
n/a 
-4.759 
n/a 
n/a 
n/a 
n/a 
-3.7855 0 -4.2125 -3.4975 -4.9725 
-3.7855 -4.2125 -4.861 -7.1955 
-8.845 -4.861 -8.234 
-9.774501 -8.234 
-13.1475 
-3.999 0 -3.976 -3.676 -4.9725 
-3.999 -3.976 -6.6645 -8.715 
-8.879 -6.6645 -13.1137 
-11.9351 -13.1137 
-18.3843 
-3.7855 0 -7.71 -4.9725 
-3.7855 -4.861 -8.559 
-9.774501 -8.234 
-13.1475 
n/a 
-3.2795 0 -4.2125 -3.4975 -4.9725 
-3.2795 -4.2125 -4.861 -7.1955 
-7.743501 -4.861 -8.234 
-8.0415 -8.234 
-11.9181 
