-4.759 
n/a 
n/a 
n/a 
n/a 
-4.759 
n/a 
n/a 
n/a 
n/a 
-4.759 
n/a 
n/a 
n/a 
n/a 
-4.759 
n/a 
n/a 
n/a 
n/a 
-4.628 -5.939 -3.0435 -2.9195 -3.754 -5.8905 
-5.9615 -8.9505 -4.875 -6.244 -7.819 
-8.981501 -11.106 -8.73 -9.467501 
-11.1628 -14.961 -11.8031 
-15.0178 -18.0341 
-3.0435 -2.9195 -1.7565 -4.628 -5.939 -3.754 -5.8905 
-4.875 -5.335 -6.107501 -5.9615 -11.0145 -7.819 
-7.975 -9.368 -7.357501 -11.098 -14.469 
-12.8312 -11.0886 -12.813 -14.5525 
-14.5518 -16.5441 -16.2675 
-6.899 -3.8355 -2.9195 
-11.7449 -6.4565 
-14.3659 
n/a 
n/a 
-8.643001 -3.891 -2.4285 -4.1975 -2.9195 
-12.749 -5.864501 -6.343 -6.838 
-14.7225 -9.239501 -10.5135 
-18.0975 -13.7778 
-22.6358 
