-4.759 
n/a 
n/a 
n/a 
n/a 
-4.759 
n/a 
n/a 
n/a 
n/a 
-4.759 
n/a 
n/a 
n/a 
n/a 
-4.759 
n/a 
n/a 
n/a 
n/a 
-2.4265 -4.2705 -2.791 -1.7695 -4.548 -1.4985 -3.5585 0 
-5.3995 -5.721 -4.3355 -5.304 -5.882501 -5.6425 -3.5585 
-6.7685 -6.2915 -7.460501 -6.273 -9.298 -5.6425 
-7.317 -10.172 -8.4995 -9.735001 -9.298 
-11.3649 -11.3386 -12.1949 -9.735001 
-1.934 -2.3615 -3.4605 0 -3.664 -2.7765 -4.1495 -2.985 -3.5585 0 
-3.539 -4.455 -3.4605 -3.664 -5.2105 -5.801001 -6.6155 -6.789001 -3.5585 
-5.899 -4.455 -6.708 -5.2105 -7.3535 -7.208 -8.297001 -6.789001 
-5.899 -8.154 -7.592 -7.3535 -8.052501 -9.238001 -8.297001 
-9.624001 -9.3585 -9.8915 -8.052501 -9.847501 -9.238001 
-1.934 -2.3615 -3.4605 0 -3.664 -2.7765 -4.1495 -2.985 -3.5205 -3.5585 
-3.539 -4.455 -3.4605 -3.664 -5.2105 -5.801001 -6.6155 -4.257 -6.852 
-5.899 -4.455 -6.708 -5.2105 -7.3535 -7.208 -7.077001 -7.7515 
-5.899 -8.154 -7.592 -7.3535 -8.052501 -7.9855 -8.604 
-9.624001 -9.3585 -9.8915 -8.052501 -8.237 -9.291 
-3.3425 -2.3615 -3.4605 -3.664 -2.7765 -4.1495 -3.5585 0 
-4.77 -4.455 -6.708 -5.2105 -5.801001 -6.107501 -3.5585 
-6.146 -8.154 -7.592 -7.3535 -8.046 -6.107501 
-9.392501 -9.3585 -9.8915 -8.804501 -8.046 
-10.9462 -11.996 -11.4585 -8.804501 
