-4.759 
n/a 
n/a 
n/a 
n/a 
-4.759 
n/a 
n/a 
n/a 
n/a 
-4.759 
n/a 
n/a 
n/a 
n/a 
-4.759 
n/a 
n/a 
n/a 
n/a 
-4.5555 0 -4.8115 0 -4.749 -1.756 -3.502 -3.641 -4.6065 -5.0075 -1.7695 -3.599 0 -9.401 0 -6.371 0 -8.9855 -4.6195 0 
-4.5555 -4.8115 -4.8115 -4.749 -6.588 -5.1085 -5.219 -8.248001 -9.881001 -5.113 -5.452 -3.599 -9.401 -9.401 -6.371 -6.371 -8.9855 -13.9576 -4.6195 
-7.5295 -4.8115 -6.8275 -6.588 -7.82 -6.9115 -9.646501 -13.6269 -10.0715 -9.316 -5.452 -14.1854 -9.401 -15.825 -6.371 -16.2917 -13.9576 -13.9576 
-7.5295 -6.8275 -8.32 -7.82 -9.9425 -9.844001 -15.0444 -13.8174 -14.2817 -9.316 -16.6428 -14.1854 -15.825 -15.825 -16.2917 -21.2638 -13.9576 
-8.846001 -8.32 -9.212501 -9.9425 -12.9156 -15.2599 -15.2349 -18.0276 -14.2817 -20.7408 -16.6428 -20.6094 -15.825 -25.7457 -21.2638 -21.2638 
-2.8965 -4.052 -3.115 -4.5555 0 -4.749 0 -4.7015 0 -4.8745 0 -3.599 0 -4.237 0 -3.873 -2.4945 -5.0715 -1.7565 -1.4985 -4.295 0 
-6.902 -7.708 -8.223501 -4.5555 -4.749 -4.749 -4.7015 -4.7015 -4.8745 -4.8745 -3.599 -3.599 -4.237 -4.237 -3.873 -6.6425 -7.2085 -6.306 -2.4195 -5.0575 -4.295 
-9.4245 -12.9937 -8.223501 -7.1155 -4.749 -6.7 -4.7015 -10.007 -4.8745 -8.901501 -3.599 -6.9465 -4.237 -7.956 -6.6425 -11.6239 -8.663 -6.895 -6.676001 -5.0575 
-14.9092 -12.9937 -11.1285 -7.1155 -6.7 -6.7 -10.007 -10.007 -8.901501 -8.901501 -6.9465 -6.9465 -7.956 -12.1613 -11.6239 -13.0784 -9.1805 -11.9411 -6.676001 
-14.9092 -15.8987 -11.1285 -7.328 -6.7 -13.2119 -10.007 -14.0692 -8.901501 -12.364 -6.9465 -11.2979 -12.1613 -17.1427 -13.0784 -13.5959 -14.5514 -11.9411 
-7.186501 0 -7.295501 0 -7.252 0 -7.143001 -4.052 -4.621 -2.3345 -7.2045 0 -9.401 0 -6.371 0 -8.962001 -4.6065 
-5.18 -5.228001 -5.228001 -5.0795 -5.0795 -5.219 -9.602 -9.1875 -5.109 -9.0045 -7.2045 -9.401 -9.401 -6.371 -6.371 -8.962001 -14.0785 
-7.4975 -5.228001 -8.3695 -5.0795 -6.778 -9.124001 -14.6763 -9.392501 -12.5652 -9.0045 -17.3271 -9.401 -15.825 -6.371 -16.2682 -14.0785 
-7.1815 -7.8455 -7.8455 -6.3095 -9.676001 -15.0339 -15.2389 -17.0229 -12.5652 -19.3959 -17.3271 -15.825 -15.825 -16.2682 -21.3847 
-9.0015 -7.8455 -8.4235 -10.2948 -16.7733 -15.2389 -22.8693 -17.0229 -22.9566 -19.3959 -23.7511 -15.825 -25.7222 -21.3847 
-3.75 -3.502 -3.5455 -3.641 -4.348 -2.882 -3.9545 -1.756 -3.898 -12.16972 
-5.726501 -6.688 -5.18 -9.2025 -7.0585 -8.974001 -5.3285 -5.447001 -17.16372 
-8.1365 -8.002501 -10.4425 -12.003 -13.5143 -10.186 -8.462501 -19.26172 
-8.351501 -14.1254 -13.243 -18.4588 -14.7263 -13.5646 -22.71062 
-15.1772 -16.9259 -19.6988 -19.6708 -18.1049 -27.81272 
