-4.759 
n/a 
n/a 
n/a 
n/a 
-4.759 
n/a 
n/a 
n/a 
n/a 
-4.759 
n/a 
n/a 
n/a 
n/a 
-4.759 
n/a 
n/a 
n/a 
n/a 
-3.8665 -3.098 -2.186 -6.423 0 
-8.396 -4.7005 -10.2755 -6.423 
-10.0855 -12.8452 -10.2755 
-18.4066 -12.8452 
-18.4066 
-8.514 -1.8085 -2.674 -3.8665 -3.9915 0 
-9.824 -6.2805 -6.967501 -8.902 -3.9915 
-14.9082 -10.2085 -10.6875 -8.902 
-18.8362 -13.9285 -10.6875 
-22.5562 -13.9285 
-8.514 -2.186 -1.8085 -3.399 -3.098 
-11.08 -3.164 -4.5825 -5.2825 
-12.058 -5.551 -7.157001 
-14.445 -8.4855 
-17.3795 
-8.514 -2.186 -3.091 -5.1575 0 
-11.08 -5.3865 -6.8825 -5.1575 
-14.2805 -8.364 -6.8825 
-17.258 -8.364 
-17.258 
