-4.759 
n/a 
n/a 
n/a 
n/a 
-4.759 
n/a 
n/a 
n/a 
n/a 
-4.759 
n/a 
n/a 
n/a 
n/a 
-4.759 
n/a 
n/a 
n/a 
n/a 
-3.6845 -3.7855 -3.135 -4.4245 -1.7695 -4.079 -4.224 0 
-7.634501 -6.427501 -6.542 -6.31 -5.6795 -8.401501 -4.224 
-10.4945 -9.559001 -10.543 -9.091001 -10.7704 -8.401501 
-13.626 -13.6144 -13.324 -14.3205 -10.7704 
-17.6814 -16.3954 -18.5535 -14.3205 
-1.4985 -3.991 -3.7855 -3.6845 -2.186 -2.664 -3.668 -2.0935 -4.957 -3.7075 
-5.382501 -7.7655 -6.0565 -5.215 -3.8555 -4.7495 -5.612 -6.863501 -7.203 
-8.382501 -9.1155 -7.626 -6.199 -5.498 -6.306 -10.66 -10.1115 
-9.4005 -10.8608 -8.868501 -6.905 -7.243001 -11.8024 -13.908 
-11.2254 -12.1033 -9.316001 -8.847501 -13.0058 -15.0504 
-1.4985 -4.1985 -3.7855 -3.6845 -2.4945 -4.957 -3.668 0 
-5.028501 -7.599 -6.0565 -5.1915 -7.255001 -7.4585 -3.668 
-7.767 -8.049 -7.507 -9.553 -10.2815 -7.4585 
-8.0895 -9.986501 -12.1041 -12.7413 -10.2815 
-10.074 -14.75 -15.2924 -12.7413 
-3.147 -1.7695 -4.3465 -3.2825 -3.668 -1.7695 -3.325 
-3.993 -7.771501 -8.333501 -6.526501 -5.4925 -6.147501 
-10.218 -11.7995 -12.0023 -8.240001 -9.654 
-14.5544 -15.4683 -13.7158 -13.0063 
-18.2232 -17.1818 -18.4821 
