-4.759 
n/a 
n/a 
n/a 
n/a 
-4.759 
n/a 
n/a 
n/a 
n/a 
-4.759 
n/a 
n/a 
n/a 
n/a 
-4.759 
n/a 
n/a 
n/a 
n/a 
-4.915 0 -3.401 0 0 -6.7495 0 -2.186 -1.4985 -4.1465 -4.3665 -2.3345 -3.299 -3.391 -3.1385 -2.356 -2.985 -3.9675 -4.421 
-4.915 -3.401 -3.401 0 -6.7495 -6.7495 -2.186 -3.339 -5.547501 -7.6475 -5.101 -5.8 -6.241 -6.6855 -4.608 -4.4615 -6.269 -8.564001 
-8.8745 -3.401 -3.401 -6.7495 -6.7495 -11.1415 -3.339 -7.751 -8.984 -7.9195 -8.485001 -8.889 -8.729501 -8.42 -6.803 -7.959001 -10.2985 
-8.8745 -3.401 -9.840501 -6.7495 -11.1415 -12.2945 -7.751 -10.298 -9.2535 -11.4583 -10.76 -10.3225 -10.6095 -10.31 -9.889501 -12.0983 
-8.8745 -9.840501 -9.840501 -11.1415 -12.2945 -16.7065 -10.298 -10.504 -12.9213 -13.7333 -12.1935 -12.2025 -12.4995 -13.3965 -14.1298 
-3.0835 -4.6605 -2.8645 -6.935 -6.797 -4.6835 -1.756 -5.661 -3.3825 -6.0015 -2.356 -4.1465 0 
-8.2615 -6.91 -8.911 -14.7368 -10.411 -6.004 -6.4915 -7.2765 -9.1555 -8.1635 -6.842501 -4.1465 
-10.4265 -13.3883 -17.2874 -18.3508 -10.7695 -11.5309 -8.207001 -13.5203 -11.6365 -12.8166 -6.842501 
-16.9048 -21.7647 -20.9014 -18.7093 -16.2964 -13.2464 -14.4606 -16.0013 -16.2896 -12.8166 
-25.2812 -25.3787 -21.2599 -24.2362 -18.0119 -19.5 -16.9416 -20.6544 -16.2896 
-20.425 -4.433 -4.1465 -4.795 -1.4985 -4.1955 -4.421 
-27.1516 -7.8025 -8.831501 -5.954 -5.036 -7.217501 
-31.2497 -13.1985 -9.925501 -8.1615 -8.25 
-36.6457 -14.2925 -12.133 -9.4875 
-37.7397 -16.5 -13.459 
-13.434 -4.4225 -3.091 -4.5735 -4.421 -1.756 -4.6585 
-19.5817 -7.0235 -7.4255 -8.9515 -5.918 -6.0475 
-22.0343 -11.8818 -12.0545 -9.8765 -9.278501 
-26.9286 -16.5108 -12.9795 -13.52 
-31.5576 -17.4358 -16.623 
