-4.759 
n/a 
n/a 
n/a 
n/a 
-4.759 
n/a 
n/a 
n/a 
n/a 
-4.759 
n/a 
n/a 
n/a 
n/a 
-4.759 
n/a 
n/a 
n/a 
n/a 
-3.1385 -2.7765 -2.489 -2.9645 -2.3615 -9.1475 
-5.1855 -3.495 -6.586 -4.419 -10.7335 
-6.2955 -7.043 -8.5755 -13.5504 
-10.1249 -9.515 -17.8799 
-12.5969 -18.9176 
-2.5195 -2.3615 -4.1155 -3.499 -2.4945 -4.0285 
-4.4095 -5.8805 -7.8195 -5.2055 -7.3385 
-7.647 -10.1035 -9.527 -10.5923 
-12.1822 -11.909 -14.9636 
-13.9877 -17.3456 
-3.5025 -3.2945 -1.7695 -4.079 -1.4985 -4.053 
-5.984 -5.069 -6.612501 -6.308 -4.646 
-7.956 -9.7075 -9.762001 -10.013 
-12.9911 -13.2168 -13.5096 
-16.5004 -16.9644 
-1.934 -2.3615 -3.913 -1.4985 -4.31 -3.115 -3.277 
-3.539 -4.9295 -5.671 -5.7285 -6.735001 -5.627501 
-7.153501 -6.9295 -10.4185 -8.732 -9.477001 
-8.796 -12.0652 -13.422 -11.3036 
-13.9989 -15.0687 -15.9936 
