-4.759 
n/a 
n/a 
n/a 
n/a 
-4.759 
n/a 
n/a 
n/a 
n/a 
-4.759 
n/a 
n/a 
n/a 
n/a 
-4.759 
n/a 
n/a 
n/a 
n/a 
-4.62 -6.425 -2.4285 -4.0615 0 -4.0615 -2.186 -1.4985 -4.225 -2.871 -1.7695 -2.9645 0 -3.3165 -3.3255 -1.4985 -3.6765 -2.229 -4.98 -4.5865 0 
-12.2066 -8.2805 -7.087 -4.0615 -4.0615 -5.812 -3.339 -4.7995 -6.479001 -4.734 -3.812 -2.9645 -3.3165 -5.0715 -3.8945 -4.501 -4.9715 -6.6545 -8.219 -4.5865 
-14.0621 -13.5002 -7.087 -6.8435 -5.812 -7.5015 -6.196 -6.6175 -8.081 -6.7925 -3.812 -6.827001 -5.0715 -5.627501 -7.7495 -5.6 -9.073501 -9.832001 -8.219 
-19.2818 -13.5002 -10.757 -9.528501 -7.5015 -10.7225 -7.2155 -8.118 -8.647 -6.7925 -7.3305 -9.238501 -5.627501 -9.6645 -8.4335 -9.9915 -12.4008 -9.832001 
-19.2818 -17.1702 -13.442 -11.4182 -10.7225 -11.742 -8.5375 -8.656 -8.647 -10.292 -9.988501 -9.575001 -9.6645 -10.0695 -13.1556 -13.3188 -12.4008 
-3.757 -12.16972 -2.4285 -4.31 -3.047 -1.4985 -4.2285 0 -4.98 -4.825 -4.5865 -1.7565 -1.4985 -3.1385 -3.0695 -3.6955 -1.7695 -3.277 -1.7695 -3.3785 -2.7455 -2.985 -3.739 
-17.32532 -14.59822 -7.122 -7.291 -4.095 -5.116 -4.2285 -4.98 -8.118 -7.066 -6.312 -2.4195 -4.2575 -4.286 -5.826 -4.4705 -4.619 -4.261 -4.1685 -4.6985 -4.943 -5.844 
-19.75382 -19.29172 -9.9405 -8.104001 -8.3265 -5.116 -9.149 -8.118 -10.7824 -8.6105 -7.1145 -5.013 -5.1225 -6.4405 -6.193501 -6.9575 -6.2605 -6.738 -5.138 -6.951 -6.9365 
-24.44732 -22.11022 -11.2069 -12.5945 -8.3265 -11.0861 -12.6082 -10.7824 -12.3269 -9.1675 -10.347 -5.925 -7.298501 -6.656 -8.319 -8.601001 -8.546 -8.037001 -7.4385 -9.453 
-27.26582 -23.37662 -15.6974 -12.5945 -13.879 -14.5453 -15.2726 -12.3269 -12.8839 -12.535 -11.259 -7.916 -7.6845 -9.031 -9.767001 -11.0485 -10.275 -9.6105 -9.637501 
-4.0955 -1.4985 -6.56 0 -2.4285 0 -4.31 0 -4.31 -2.882 -4.6095 -2.0935 -3.277 0 -2.4945 -3.8255 -1.4985 -4.825 -4.5865 -1.7565 -3.4155 -4.9895 0 
-5.571 -7.7805 -6.56 -2.4285 -2.4285 -4.31 -4.31 -4.31 -6.408 -7.312 -6.331501 -4.694 -3.277 -2.4945 -5.2 -4.982 -5.909 -7.066 -6.312 -5.0175 -7.2615 -4.9895 
-12.3428 -7.7805 -8.8645 -2.4285 -7.122 -4.31 -7.472501 -6.408 -11.7156 -9.8585 -9.145 -4.694 -5.237 -5.2 -6.35 -9.025001 -8.151501 -8.6105 -8.4645 -8.246 -7.2615 
-12.3428 -10.138 -8.8645 -7.122 -7.122 -7.472501 -9.573001 -11.7156 -14.2621 -12.672 -9.145 -7.081 -7.900001 -6.35 -10.8592 -11.5941 -8.961 -10.9508 -12.7592 -8.246 
-14.7003 -10.138 -13.7408 -7.122 -10.634 -9.573001 -15.0938 -14.2621 -17.0756 -12.672 -11.782 -9.978001 -9.272 -10.8592 -13.4283 -12.4036 -11.3839 -15.2455 -12.7592 
-4.0955 0 -6.425 -2.4285 -4.0615 -3.047 -1.4985 -3.6185 -2.264 -4.98 -1.7565 -1.4985 -3.8805 -1.7565 -1.4985 -3.1385 -1.756 -3.6785 -2.7455 -3.277 0 
-4.0955 -6.425 -8.2805 -7.087 -6.719 -4.095 -5.133 -6.0235 -7.7635 -7.083 -2.4195 -5.325 -5.6475 -2.4195 -4.2575 -4.6325 -5.2305 -5.2375 -5.294 -3.277 
-11.8761 -8.2805 -13.5002 -10.1385 -8.3065 -7.8075 -7.1455 -12.1102 -10.31 -7.59 -6.1845 -5.9805 -6.251 -5.013 -5.7255 -7.685501 -8.290001 -7.1545 -5.294 
-13.7316 -13.5002 -16.5517 -11.726 -12.2414 -9.05 -13.7964 -14.6567 -10.817 -8.870501 -7.29 -6.5385 -8.7545 -6.3675 -8.6545 -10.9906 -9.85 -7.1545 
-18.9513 -16.5517 -18.1392 -15.6609 -13.4839 -16.0349 -16.3429 -15.1637 -12.0975 -10.107 -7.635 -8.8065 -10.5225 -9.674001 -12.1672 -12.5506 -9.85 
