-4.759 
n/a 
n/a 
n/a 
n/a 
-4.759 
n/a 
n/a 
n/a 
n/a 
-4.759 
n/a 
n/a 
n/a 
n/a 
-4.759 
n/a 
n/a 
n/a 
n/a 
-6.8095 -2.5045 -3.86 -2.0935 -3.869 -5.004 
-8.9925 -7.094001 -5.1965 -5.8785 -8.5825 
-13.9318 -7.985001 -9.8415 -11.2708 
-14.8228 -12.9344 -15.2338 
-19.7722 -18.3267 
-3.2615 -1.4985 -5.3525 -3.956 0 
-4.032 -6.295501 -7.251 -3.956 
-8.033501 -8.424001 -7.251 
-9.507501 -8.424001 
-9.507501 
-12.16972 -12.16972 -11.0555 
-24.33944 -23.22522 
-35.39494 
n/a 
n/a 
-3.4405 -7.015501 
-11.4866 
n/a 
n/a 
n/a 
