-4.759 
n/a 
n/a 
n/a 
n/a 
-4.759 
n/a 
n/a 
n/a 
n/a 
-4.759 
n/a 
n/a 
n/a 
n/a 
-4.759 
n/a 
n/a 
n/a 
n/a 
-3.488 -2.1715 -9.229501 -7.561501 0 -9.534 -4.698 -1.7565 -3.4075 -4.0375 -4.1265 -3.6815 -3.4185 
-4.8925 -11.6446 -17.0526 -7.561501 -9.534 -14.4396 -6.086 -5.009 -6.411 -8.619 -8.2325 -7.9715 
-15.856 -19.4677 -17.0526 -17.8127 -14.4396 -15.8276 -10.0675 -8.321501 -12.0509 -12.9528 -12.8555 
-23.6791 -19.4677 -27.3038 -22.7183 -15.8276 -19.8091 -13.38 -13.8276 -16.3847 -17.5758 
-23.6791 -29.7189 -32.2094 -24.1063 -19.8091 -23.1216 -18.8861 -18.1614 -21.0077 
-7.374001 -8.0035 0 -10.6925 -7.2955 -4.0375 -7.786 -3.6825 -3.4185 
-16.4837 -8.0035 -10.6925 -17.988 -11.8676 -12.8141 -10.513 -6.674 
-16.4837 -19.1046 -17.988 -22.5601 -20.6442 -15.5411 -13.5045 
-27.5848 -26.4001 -22.5601 -31.3367 -23.3712 -18.5326 
-34.8803 -30.9722 -31.3367 -34.0637 -26.3627 
-3.488 -11.1215 -7.561501 0 -5.7465 -3.4225 -3.4075 -3.6825 -4.698 -3.4185 
-13.6525 -13.0985 -7.561501 -5.7465 -9.247001 -7.129001 -6.165501 -8.2725 -7.448001 
-17.3099 -13.0985 -10.5535 -9.247001 -13.2049 -7.812 -10.3225 -10.1 
-17.3099 -16.0905 -15.4496 -13.2049 -13.8879 -12.4994 -12.15 
-20.3019 -20.9866 -19.4075 -13.8879 -18.5753 -14.3269 
-9.229501 -7.691 -2.5045 -1.8085 -7.5475 -4.2245 -1.934 -8.131001 -2.5045 -3.609 -2.1715 
-17.1821 -11.9733 -3.3625 -8.789001 -11.136 -4.929 -10.8215 -10.9075 -6.7675 -5.362 
-21.4644 -12.8313 -10.504 -12.7223 -11.8405 -14.7701 -13.598 -15.1705 -8.1775 
-22.3224 -19.9728 -14.4373 -13.4268 -21.6816 -17.5466 -17.861 -16.5805 
-29.4639 -23.9061 -15.1418 -23.2679 -24.4581 -21.8096 -19.271 
