-4.759 
n/a 
n/a 
n/a 
n/a 
-4.759 
n/a 
n/a 
n/a 
n/a 
-4.759 
n/a 
n/a 
n/a 
n/a 
-4.759 
n/a 
n/a 
n/a 
n/a 
-5.825 -2.186 -2.9645 -2.264 -3.3715 -3.127 -2.229 -1.756 -3.3715 -3.6885 -3.9355 -2.4945 -4.6045 -3.3425 -3.331 -2.871 -3.5015 0 
-6.9205 -6.4285 -5.2985 -5.394 -6.829 -6.2635 -4.366 -4.6545 -7.545 -7.4335 -5.6745 -8.464001 -8.2735 -6.4495 -6.916 -5.183 -3.5015 
-12.2705 -8.2305 -8.2015 -8.609501 -10.7895 -8.749001 -7.214 -9.331 -11.844 -8.6365 -12.1314 -12.2972 -11.7625 -10.075 -10.361 -5.183 
-15.0362 -12.0305 -11.6488 -13.1812 -13.275 -11.8912 -12.1453 -13.6872 -13.047 -15.3286 -15.9646 -15.7862 -15.388 -13.52 -10.361 
-18.8362 -15.4778 -16.2205 -15.6667 -16.4172 -16.8225 -16.5015 -14.8902 -19.7391 -19.1618 -19.4536 -19.4117 -18.833 -13.52 
-4.3895 0 -3.776 -3.614 -3.2015 -4.658 -3.571 -3.6885 -3.3715 -4.088 -1.7695 -5.1765 0 -3.5965 -3.0785 -1.7695 -3.331 -3.0785 0 
-4.3895 -3.776 -6.0445 -6.991 -8.6615 -7.6225 -6.1615 -7.4575 -5.932 -4.9205 -6.148 -5.1765 -3.5965 -6.1295 -4.903 -5.885 -6.189 -3.0785 
-8.748501 -6.0445 -9.633 -13.1974 -11.799 -10.4972 -9.357 -10.2618 -7.054 -10.9364 -6.148 -10.7175 -6.1295 -8.9515 -9.3695 -9.1335 -6.189 
-11.1904 -9.633 -16.1054 -16.3349 -14.6737 -13.6927 -12.2975 -11.3838 -13.1857 -10.9364 -12.8432 -13.2505 -8.9515 -13.6292 -13.0662 -9.1335 
-14.7789 -16.1054 -19.2429 -19.2096 -17.8692 -16.6332 -13.4195 -17.5155 -13.1857 -17.6316 -15.3762 -16.0725 -13.6292 -17.3259 -13.0662 
-5.1955 -4.154 -3.951 -1.7565 -3.7205 -1.934 -3.6065 -4.2915 0 -1.934 -3.6065 -4.088 -2.4265 -3.4635 -1.7695 -3.951 -3.2225 -2.7415 -4.49 -2.356 -1.4985 -3.0785 -1.7565 -3.818 -4.3725 -1.934 -3.5965 0 
-9.530001 -8.2735 -5.715 -6.06 -5.7775 -4.9755 -6.0305 -4.2915 -1.934 -4.9755 -6.106 -6.2585 -6.080501 -4.2045 -5.8875 -7.232 -7.0155 -6.625501 -6.6245 -3.1615 -4.779 -5.1815 -5.537 -5.274 -6.3075 -5.215 -3.5965 
-14.3763 -9.830001 -9.828001 -7.695001 -9.062 -6.6245 -6.0305 -5.985 -4.9755 -6.5865 -8.0015 -10.7667 -6.9115 -7.8915 -9.355 -11.8014 -11.2985 -8.368 -7.063 -5.297501 -5.2205 -9.137501 -6.918 -7.0665 -9.358001 -5.215 
-15.9328 -14.282 -11.463 -9.894001 -9.8485 -6.6245 -7.239 -8.601 -6.5865 -8.4805 -13.1897 -11.5977 -10.6335 -11.4952 -14.2642 -16.0844 -13.041 -8.9995 -9.557 -5.3145 -9.154 -10.9163 -9.439501 -10.4855 -9.358001 
-20.3848 -15.917 -13.662 -10.9537 -9.8485 -8.316 -9.064501 -10.259 -8.4805 -13.6797 -14.0207 -15.3197 -14.2372 -16.4044 -18.5472 -17.8269 -13.6725 -11.6217 -9.5815 -9.1975 -10.9716 -13.4378 -13.0147 -10.4855 
-3.4635 -2.4285 -5.0395 -4.1155 -1.7695 -3.335 -2.5685 -2.7455 -1.8085 -6.6545 -1.934 -2.664 -4.043 -3.5015 -3.2775 -2.5045 -3.4735 -2.7455 -1.8085 -6.6545 -1.756 -3.881 -3.9495 -2.7455 -4.0005 -6.6545 -1.934 -3.948 -4.088 
-6.619 -7.104001 -9.0035 -5.746 -4.5005 -4.648 -4.593 -4.4765 -7.9025 -8.755501 -4.0475 -6.5975 -6.854 -6.606 -3.678 -7.355 -5.9385 -4.4765 -7.9025 -8.4525 -5.5835 -7.582001 -6.314 -6.5655 -11.8472 -8.755501 -5.024 -6.41 
-12.2531 -10.396 -10.9548 -8.703501 -6.5035 -7.5775 -6.8655 -10.553 -9.354 -11.082 -8.005501 -8.913 -10.3545 -6.9475 -7.9815 -10.2385 -8.285501 -10.553 -9.4525 -12.6538 -8.6175 -9.72 -9.622 -14.9074 -13.9482 -12.0585 -6.745501 
-15.5451 -12.3473 -13.9123 -10.6735 -10.442 -9.901001 -13.0764 -12.0045 -11.9931 -15.04 -10.176 -12.5199 -10.5245 -11.6502 -11.134 -12.5855 -14.6564 -12.103 -13.8598 -15.6878 -10.9413 -13.373 -18.1495 -17.0084 -17.2512 -13.78 
-17.4964 -15.3048 -15.8823 -14.612 -12.7655 -16.2163 -14.5279 -14.6436 -15.9511 -17.2105 -13.7829 -12.6899 -15.2272 -14.8027 -13.481 -18.9564 -16.2064 -16.5103 -16.8938 -18.0116 -14.5943 -21.9005 -20.2505 -20.3114 -18.9727 
