-4.759 
n/a 
n/a 
n/a 
n/a 
-4.759 
n/a 
n/a 
n/a 
n/a 
-4.759 
n/a 
n/a 
n/a 
n/a 
-4.759 
n/a 
n/a 
n/a 
n/a 
-2.0935 -4.955 -3.284 -3.4005 -2.9805 -4.267 -1.4985 -3.5865 -2.5045 -5.237 -3.5865 
-6.033 -7.961 -5.8745 -6.4195 -8.381001 -6.655 -4.809 -5.957 -8.296 -7.876501 
-9.1885 -9.9455 -8.264 -12.3186 -9.663501 -10.3411 -7.059501 -12.4049 -8.979 
-11.3278 -12.4402 -14.3861 -13.6011 -13.3496 -12.5916 -14.164 -13.0879 
-13.8225 -18.5623 -15.6686 -17.2872 -15.6001 -19.6961 -14.847 
-3.2615 -3.332 -3.284 -3.4795 0 -1.934 -5.401 -2.9805 -3.918 -1.934 -1.4985 -5.237 -3.5865 -2.5045 -5.802 0 
-5.6715 -6.4355 -6.124001 -3.4795 -1.934 -6.603 -7.5685 -5.773 -6.013 -2.6125 -5.7115 -7.876501 -5.957 -7.652 -5.802 
-8.886001 -8.314501 -6.124001 -5.116 -6.603 -7.8395 -9.783 -7.337 -6.572001 -7.344501 -8.901001 -10.2985 -9.7465 -7.652 
-10.504 -8.314501 -7.3725 -10.275 -7.8395 -9.896001 -11.4222 -8.293501 -11.7248 -9.901001 -10.6875 -14.088 -9.7465 
-10.504 -9.458 -12.9331 -11.5115 -9.896001 -11.5272 -12.3787 -13.5395 -14.2813 -11.6875 -14.477 -14.088 
-4.4945 -3.091 -3.284 -3.833 -3.2615 -3.321 -1.4985 -3.158 -5.401 -4.7695 -5.237 -3.5865 -2.5045 -12.16972 0 
-6.371 -6.365 -7.354501 -7.2045 -7.0655 -4.481 -4.178 -8.271501 -10.7495 -10.688 -7.876501 -5.957 -15.36922 -12.16972 
-9.434501 -9.094501 -9.930501 -11.2923 -8.243 -8.0865 -8.553 -13.8682 -16.668 -10.712 -10.2985 -19.47812 -15.36922 
-10.7505 -12.0409 -14.0259 -12.4698 -11.9385 -12.8541 -14.2965 -19.7867 -16.692 -13.134 -23.81962 -19.47812 
-13.6969 -16.1363 -15.2034 -16.1653 -16.7061 -18.5976 -20.215 -19.8107 -19.114 -26.65512 -23.81962 
-2.9805 -4.968 -1.934 -5.237 -3.5865 0 -6.8505 -2.264 -5.401 -3.2615 -4.955 -3.091 -5.437 0 
-7.049 -5.302001 -8.4195 -7.876501 -3.5865 -6.8505 -9.692 -9.336 -8.4185 -5.794 -6.541501 -7.42 -5.437 
-7.3785 -12.7329 -9.555 -7.876501 -9.696001 -9.692 -16.764 -12.4225 -11.2292 -6.9385 -8.852 -7.42 
-15.1244 -13.8684 -9.555 -10.523 -12.5837 -16.764 -19.8505 -15.2332 -12.3737 -9.0135 -8.852 
-16.2599 -13.8684 -12.2127 -13.4107 -19.6557 -19.8505 -22.6612 -16.3777 -14.4487 -9.0135 
