-4.759 
n/a 
n/a 
n/a 
n/a 
-4.759 
n/a 
n/a 
n/a 
n/a 
-4.759 
n/a 
n/a 
n/a 
n/a 
-4.759 
n/a 
n/a 
n/a 
n/a 
-4.714 -4.6425 -3.4715 
-8.454 -5.203001 
-8.719001 
n/a 
n/a 
-5.9145 -3.4715 -1.756 -3.4715 -5.8495 
-7.0525 -4.7575 -4.8875 -6.6665 
-8.1555 -6.9095 -7.863501 
-10.1035 -9.846001 
-13.6382 
-4.714 -3.3365 -4.6425 -3.4715 -1.756 -4.373 -1.7565 -4.6425 -3.4715 
-8.461 -8.4795 -5.203001 -4.7575 -5.7175 -4.455 -5.9775 -5.203001 
-14.1418 -9.805 -6.357501 -8.360001 -5.7715 -8.339001 -6.278501 
-15.4673 -11.0393 -9.245001 -8.38 -9.512501 -8.389501 
-16.7016 -13.9268 -9.266001 -12.5246 -9.5415 
-4.714 -3.4715 -1.756 -5.167 -3.4715 
-6.776 -4.7575 -6.7685 -7.7205 
-7.974 -9.311001 -8.918501 
-12.7179 -10.675 
-14.0819 
