-4.759 
n/a 
n/a 
n/a 
n/a 
-4.759 
n/a 
n/a 
n/a 
n/a 
-4.759 
n/a 
n/a 
n/a 
n/a 
-4.759 
n/a 
n/a 
n/a 
n/a 
-2.264 -3.288 -8.158501 -4.185 -2.229 -6.716001 -4.7965 -5.9035 -3.366 -4.946 -5.3155 -1.934 -1.8085 -3.5015 -2.9325 -2.9805 -3.849 -2.5045 0 -3.6415 -3.934 0 0 -3.1495 -2.4945 -2.5685 -1.4985 -3.0835 -3.9535 -2.0935 -1.4985 -5.009 -3.2615 -1.4985 -5.59 -3.0835 -5.3155 -1.934 -3.8825 -3.676 0 
-4.5935 -10.96 -12.503 -6.103001 -8.913 -8.986501 -7.542 -6.3925 -6.028 -9.0875 -6.1435 -3.2685 -4.642 -6.416 -4.7735 -5.641 -6.305 -2.5045 -3.6415 -7.190001 -3.934 0 -3.1495 -4.459 -4.6335 -3.7015 -3.535 -7.885 -5.706 -2.9725 -6.4265 -8.177501 -4.032 -6.333 -8.0035 -7.585501 -6.1435 -6.4035 -8.252501 -3.676 
-10.2795 -14.0448 -14.7208 -13.5144 -11.4505 -9.463501 -7.772501 -6.399 -9.123 -9.516 -7.265 -5.982 -8.283501 -8.7605 -6.471 -8.427 -6.305 -6.768001 -7.190001 -7.190001 -3.934 -3.1495 -4.459 -5.958 -5.883 -6.95 -8.215 -9.828001 -6.5915 -8.3035 -9.399 -8.8135 -8.8 -8.783501 -9.5385 -8.1435 -9.449501 -10.1385 -8.252501 
-14.684 -16.512 -22.1322 -16.0519 -11.9275 -9.468 -7.7915 -9.134501 -9.531 -11.2689 -9.0495 -9.779 -10.7595 -10.494 -9.719501 -8.427 -10.4855 -9.762001 -7.190001 -7.190001 -7.579 -4.459 -5.958 -7.1305 -9.2255 -11.857 -10.2805 -10.65 -12.3177 -11.3332 -9.987 -13.6805 -11.5097 -10.2865 -10.08 -11.6091 -14.8787 -10.1385 
-16.803 -23.9234 -24.6697 -16.5289 -11.932 -9.486001 -9.406 -9.535 -11.3217 -13.0534 -13.1811 -12.2654 -12.493 -13.7425 -9.719501 -12.9849 -13.4795 -9.762001 -7.190001 -11.282 -8.607 -5.958 -7.1305 -10.218 -14.2015 -13.9225 -11.1025 -16.3762 -15.3474 -11.9212 -14.854 -16.3902 -13.0127 -10.8244 -13.5456 -17.0383 -14.8787 
-3.288 -2.341 0 -2.264 -5.8175 -4.185 -2.229 -5.329 -10.0425 -4.421 -2.9385 -9.3395 0 -3.6415 -1.934 -2.871 -3.5015 -2.9805 -4.4725 -3.091 -4.3665 0 -3.1495 -2.5685 -3.4775 -2.229 -3.4975 -3.982 -3.0835 -1.756 -3.0835 -4.3665 -4.4725 -3.321 -4.4825 -3.772 -3.682 -2.4945 -3.1495 -3.681 
-5.279 -2.341 -2.264 -9.517501 -10.2985 -6.103001 -6.4705 -16.3031 -14.5737 -8.2165 -12.4036 -9.3395 -3.6415 -6.638 -4.2805 -5.183 -6.182 -6.012 -6.314 -6.3425 -4.3665 -3.1495 -6.428 -6.042 -4.1725 -5.835 -6.8325 -8.057 -4.7735 -5.3535 -7.708 -8.897501 -8.258 -7.9945 -10.1345 -6.574 -5.2045 -5.377501 -5.1675 
-5.279 -5.295 -9.517501 -13.9985 -12.2165 -11.0719 -17.7426 -20.8343 -18.3692 -18.009 -12.4036 -13.0538 -6.638 -9.275001 -5.298 -7.811501 -9.22 -6.946 -8.905001 -6.3425 -7.836 -6.428 -10.3815 -6.211 -7.382 -9.456 -11.6951 -9.865001 -8.34 -10.3605 -12.6832 -12.8882 -13.1851 -13.9415 -12.9365 -9.190001 -8.887501 -7.3695 
-8.3475 -13.0377 -13.9985 -15.9165 -17.1854 -22.344 -22.2738 -24.6298 -28.1617 -18.009 -16.1179 -16.0503 -9.275001 -10.5257 -8.063001 -11.1033 -10.097 -9.638 -8.905001 -9.885 -11.3779 -10.3815 -10.8193 -10.8431 -11.6876 -14.5186 -13.5031 -13.3167 -13.7304 -15.3357 -16.6739 -17.8153 -19.1321 -16.7435 -15.5525 -14.0828 -11.0751 
-16.4244 -17.5187 -15.9165 -20.8854 -28.4575 -26.8752 -26.0693 -34.4223 -28.1617 -21.7233 -19.1144 -18.6873 -10.5257 -13.2907 -11.4712 -11.9803 -12.789 -9.638 -13.1345 -13.7367 -15.3314 -10.8193 -15.4514 -15.1487 -16.7502 -16.3266 -16.9548 -18.7071 -18.7056 -19.3264 -21.601 -23.7623 -21.9341 -19.3595 -20.4453 -16.2704 
-2.5045 -11.4465 0 -4.185 -5.329 -12.16972 -7.278501 -3.366 -4.946 -4.4725 -3.091 -4.3665 -1.934 -1.8085 -3.5015 -4.281 0 -3.6415 -3.934 0 -3.1495 -2.4945 -2.5685 -1.4985 -3.0835 -6.1895 -1.7565 -1.4985 -4.2925 -3.772 -1.7565 -5.59 -3.0835 -1.7565 -2.5685 -4.4725 -2.985 -4.3665 -1.934 -3.8825 -3.676 0 
-13.6945 -10.96 -4.185 -10.2485 -18.43032 -19.44822 -11.2371 -6.028 -9.828001 -6.314 -6.3425 -5.878 -3.2685 -4.642 -7.4805 -4.281 -3.6415 -7.190001 -3.934 -3.1495 -4.459 -4.6335 -3.7015 -3.535 -8.874001 -6.681 -2.4195 -5.2185 -7.0945 -5.153 -6.759501 -8.0035 -4.9645 -3.938 -7.425 -6.523001 -6.996 -5.878 -6.4035 -8.252501 -3.676 
-11.622 -14.0448 -10.2485 -23.58942 -25.70882 -23.40682 -13.8991 -10.757 -10.677 -8.905001 -7.2195 -7.1105 -5.982 -8.042 -7.4805 -7.9325 -7.190001 -7.190001 -7.579 -4.459 -5.958 -5.883 -6.95 -9.045501 -9.0795 -7.522 -6.249001 -8.544001 -8.676001 -9.901501 -9.9805 -10.001 -5.325 -9.458501 -8.7635 -9.309501 -7.6245 -9.854501 -10.1385 -8.252501 
-18.4696 -20.6575 -23.58942 -30.86792 -29.66742 -26.06882 -18.6281 -11.606 -13.268 -9.696 -8.402 -9.436001 -8.9945 -8.042 -10.2135 -9.962 -7.190001 -11.282 -8.607 -5.958 -7.1305 -9.2255 -12.6875 -9.214001 -9.727 -11.6845 -9.143001 -9.491001 -13.9483 -13.2163 -11.978 -10.009 -10.396 -10.7924 -11.7636 -10.8352 -12.4534 -13.9223 -10.1385 
-24.5331 -33.99842 -30.86792 -34.82652 -32.32942 -30.79782 -19.4771 -14.197 -14.059 -11.2411 -10.9703 -12.4543 -8.9945 -10.4505 -12.243 -9.962 -11.282 -12.31 -9.769001 -7.1305 -10.218 -15.032 -12.856 -9.834501 -13.8895 -14.5785 -10.5535 -14.9875 -17.2631 -15.2138 -11.986 -15.1648 -11.7299 -13.7925 -13.2893 -15.6641 -16.5212 -13.9223 
-7.846 -1.7565 -4.185 -5.3135 -1.934 -9.354501 -1.934 -3.288 -5.8175 -3.1495 -3.152 -2.5685 -4.4825 -3.2615 -5.59 -4.0555 -1.7695 -3.676 
-10.6095 -5.693 -9.828001 -6.257 -10.802 -10.802 -4.9715 -9.3995 -9.8785 -5.3825 -5.2465 -6.7505 -6.544 -8.71 -7.903 -4.7475 -5.5605 
-14.546 -10.304 -10.691 -16.1216 -12.2495 -13.8395 -9.967 -13.6587 -12.1115 -7.0125 -10.0643 -8.601501 -12.4423 -10.0745 -8.2685 -6.8015 
-19.157 -11.4398 -20.5556 -17.5691 -15.287 -18.835 -14.425 -15.8917 -13.7415 -12.0139 -11.9153 -14.643 -13.8068 -10.1735 -9.239 
-20.2928 -21.3044 -22.0031 -20.6066 -20.2825 -23.293 -16.658 -17.5217 -18.7429 -13.8649 -17.9568 -16.0075 -13.9058 -11.3884 
