-4.759 
n/a 
n/a 
n/a 
n/a 
-4.759 
n/a 
n/a 
n/a 
n/a 
-4.759 
n/a 
n/a 
n/a 
n/a 
-4.759 
n/a 
n/a 
n/a 
n/a 
-4.9335 -5.1845 -2.9805 -5.227 -1.934 -5.1645 0 -5.7865 0 -5.943501 0 -9.727 0 -4.3225 
-10.718 -8.553 -6.5845 -6.109 -6.5525 -5.1645 -5.7865 -5.7865 -5.943501 -5.943501 -9.727 -9.727 -4.3225 
-14.0865 -12.5582 -7.355 -9.573001 -6.5525 -7.655001 -5.7865 -7.4175 -5.943501 -10.7835 -9.727 -14.2507 
-18.0917 -13.3287 -10.9312 -9.573001 -9.243 -7.655001 -7.4175 -7.4175 -10.7835 -10.7835 -14.2507 
-18.8622 -16.9049 -10.9312 -10.405 -9.243 -8.650001 -7.4175 -13.6775 -10.7835 -15.3072 
-10.5675 -4.302 -2.3335 -5.1845 -5.1645 0 -5.7865 0 -5.943501 0 -9.727 0 -10.8905 -3.45 -4.2915 -3.074 -4.4695 0 
-15.7139 -5.5485 -8.1525 -7.822001 -5.1645 -5.7865 -5.7865 -5.943501 -5.943501 -9.727 -9.727 -10.8905 -14.3405 -7.0845 -7.37 -7.081 -4.4695 
-16.9604 -11.8851 -11.063 -7.822001 -7.655001 -5.7865 -7.4175 -5.943501 -10.7835 -9.727 -20.8187 -14.3405 -17.975 -9.76 -11.8354 -7.081 
-23.297 -14.7956 -11.063 -8.528501 -7.655001 -7.4175 -7.4175 -10.7835 -10.7835 -20.8187 -24.2687 -17.975 -20.6505 -14.2522 -11.8354 
-26.2075 -14.7956 -11.7695 -8.528501 -8.650001 -7.4175 -13.6775 -10.7835 -21.8752 -24.2687 -27.9032 -20.6505 -25.1427 -14.2522 
-5.995 -5.805501 0 -5.1845 0 -5.1645 0 -5.7865 0 -5.943501 0 -9.727 0 -5.7385 0 -4.609 -2.3615 -3.6885 -3.7805 
-8.413501 -5.805501 -5.1845 -5.1845 -5.1645 -5.1645 -5.7865 -5.7865 -5.943501 -5.943501 -9.727 -9.727 -5.7385 -5.7385 -4.609 -7.434501 -6.1155 -7.861501 
-8.413501 -10.281 -5.1845 -7.822001 -5.1645 -7.655001 -5.7865 -7.4175 -5.943501 -10.7835 -9.727 -15.6667 -5.7385 -11.4467 -7.434501 -11.7455 -11.0279 
-13.111 -10.281 -7.822001 -7.822001 -7.655001 -7.655001 -7.4175 -7.4175 -10.7835 -10.7835 -15.6667 -15.6667 -11.4467 -14.2722 -11.7455 -16.6579 
-13.111 -13.1617 -7.822001 -8.528501 -7.655001 -8.650001 -7.4175 -13.6775 -10.7835 -16.7232 -15.6667 -21.3749 -14.2722 -18.5832 -16.6579 
-9.0045 -2.8645 -5.227 -1.934 -3.849 -4.2915 -3.115 -5.1845 0 -5.1645 0 -5.7865 0 -5.943501 0 -9.727 0 -5.6305 0 
-12.1262 -6.4055 -6.109 -5.1105 -6.6425 -6.6435 -8.456 -5.1845 -5.1645 -5.1645 -5.7865 -5.7865 -5.943501 -5.943501 -9.727 -9.727 -5.6305 -5.6305 
-15.6672 -7.1095 -8.194 -6.884501 -9.342501 -9.238 -8.456 -7.822001 -5.1645 -7.655001 -5.7865 -7.4175 -5.943501 -10.7835 -9.727 -15.5587 -5.6305 
-16.3712 -8.741 -10.4508 -9.715 -12.0948 -9.238 -10.243 -7.822001 -7.655001 -7.655001 -7.4175 -7.4175 -10.7835 -10.7835 -15.5587 -15.5587 
-18.0027 -11.0686 -13.2813 -12.5187 -12.0948 -10.397 -10.243 -8.528501 -7.655001 -8.650001 -7.4175 -13.6775 -10.7835 -16.6152 -15.5587 
