-4.759 
n/a 
n/a 
n/a 
n/a 
-4.759 
n/a 
n/a 
n/a 
n/a 
-4.759 
n/a 
n/a 
n/a 
n/a 
-4.759 
n/a 
n/a 
n/a 
n/a 
-5.814 0 -8.445001 0 -6.423 -7.4175 0 -3.075 0 
-5.814 -8.445001 -8.445001 -6.423 -11.1415 -7.4175 -3.075 -3.075 
-15.2556 -8.445001 -15.5998 -11.1415 -11.1415 -9.409 -3.075 
-15.2556 -15.5998 -20.3183 -11.1415 -13.133 -9.409 
-22.4104 -20.3183 -20.3183 -13.133 -13.133 
-5.814 0 -12.16972 -7.5605 0 -3.075 -6.423 -5.655 -7.098001 
-5.814 -12.16972 -19.73022 -7.5605 -3.075 -7.9825 -10.523 -8.844501 
-18.98032 -19.73022 -19.73022 -10.214 -7.9825 -12.4047 -13.7125 
-26.54082 -19.73022 -22.38372 -15.1215 -12.4047 -15.5942 
-26.54082 -22.38372 -27.29122 -19.5437 -15.5942 
-5.814 0 -3.4155 -4.2245 -11.0235 0 -8.514 0 -10.0165 
-5.814 -3.4155 -6.626 -16.1038 -11.0235 -8.514 -8.514 -8.7795 
-9.892 -6.626 -19.0307 -16.1038 -19.5375 -8.514 -17.6535 
-13.6163 -19.0307 -19.0307 -24.6178 -19.5375 -17.6535 
-26.021 -19.0307 -27.5447 -24.6178 -28.677 
-5.814 0 -9.436501 -8.445001 0 -6.423 -7.395 0 -3.075 0 
-5.814 -9.436501 -9.657001 -8.445001 -6.423 -11.046 -7.395 -3.075 -3.075 
-16.2471 -9.657001 -9.657001 -15.5998 -11.046 -11.046 -9.111 -3.075 
-16.4676 -9.657001 -17.0648 -20.2228 -11.046 -12.762 -9.111 
-16.4676 -17.0648 -21.6878 -20.2228 -12.762 -12.762 
