-4.759 
n/a 
n/a 
n/a 
n/a 
-4.759 
n/a 
n/a 
n/a 
n/a 
-4.759 
n/a 
n/a 
n/a 
n/a 
-4.759 
n/a 
n/a 
n/a 
n/a 
-2.3345 -2.3615 -3.685 -9.841001 -4.0555 -3.325 -1.4985 -3.4985 -1.7565 -1.4985 -5.3745 -4.891 -1.7565 -5.1845 -6.844 
-4.499 -4.9725 -14.738 -13.9613 -6.2735 -3.898 -4.798 -4.622 -2.4195 -6.2355 -7.061501 -6.8725 -6.580501 -6.9655 
-6.156 -17.1903 -18.8583 -16.1793 -6.9505 -5.8625 -5.425 -5.215 -7.083001 -7.2945 -7.1715 -7.181 -7.1625 
-18.8522 -21.3106 -21.0763 -16.8563 -7.88 -5.8915 -5.920001 -9.530001 -8.000001 -7.3705 -7.185 -7.202001 
-22.9725 -23.5286 -21.7533 -17.7858 -7.8865 -6.2605 -9.610001 -9.5845 -8.0895 -7.3795 -7.2055 
-2.5195 -2.3615 -10.5065 -4.0555 -3.325 -3.222 -6.144 -3.4985 0 
-4.4095 -14.1562 -15.0278 -6.2735 -8.535 -8.91 -8.701 -3.4985 
-16.6234 -18.6775 -17.2458 -12.4251 -14.3776 -12.081 -8.701 
-21.1447 -20.8955 -23.3974 -18.2677 -17.5486 -12.081 
-23.3627 -27.0471 -29.24 -21.4387 -17.5486 
-2.356 -2.3615 -9.841001 -4.066 -3.325 -1.4985 -3.4985 -1.7565 -5.3745 -4.5845 
-4.2185 -13.4907 -13.9718 -6.5505 -3.898 -4.798 -4.622 -6.5 -9.233001 
-15.5707 -17.6215 -16.4563 -7.037 -5.8625 -5.425 -9.690001 -10.6095 
-19.7015 -20.106 -16.9428 -8.4865 -5.8915 -10.532 -14.4695 
-22.186 -20.5925 -18.3923 -8.4975 -10.543 -15.3115 
-3.3255 -2.3615 -9.841001 -4.0555 -3.325 -1.4985 -3.4985 -1.7565 -6.144 
-5.044001 -13.4907 -13.9613 -6.2735 -3.898 -4.798 -4.622 -7.7095 
-16.5572 -17.611 -16.1793 -6.9505 -5.8625 -5.425 -9.76 
-20.6775 -19.829 -16.8563 -7.88 -5.8915 -10.2175 
-22.8955 -20.506 -17.7858 -7.8865 -10.316 
