-4.759 
n/a 
n/a 
n/a 
n/a 
-4.759 
n/a 
n/a 
n/a 
n/a 
-4.759 
n/a 
n/a 
n/a 
n/a 
-4.759 
n/a 
n/a 
n/a 
n/a 
-4.241 -3.794 -2.7415 -4.4655 -3.458 -8.643001 -1.756 -6.144 -2.229 -2.4945 -3.9535 
-8.017 -5.690001 -5.5035 -6.761001 -12.8732 -10.038 -8.08 -7.4565 -5.159 -6.6715 
-9.76 -7.845 -7.342 -16.9584 -14.2682 -16.362 -9.734 -10.8313 -9.18 
-12.1936 -9.958501 -17.9592 -18.3534 -20.5922 -18.016 -13.1088 -14.8523 
-14.3071 -20.7767 -19.3542 -24.6774 -22.2462 -21.3908 -17.1298 
-4.891 -1.756 -6.899 -3.5435 -4.4635 -1.7695 -5.263 -3.898 -1.4985 -3.8275 -1.756 -3.584 -4.241 -4.431 
-6.593 -8.814001 -8.7615 -7.1155 -4.8765 -6.016 -6.269001 -5.762 -4.726 -5.1855 -4.9685 -8.231001 -6.247 
-14.3392 -10.7575 -12.5205 -7.296 -8.158 -8.139501 -7.832001 -8.899 -6.0755 -8.8015 -9.697001 -8.516001 
-16.2827 -14.5165 -12.701 -10.459 -9.6825 -9.56 -9.767 -10.5641 -9.4005 -13.7598 -9.955501 
-20.0417 -14.697 -15.864 -11.9835 -11.23 -11.495 -11.7315 -13.8891 -14.4174 -14.0183 
-1.4985 -6.1495 -4.0555 -1.7695 -3.498 -3.458 -6.144 -1.756 -4.628 -4.743 -3.5435 -1.756 -3.9535 -4.431 0 
-6.842 -8.837501 -4.7475 -4.8045 -7.516 -9.026501 -7.5045 -6.51 -4.7515 -7.819 -4.862 -5.4855 -8.133 -4.431 
-9.118501 -10.1075 -8.2075 -8.163501 -13.4113 -9.2015 -9.35 -6.654 -7.830501 -8.902 -9.011001 -9.67 -8.133 
-10.443 -14.0839 -12.0279 -14.5596 -13.5863 -10.148 -9.7255 -9.927501 -8.903001 -13.4976 -13.3477 -9.67 
-14.5272 -17.9043 -18.424 -14.7346 -14.5328 -10.7689 -10.6915 -11.0902 -13.4978 -17.8343 -13.3477 
-1.4985 -3.8275 -3.458 -5.3745 -1.7565 -4.891 -1.756 -6.899 -3.5435 -2.7415 -4.4725 -4.812 -1.756 -4.528 -4.431 -3.9535 
-4.726 -6.105 -8.892 -6.2675 -7.001501 -6.593 -8.814001 -8.7615 -5.902 -6.2095 -8.1225 -6.191 -5.7675 -9.639501 -8.2115 
-6.6875 -12.2416 -10.5645 -9.7705 -8.059 -14.3392 -10.7575 -11.307 -9.401501 -9.4785 -9.3655 -11.0133 -11.6756 -13.502 
-13.2183 -13.9141 -14.0675 -12.0894 -16.0888 -16.2827 -13.303 -14.8065 -12.8785 -10.544 -14.2904 -16.9214 -15.5381 
-14.8908 -17.4171 -16.3864 -20.1192 -18.0323 -18.8282 -16.8025 -18.2835 -13.944 -15.4689 -20.1985 -20.7839 
