-4.759 
n/a 
n/a 
n/a 
n/a 
-4.759 
n/a 
n/a 
n/a 
n/a 
-4.759 
n/a 
n/a 
n/a 
n/a 
-4.759 
n/a 
n/a 
n/a 
n/a 
-4.3955 -2.0935 -3.619 -4.2305 -5.007 
-6.151 -6.8025 -8.969501 -10.361 
-10.757 -12.571 -15.3794 
-16.5255 -18.9809 
-22.9354 
-4.524 -4.51 -4.306 -3.6205 0 
-7.553 -9.5425 -6.094501 -3.6205 
-13.3435 -11.4684 -6.094501 
-15.2694 -11.4684 
-15.2694 
-3.845 -1.7565 -5.007 -4.3955 -4.338 
-4.13 -7.312 -9.479 -9.111 
-8.329 -12.1986 -14.7675 
-13.6632 -17.4871 
-18.9517 
-4.524 -3.4155 -4.306 
-7.5975 -7.514 
-12.9772 
n/a 
n/a 
