-4.759 
n/a 
n/a 
n/a 
n/a 
-4.759 
n/a 
n/a 
n/a 
n/a 
-4.759 
n/a 
n/a 
n/a 
n/a 
-4.759 
n/a 
n/a 
n/a 
n/a 
-1.934 -2.3615 -4.3685 -2.7835 -2.925 -5.2725 0 -2.872 -2.4265 -4.1205 -2.5045 -1.4985 -3.4155 -4.293 -1.7565 -4.3105 0 
-3.539 -6.3675 -7.217501 -4.2715 -7.0965 -5.2725 -2.872 -4.062 -6.712501 -5.3175 -3.583 -4.4155 -6.838 -5.421 -5.761001 -4.3105 
-7.068501 -8.533501 -8.505 -9.491 -7.0965 -7.4545 -4.062 -9.184501 -7.9055 -6.431 -6.439 -8.323501 -8.415501 -9.4525 -5.761001 
-9.101501 -9.81 -13.7453 -9.491 -10.2925 -8.694 -9.184501 -10.7005 -9.601501 -9.4095 -10.5276 -8.9445 -12.7626 -9.4525 
-10.6215 -15.2045 -13.7453 -12.7628 -11.532 -13.9941 -10.7005 -12.3965 -12.6634 -13.5475 -11.1486 -13.493 -12.7626 
-3.929 -2.925 -3.152 -5.2725 0 -2.4265 -4.822 -1.4985 -4.4755 -1.7565 -1.4985 -5.6025 
-5.321 -4.203 -6.7755 -5.2725 -2.4265 -7.8695 -6.9095 -6.114 -5.1495 -2.4195 -6.838 
-6.269 -7.556001 -6.7755 -7.5385 -7.8695 -8.977 -11.8816 -6.397001 -5.6055 -8.007 
-9.605 -7.556001 -9.0305 -13.2967 -8.977 -14.0089 -12.1646 -6.910001 -11.922 
-9.605 -9.8715 -15.2897 -14.4042 -14.0089 -14.2919 -12.6776 -13.2855 
-3.4765 -3.929 -2.925 -2.674 -3.1125 -5.2725 -1.934 -1.4985 -3.8275 0 -2.3615 -4.688 -2.7415 -4.1205 -2.5045 -3.17 -1.7565 -1.4985 -5.6025 -2.5045 -1.4985 -4.1735 -3.4225 -5.0665 -3.685 0 
-4.589 -5.321 -4.1785 -3.6315 -6.892 -6.51 -2.6125 -4.726 -3.8275 -2.3615 -6.132 -6.512 -5.631001 -5.3175 -5.6 -4.179 -2.4195 -6.838 -7.73 -3.583 -4.445 -8.022 -8.498501 -7.5425 -3.685 
-5.713 -6.5235 -5.2205 -7.4925 -7.638 -7.0635 -5.815001 -4.726 -6.413 -6.132 -7.451 -9.189 -6.993001 -8.474 -6.159 -4.497 -8.007 -8.9175 -8.822001 -6.3655 -8.278501 -13.571 -11.9445 -7.5425 
-6.8335 -7.462 -8.698501 -8.387501 -8.2465 -8.974501 -5.815001 -7.218 -9.625501 -7.451 -10.1 -10.7605 -9.9075 -9.961 -6.555501 -9.39 -9.9925 -9.8585 -11.7111 -10.1905 -13.7253 -17.017 -11.9445 
-7.803 -10.138 -9.620001 -8.925 -9.861 -8.974501 -8.2235 -10.1465 -10.2715 -10.1 -11.7875 -13.675 -11.3945 -10.111 -11.5145 -11.6445 -10.9335 -12.7476 -15.5361 -15.6129 -17.1713 -17.017 
-3.4765 -3.929 -2.925 -3.152 -5.2725 -1.934 -2.3335 -3.8275 0 -2.4265 -2.7415 -4.1205 -2.5045 -3.4075 -4.6225 -2.3345 -1.4985 -3.17 -1.7565 -1.4985 -5.6025 
-4.589 -5.321 -4.203 -6.7755 -6.51 -4.359 -6.321 -3.8275 -2.4265 -3.681 -5.631001 -5.3175 -6.094501 -7.894001 -6.577001 -3.233 -3.7115 -4.179 -2.4195 -6.838 
-5.713 -6.269 -7.556001 -7.576 -8.783 -7.367001 -6.321 -6.171 -3.681 -6.542 -6.993001 -8.9345 -10.404 -10.078 -7.808001 -6.1705 -5.2885 -4.497 -8.007 
-6.775001 -9.605 -8.368501 -9.7465 -10.218 -7.367001 -8.446501 -6.8665 -6.542 -8.16 -10.915 -13.3212 -13.1358 -10.739 -11.1615 -8.7145 -5.8975 -9.39 
-10.1895 -10.428 -10.389 -10.6115 -10.218 -9.115001 -9.063001 -9.401501 -8.16 -12.2114 -15.3017 -16.053 -13.7968 -14.0925 -13.7055 -9.0325 -11.4923 
