-4.759 
n/a 
n/a 
n/a 
n/a 
-4.759 
n/a 
n/a 
n/a 
n/a 
-4.759 
n/a 
n/a 
n/a 
n/a 
-4.759 
n/a 
n/a 
n/a 
n/a 
-12.16972 -9.190001 -12.16972 -2.7415 -5.7745 -2.3345 -8.017 
-21.35972 -21.50232 -14.91122 -7.099501 -6.797 -10.096 
-33.67204 -24.24382 -19.26922 -7.6635 -15.5255 
-36.41354 -28.60182 -19.83322 -16.7122 
-40.77154 -29.16582 -28.88192 
-9.1645 -9.190001 -10.036 -2.7415 -5.392 -2.3345 -9.9215 -8.017 
-19.3607 -19.3686 -13.3503 -7.1005 -6.196 -12.5866 -18.1011 
-29.5393 -22.6829 -17.7093 -7.545001 -17.0389 -20.7662 
-32.8536 -27.0419 -18.1538 -18.5263 -25.2185 
-37.2126 -27.4864 -29.1351 -26.7059 
-9.9215 -8.017 -5.355 -9.1645 -9.968 -12.16972 
-18.1011 -13.7456 -15.4441 -20.1387 -22.33852 
-23.8297 -23.8347 -26.4183 -32.50922 
-33.9188 -34.8089 -38.78882 
-44.893 -47.17942 
-9.1645 -6.554 -8.619 0 -3.7825 -4.6945 -4.9635 -4.1455 0 -2.7415 -5.392 -2.3345 -7.719 -8.5845 0 
-9.391 -8.786 -8.619 -3.7825 -6.512 -9.212501 -8.43 -4.1455 -2.7415 -7.1005 -6.196 -10.01 -16.9967 -8.5845 
-10.069 -8.786 -12.9151 -6.512 -10.586 -13.4504 -8.43 -7.2415 -7.1005 -7.545001 -14.4623 -19.2877 -16.9967 
-10.069 -13.3237 -15.6446 -10.586 -14.8239 -13.4504 -12.017 -9.836 -7.545001 -15.9497 -23.74 -19.2877 
-14.6067 -16.0532 -19.7186 -14.8239 -14.8239 -17.0374 -14.6115 -10.2315 -15.9497 -25.2274 -23.74 
