-4.759 
n/a 
n/a 
n/a 
n/a 
-4.759 
n/a 
n/a 
n/a 
n/a 
-4.759 
n/a 
n/a 
n/a 
n/a 
-4.759 
n/a 
n/a 
n/a 
n/a 
-3.321 -1.4985 -3.757 -11.538 -5.3425 -1.4985 -4.432 -4.328 -11.165 -11.0555 -1.756 -3.091 -4.373 -3.851 -1.7695 -2.985 -4.3005 -4.0445 -1.7695 -1.4985 -5.3745 -4.891 
-4.481 -4.5435 -12.131 -15.3055 -6.9215 -5.268001 -4.899 -11.812 -20.5906 -12.8115 -4.2995 -6.539001 -8.665501 -4.0015 -4.281 -7.159 -7.7495 -4.6 -2.7955 -6.2355 -7.061501 
-7.4915 -11.2845 -16.4615 -17.1095 -10.2925 -5.504 -9.8015 -21.696 -22.83 -15.355 -7.7755 -10.3745 -8.6905 -5.744 -8.587501 -10.096 -8.062501 -5.554501 -7.613 -7.2945 
-14.6923 -17.8948 -18.1839 -20.4805 -10.32 -9.729 -22.3593 -24.1158 -25.3735 -18.831 -11.6166 -10.393 -10.2875 -9.0525 -10.7595 -10.5354 -9.278501 -10.275 -8.8475 
-21.1162 -19.4738 -21.5549 -20.508 -14.721 -22.9003 -24.1153 -26.6593 -28.8495 -22.6721 -11.6351 -11.99 -13.596 -11.5219 -11.1989 -11.7514 -14.0842 -11.4657 
-1.4985 -3.321 -3.757 -7.1975 0 -5.246 -4.628 -5.939 -4.432 -4.328 -7.424 -12.16972 -1.756 -3.091 -3.5435 -5.148 -2.3335 -2.925 -2.4945 -3.4635 -4.3005 -4.0445 -4.33 -6.144 0 
-5.696501 -6.654 -7.8795 -7.1975 -5.246 -9.9135 -5.9615 -8.4925 -4.899 -8.33 -20.38632 -13.92572 -4.2995 -6.2165 -8.239 -5.4785 -4.0295 -3.7675 -6.1285 -8.288501 -7.7495 -6.656501 -9.524501 -6.144 
-7.537001 -9.6925 -7.8795 -13.1565 -9.9135 -11.148 -8.503 -8.5 -8.333 -22.35872 -22.14232 -16.46922 -7.165501 -10.3745 -8.3985 -6.782001 -4.811 -7.134 -11.6459 -12.1819 -9.522501 -12.053 -9.524501 
-10.1145 -9.6925 -14.9813 -17.824 -11.148 -13.6895 -8.509501 -9.393001 -22.38112 -24.11472 -24.68582 -19.33522 -11.4227 -10.415 -9.72 -7.57 -7.935 -13.0408 -15.5393 -13.9549 -14.998 -12.053 
-10.1145 -16.5367 -19.6488 -19.0585 -13.6895 -13.696 -9.3935 -23.40232 -24.13712 -26.65822 -27.55182 -23.59242 -11.4632 -11.7365 -10.6765 -10.485 -13.9174 -16.9342 -17.3123 -19.4304 -14.998 
-6.899 -3.757 -7.1975 0 -6.899 -4.432 -4.328 -7.424 -7.7005 -1.756 -3.1435 -3.5435 -4.3895 -4.3005 -4.3905 -1.7565 -5.3745 -4.5845 
-9.830501 -7.8795 -7.1975 -6.899 -10.575 -4.899 -8.33 -8.303 -9.111 -4.1365 -6.6385 -7.942 -9.8655 -8.538 -5.3895 -6.5 -9.233001 
-13.953 -7.8795 -14.8095 -10.575 -10.64 -8.333 -9.134001 -9.492001 -11.7019 -7.49 -11.4802 -13.636 -14.26 -8.994 -10.8388 -10.6095 
-13.953 -16.6343 -18.4855 -10.64 -14.074 -9.1405 -9.990001 -12.2125 -15.0554 -12.5447 -17.1742 -18.0305 -14.716 -15.1231 -14.9483 
-22.7078 -20.3103 -18.5505 -14.074 -14.8815 -9.9925 -12.7739 -15.566 -20.1101 -18.2387 -21.5687 -18.4865 -20.8451 -19.2326 
-5.3745 -4.891 -1.7565 -5.1845 -6.844 
-7.061501 -6.8725 -6.580501 -6.9655 
-7.1715 -7.181 -7.1625 
-7.185 -7.202001 
-7.2055 
