-4.759 
n/a 
n/a 
n/a 
n/a 
-4.759 
n/a 
n/a 
n/a 
n/a 
-4.759 
n/a 
n/a 
n/a 
n/a 
-4.759 
n/a 
n/a 
n/a 
n/a 
-2.9805 -3.998 -2.3335 -4.948 -8.410001 -1.756 -1.4985 -4.764 -4.2815 -2.264 -5.2615 -3.355 0 -5.7765 -1.7565 -1.4985 -5.362 -1.934 -3.1205 -3.959 
-5.516 -5.1075 -7.4835 -14.7624 -10.4855 -3.0405 -6.0035 -10.0255 -6.677001 -7.322001 -8.8785 -3.355 -5.7765 -8.597 -2.4195 -6.038501 -6.478001 -5.933 -6.991 
-6.5625 -10.022 -17.3975 -16.8379 -11.77 -7.678 -11.7878 -12.421 -12.4444 -11.871 -8.8785 -9.753501 -8.597 -9.627001 -6.827001 -8.619501 -11.103 -7.3925 
-11.664 -19.936 -19.473 -18.1224 -16.4075 -13.5707 -14.1833 -18.1884 -16.9934 -11.871 -15.5162 -12.7342 -9.627001 -14.0345 -9.403501 -13.4213 -12.5625 
-21.578 -22.0115 -20.7575 -22.7599 -22.3002 -15.9662 -19.9507 -22.7374 -16.9934 -18.5087 -18.4969 -13.7642 -14.0345 -16.611 -14.1987 -14.8808 
-2.9805 -4.1205 -2.3335 -2.9805 -5.333 -5.715 0 -1.4985 -4.4905 -2.3335 -4.2815 -3.251 -3.2295 -1.4985 -5.9195 -3.4425 0 -5.4905 -1.4985 -5.362 -1.7565 -3.1205 -3.948 -3.959 0 
-6.367001 -5.9915 -4.1515 -9.889501 -8.3535 -5.715 -1.4985 -5.2295 -7.276501 -6.4655 -7.1175 -6.2215 -3.844 -6.6125 -8.298 -3.4425 -5.4905 -6.917001 -6.038501 -5.843 -5.386 -7.8005 -6.288 -3.959 
-7.4795 -7.855 -11.8345 -12.91 -8.3535 -7.119 -5.2295 -7.8885 -11.6961 -7.9015 -10.054 -7.0165 -8.996 -8.5495 -8.298 -8.16 -6.917001 -10.575 -6.073501 -9.972001 -9.8985 -10.66 -6.288 
-8.677501 -16.02 -14.855 -12.91 -9.734501 -10.634 -7.8885 -12.5207 -13.1321 -10.5635 -10.849 -12.6881 -10.4595 -8.5495 -13.2255 -10.022 -10.575 -10.628 -10.3563 -15.2701 -12.758 -10.66 
-17.1979 -19.0405 -14.855 -14.291 -13.3001 -13.3702 -12.5207 -13.9567 -15.7941 -11.3585 -16.5206 -14.1516 -10.4595 -13.552 -15.0875 -13.68 -10.628 -14.9108 -15.6544 -18.1296 -12.758 
-4.87 -5.8475 0 -4.2815 -9.52 -3.892 -3.0105 -4.4905 0 -2.186 -4.031 -2.0935 -4.8475 -1.7565 -3.1205 -3.948 -3.959 -1.934 -3.9725 -4.1 0 
-10.2815 -5.8475 -4.2815 -14.7485 -13.4914 -6.853001 -6.71 -4.4905 -2.186 -6.427 -4.8935 -7.6895 -5.6715 -5.386 -7.8005 -6.288 -5.2625 -6.156 -8.7675 -4.1 
-10.2815 -9.557 -14.7485 -18.7199 -16.4524 -10.7717 -6.71 -5.534 -6.427 -7.397501 -9.673 -8.5675 -10.2804 -9.8985 -10.66 -7.429501 -10.6477 -11.9928 -8.7675 
-13.991 -20.1476 -18.7199 -21.6809 -20.3711 -10.7717 -8.5315 -11.013 -7.397501 -12.5588 -10.018 -13.1666 -14.7929 -12.758 -11.8015 -13.1151 -16.4845 -11.9928 
-24.5816 -24.119 -21.6809 -25.5996 -20.3711 -12.5932 -14.0105 -11.9835 -12.5588 -12.9038 -14.6907 -17.6791 -17.6524 -13.8995 -17.4871 -18.9519 -16.4845 
-2.9805 -3.998 -2.3335 -1.4985 -5.715 -1.7565 -12.16972 -1.756 -1.4985 -4.2665 -1.7565 -6.996 -2.9705 -3.152 -3.4635 -1.7695 -9.52 -3.355 -3.152 -6.1245 -1.4985 -10.1695 -2.9705 -3.9285 -3.1205 -3.6065 -3.59 -5.2835 0 
-5.516 -5.1075 -3.3515 -7.76 -7.628 -14.87542 -13.92572 -3.0405 -5.418 -5.402 -8.619 -10.1035 -5.007 -6.421 -4.2045 -12.2717 -12.9544 -7.151 -8.8795 -8.2915 -12.7618 -13.3902 -5.636001 -7.5605 -7.0995 -6.693501 -9.023001 -5.2835 
-6.5625 -5.9775 -9.3365 -8.208 -21.16632 -16.63142 -15.21022 -7.0155 -5.742 -12.9441 -12.6711 -12.781 -7.965001 -6.5185 -15.0207 -15.7061 -16.7504 -12.9833 -10.0925 -19.6474 -15.9825 -16.0557 -8.905001 -10.007 -10.4239 -12.7051 -9.023001 
-7.3385 -12.0589 -9.727 -21.84892 -22.92232 -17.91592 -19.18522 -7.3485 -13.4315 -16.9962 -15.3486 -15.739 -8.008501 -17.5091 -18.4551 -19.5021 -22.5827 -14.1963 -21.5622 -22.8681 -18.648 -19.3247 -11.4151 -13.424 -16.4355 -12.7051 
-13.5365 -12.4494 -23.40852 -23.60492 -24.20682 -21.89092 -19.51822 -15.2496 -17.4836 -19.6737 -18.3066 -15.7825 -19.0853 -20.9435 -22.2511 -25.3344 -23.7957 -25.666 -24.7829 -25.5336 -21.917 -21.8348 -14.8321 -19.4356 -16.4355 
