-4.759 
n/a 
n/a 
n/a 
n/a 
-4.759 
n/a 
n/a 
n/a 
n/a 
-4.759 
n/a 
n/a 
n/a 
n/a 
-4.759 
n/a 
n/a 
n/a 
n/a 
-1.4985 -3.098 -3.8735 -2.186 -4.6365 -2.5195 -1.4985 -3.098 -1.7565 -1.4985 -3.9075 -7.112 
-4.3095 -7.46 -5.949 -5.5835 -4.8875 -3.1695 -4.3095 -4.3615 -2.4195 -4.9185 -9.156 
-9.001 -9.5225 -9.469 -5.712501 -5.375 -6.545 -4.5915 -4.731 -5.650001 -9.353001 
-9.648001 -9.7845 -9.497001 -6.0795 -7.685501 -6.794 -4.858 -7.9885 -9.7845 
-9.8035 -9.7965 -9.732 -8.0635 -7.790501 -7.272 -8.082001 -12.456 
-1.4985 -3.098 0 -3.8735 -2.186 -4.6365 -2.5195 -1.4985 -3.098 -1.7565 -3.9075 -8.130501 
-4.3095 -3.098 -3.8735 -5.949 -5.5835 -4.8875 -3.1695 -4.3095 -4.3615 -6.106 -10.674 
-4.3095 -7.46 -5.949 -9.469 -5.712501 -5.375 -6.545 -4.5915 -8.6455 -13.5409 
-9.001 -9.5225 -9.469 -9.497001 -6.0795 -7.685501 -6.794 -9.334001 -16.258 
-9.648001 -9.7845 -9.497001 -9.732 -8.0635 -7.790501 -10.532 -16.9659 
-1.4985 -3.098 -3.8735 -2.186 -3.849 -2.5195 -1.4985 -3.9075 -1.4985 -7.112 
-4.3095 -7.46 -5.949 -4.8565 -6.012 -3.1695 -4.9185 -5.781 -8.5675 
-9.001 -9.5225 -8.973001 -6.8675 -6.6905 -6.4485 -6.4515 -13.1854 
-9.648001 -12.9073 -11.0054 -7.423 -9.703 -7.9035 -13.9997 
-13.2096 -14.9397 -11.5609 -10.6989 -11.1972 -15.5229 
-1.4985 -3.098 -3.8735 -2.186 -4.3155 -2.5195 -3.9075 -7.112 
-4.3095 -7.46 -5.949 -5.5135 -6.4775 -6.8745 -9.156 
-9.001 -9.5225 -9.856501 -8.005 -11.4039 -12.7308 
-9.648001 -13.7908 -12.1254 -13.1356 -17.2602 
-14.0931 -16.0597 -17.256 -18.9919 
