-4.759 
n/a 
n/a 
n/a 
n/a 
-4.759 
n/a 
n/a 
n/a 
n/a 
-4.759 
n/a 
n/a 
n/a 
n/a 
-4.759 
n/a 
n/a 
n/a 
n/a 
0 -7.5605 -2.186 -2.857 -4.2245 0 -4.649 -2.186 -3.527 0 0 -2.9505 0 
-7.5605 -10.329 -4.678 -7.465 -4.2245 -4.649 -7.0085 -7.796 -3.527 0 -2.9505 -2.9505 
-10.329 -12.821 -8.939501 -7.465 -8.3025 -7.0085 -13.0267 -7.796 -3.527 -2.9505 -2.9505 
-12.821 -17.0825 -8.939501 -11.8472 -10.31 -13.0267 -13.0267 -7.796 -7.314 -2.9505 
-17.0825 -17.0825 -13.5257 -13.8547 -16.3282 -13.0267 -13.0267 -12.0646 -7.314 
-8.445001 -2.186 -1.8085 -4.2245 -4.649 -2.186 -2.857 -7.3985 0 0 -2.8635 
-11.3628 -3.164 -5.274 -8.3025 -7.0085 -4.678 -10.958 -7.3985 0 -2.8635 
-12.3408 -6.0845 -10.513 -10.31 -9.3835 -13.3996 -10.958 -7.3985 -2.8635 
-15.2613 -12.2481 -12.5205 -12.685 -18.1979 -13.3996 -10.958 -10.238 
-21.4249 -14.2556 -14.8955 -21.4994 -18.1979 -13.3996 -13.7975 
-8.445001 -2.186 -2.857 -3.8385 0 -4.649 -2.186 -2.857 -4.2245 0 
-11.3628 -4.678 -5.191 -3.8385 -4.649 -7.0085 -4.678 -7.465 -4.2245 
-13.8548 -8.029501 -5.191 -8.5085 -7.0085 -9.3835 -8.939501 -7.465 
-17.2063 -8.029501 -9.417001 -11.2644 -9.3835 -13.7378 -8.939501 
-17.2063 -12.5271 -12.6773 -13.6394 -13.7378 -13.7378 
-8.445001 -2.186 -2.857 -4.2245 0 -4.649 -2.186 -2.857 -6.3905 
-11.3628 -4.678 -7.465 -4.2245 -4.649 -7.0085 -4.678 -10.846 
-13.8548 -8.939501 -7.465 -8.3025 -7.0085 -9.3835 -13.041 
-18.1163 -8.939501 -11.8472 -10.31 -9.3835 -18.2019 
-18.1163 -13.5257 -13.8547 -12.685 -18.2019 
