-4.759 
n/a 
n/a 
n/a 
n/a 
-4.759 
n/a 
n/a 
n/a 
n/a 
-4.759 
n/a 
n/a 
n/a 
n/a 
-4.759 
n/a 
n/a 
n/a 
n/a 
-8.679501 -2.742 -3.6645 -1.934 -5.7655 -2.8195 -4.179 
-12.4893 -6.266 -5.209001 -6.9425 -8.1945 -7.604501 
-16.0133 -7.813 -10.8669 -8.877001 -13.3761 
-17.5603 -13.9193 -12.8014 -14.2274 
-23.6666 -15.8538 -18.1518 
-3.098 -2.341 0 -1.7565 -3.5385 -4.8465 -2.5195 -2.8195 0 
-5.324 -2.341 -1.7565 -4.808 -7.9125 -7.1785 -5.02 -2.8195 
-5.324 -4.511 -4.808 -8.931001 -9.867001 -9.070001 -5.02 
-6.8355 -8.023001 -8.931001 -10.9385 -11.9521 -9.070001 
-9.1885 -12.437 -10.9385 -13.0236 -11.9521 
-2.341 0 -1.7565 -5.7725 -2.4945 -4.9135 -1.934 -3.091 -3.9775 -7.768001 
-2.341 -1.7565 -8.0135 -8.56 -6.297501 -6.1235 -4.2105 -7.75 -12.9623 
-4.511 -8.0135 -10.3285 -12.5836 -7.5275 -8.829 -9.022 -17.185 
-11.7012 -10.3285 -14.5499 -13.8136 -10.688 -13.9241 -18.4508 
-14.0162 -14.5499 -15.7799 -16.9741 -15.7831 -23.3529 
-4.347 -2.645 -3.1575 -2.341 0 -1.7565 -5.1475 -2.742 -4.8465 -1.934 -3.545 
-8.007501 -3.72 -5.1825 -2.341 -1.7565 -7.147501 -9.283501 -9.2235 -5.823 -5.0155 
-8.476001 -5.4515 -5.1825 -4.511 -7.147501 -11.6115 -15.8434 -10.3825 -10.1035 
-10.031 -5.4515 -6.864 -10.8352 -11.6115 -18.1714 -17.0024 -14.663 
-10.031 -7.514501 -13.5112 -15.2992 -18.1714 -19.3304 -21.2829 
