-4.759 
n/a 
n/a 
n/a 
n/a 
-4.759 
n/a 
n/a 
n/a 
n/a 
-4.759 
n/a 
n/a 
n/a 
n/a 
-4.759 
n/a 
n/a 
n/a 
n/a 
-2.871 -3.193 -4.0085 -4.26 -7.009 -1.756 -4.066 -3.091 -3.6955 -2.5045 -4.0575 -2.461 -2.9965 0 -4.392 0 -2.3335 -2.95 -3.098 -4.0355 -3.3785 -7.009 -3.3435 -1.756 -4.126 
-4.715 -7.4255 -8.631001 -12.5184 -8.330501 -5.826 -7.5885 -7.599 -5.986 -7.226001 -7.0235 -5.437 -2.9965 -4.392 -4.392 -2.3335 -4.8245 -5.819 -7.5255 -6.8785 -10.7665 -11.0885 -4.576 -6.1785 
-8.908001 -12.4604 -17.0756 -13.8399 -12.8509 -10.238 -12.5279 -10.733 -10.3955 -10.0505 -9.889001 -5.437 -5.422 -4.392 -6.679 -4.8245 -7.4785 -10.0925 -9.856501 -14.8597 -14.846 -12.321 -9.459001 
-14.3801 -20.905 -18.3971 -18.3603 -17.2629 -15.1774 -15.6619 -15.1425 -13.22 -13.026 -9.889001 -6.7705 -5.422 -6.679 -9.908501 -7.4785 -12.0518 -12.4235 -18.0197 -18.9392 -16.0785 -17.204 
-22.8247 -22.2265 -22.9175 -22.7723 -22.2023 -18.3114 -20.0714 -17.967 -16.1955 -13.026 -9.921 -6.7705 -7.4505 -9.908501 -12.5625 -12.0518 -14.3828 -20.5867 -22.0992 -20.1717 -20.9615 
-2.871 -3.193 0 -4.0085 -3.152 -4.8845 -1.4985 -7.699501 -3.8315 -4.0575 -5.4575 -4.392 
-4.715 -3.193 -4.0085 -6.2035 -7.0295 -6.192 -10.335 -12.1126 -5.656 -9.9995 -7.8625 
-4.715 -7.4255 -6.2035 -10.442 -8.654 -15.7237 -14.7481 -13.9371 -11.7415 -11.2225 
-8.908001 -9.304 -10.442 -12.0665 -18.3821 -20.1368 -16.5726 -20.1682 -11.9191 
-10.622 -13.6915 -12.0665 -21.7946 -22.7952 -21.9613 -22.8037 -20.2002 
-2.925 -4.0555 -1.7695 -3.3785 0 -3.034 -4.0085 -4.0555 -1.7695 -2.8195 -2.264 -3.8315 -4.0575 -9.189501 
-5.4845 -4.7475 -4.1685 -3.3785 -3.034 -6.6875 -7.2255 -4.7475 -5.102 -5.362 -6.062 -5.656 -12.39 
-6.1675 -6.7225 -4.1685 -5.278501 -6.6875 -8.672501 -7.789001 -8.803 -7.772501 -9.910501 -8.002001 -14.7913 
-8.154501 -6.7225 -5.992001 -9.7515 -8.672501 -9.005501 -12.3491 -11.6769 -12.6024 -11.8505 -17.6945 
-8.154501 -9.328501 -10.3275 -11.8543 -9.005501 -13.8538 -15.223 -16.5068 -14.5424 -21.543 
-2.925 -4.816 -2.7455 -3.595 -3.034 -4.0085 -4.0555 -4.5385 -2.0935 -7.699501 -3.8315 -4.0575 -2.461 -7.3885 
-6.625 -7.298 -5.5125 -5.7795 -6.6875 -7.2255 -8.666 -4.9375 -9.848501 -12.1126 -5.656 -7.0235 -7.8625 
-8.977501 -9.967001 -7.5845 -9.279001 -8.672501 -10.702 -8.822001 -13.1631 -14.3376 -13.9371 -8.876 -11.2225 
-11.6701 -12.039 -11.23 -11.3686 -12.487 -10.858 -17.2558 -17.6522 -16.1621 -17.1571 -11.9191 
-13.7421 -15.6845 -13.3196 -15.1831 -12.643 -19.2918 -21.7449 -19.4767 -19.3821 -20.2002 
