-4.759 
n/a 
n/a 
n/a 
n/a 
-4.759 
n/a 
n/a 
n/a 
n/a 
-4.759 
n/a 
n/a 
n/a 
n/a 
-4.759 
n/a 
n/a 
n/a 
n/a 
-1.934 -3.595 -2.229 -4.1035 -2.9805 -4.1585 -2.9805 -3.251 -3.918 -1.4985 -3.8055 -2.5195 -3.3935 -4.794 -3.45 -3.0695 -3.251 -4.0385 -2.645 -3.321 -3.533 -4.0145 -1.7565 -3.6065 -4.7095 0 -1.756 -1.4985 -3.695 -1.7565 -3.595 0 
-5.6255 -7.2165 -6.234 -7.531001 -5.319 -6.481501 -4.429 -6.5585 -5.135 -5.862 -5.5255 -5.7625 -8.463 -8.415501 -4.273 -4.7295 -7.9335 -7.007501 -5.660501 -8.029501 -7.974501 -5.004 -4.8305 -8.0415 -4.7095 -1.756 -3.0405 -5.061501 -5.01 -5.161 -3.595 
-9.188001 -11.7805 -8.863001 -9.8225 -8.407001 -7.5395 -7.5375 -6.9275 -10.2805 -7.837 -10.3165 -11.603 -12.3721 -9.0105 -5.9945 -9.622001 -10.4945 -9.637501 -8.474501 -12.795 -9.073501 -7.8145 -9.1315 -8.0415 -6.261001 -3.0405 -6.404 -5.4985 -8.452001 -5.161 
-13.936 -14.4095 -11.2061 -12.9061 -9.4115 -10.6735 -7.850501 -12.218 -12.5999 -12.8872 -16.157 -15.5121 -12.9671 -10.8618 -11.0818 -12.2444 -13.1245 -12.5717 -13.4466 -13.894 -12.0458 -12.3675 -9.1315 -9.171 -7.4795 -6.404 -6.835 -9.5795 -8.452001 
-16.565 -16.7526 -14.2897 -13.9106 -12.7061 -10.9865 -13.2508 -14.5374 -17.6501 -18.7277 -20.0661 -16.1071 -14.8184 -15.9491 -13.7042 -14.8744 -16.0587 -17.5438 -14.5456 -16.8663 -16.5988 -12.3675 -10.2755 -10.6745 -10.733 -6.835 -11.1086 -9.5795 
-2.9805 -3.264 -1.934 -3.091 -4.1035 -2.3335 -2.186 -2.9805 -3.5005 -3.091 -3.5205 -3.695 -1.756 -3.074 -3.533 -3.6065 -5.216 -2.9705 -2.186 -3.881 -2.3345 -3.3935 -5.219 -1.756 -5.045 -6.202001 -3.8625 -2.5195 -2.3335 0 
-4.3595 -4.965 -4.2105 -6.779 -7.015501 -3.7085 -5.27 -8.5765 -6.139 -4.613 -6.0675 -4.912 -4.566 -8.2945 -7.878 -8.713501 -7.8085 -3.89 -5.3 -4.5275 -6.1225 -9.0635 -6.511001 -6.2465 -11.2325 -8.889501 -5.4455 -4.9535 -2.3335 
-5.969501 -6.359 -7.054 -8.364 -8.4315 -6.850501 -9.4405 -10.451 -7.202001 -7.0495 -7.014 -7.5895 -9.747001 -12.7993 -13.1872 -10.586 -9.149 -6.932 -6.2155 -8.948001 -10.586 -11.1857 -11.9125 -12.7684 -15.2818 -11.0125 -8.1645 -4.9535 
-7.132 -8.782001 -8.398001 -10.575 -11.6765 -11.3798 -11.5758 -11.514 -9.995001 -8.028 -9.283501 -12.9923 -14.2518 -18.1085 -15.0597 -11.9265 -12.3124 -7.613501 -11.3358 -13.9829 -12.7082 -16.5872 -18.4344 -16.7689 -17.6916 -14.1489 -8.1645 
-9.854 -9.889 -10.6875 -13.82 -16.2058 -13.5151 -12.6388 -14.307 -10.9735 -10.7595 -14.7691 -17.4971 -19.561 -19.981 -16.4002 -15.0899 -12.9939 -13.2034 -16.3707 -16.1051 -18.1097 -23.1091 -22.4349 -19.1787 -20.5712 -14.1489 
-1.934 -1.4985 -5.6795 -2.9805 -4.4175 -2.3335 -2.4265 -2.7415 -3.8755 -2.3345 -3.3935 -4.5355 -2.5195 -3.533 -3.6065 -2.8965 -5.449 -1.756 -4.96 -1.7565 -6.202001 -3.8625 0 -1.756 -3.3715 -1.7565 -3.091 -3.5205 -3.3435 -4.446 -3.6245 -3.9285 -1.934 -2.3615 0 
-2.6125 -6.852 -8.686001 -5.904 -5.0185 -3.913 -3.681 -5.065001 -4.4955 -6.1225 -8.458 -6.705 -5.979 -7.878 -7.436 -7.6655 -6.363501 -6.6915 -5.1815 -6.910501 -8.889501 -3.8625 -1.756 -4.6545 -4.3215 -4.0655 -4.613 -5.856 -6.101501 -7.940001 -8.566 -4.3695 -3.539 -2.3615 
-7.402501 -9.111501 -11.7195 -6.1775 -6.256 -4.9035 -6.262 -5.7145 -9.3205 -10.434 -9.637 -10.7089 -10.1225 -11.9097 -12.5186 -8.66 -12.2132 -7.2285 -9.146 -10.2005 -8.859501 -5.304 -4.6545 -5.7085 -6.0015 -5.4915 -6.4195 -7.653 -9.634501 -13.1447 -9.211 -5.392 -3.539 
-9.342001 -12.2606 -11.993 -7.574 -6.893 -7.640501 -6.9175 -10.328 -13.7968 -11.613 -13.9335 -14.8524 -14.2652 -16.9923 -13.5131 -14.7689 -12.7502 -11.9015 -14.1725 -10.5955 -9.9455 -7.351501 -5.7085 -7.127 -7.6685 -7.3475 -8.469 -11.2896 -14.9084 -13.7897 -9.973001 -5.392 
-12.5045 -12.5341 -13.3895 -8.032001 -10.389 -8.149 -11.8732 -15.1103 -14.9758 -15.9095 -18.077 -18.9951 -19.3478 -17.9868 -19.622 -15.3059 -17.4232 -16.297 -14.1725 -11.6815 -12.6798 -9.573001 -7.127 -9.1355 -10.485 -9.459001 -12.2346 -16.5635 -15.5534 -14.5517 -9.973001 
-3.3935 -3.8095 -3.8605 -3.6065 -3.64 -2.5195 -2.3335 -2.925 -5.8635 -5.8195 -2.5195 -1.4985 -4.1035 
-7.3935 -8.446001 -7.0755 -6.844501 -6.001 -4.9535 -4.0295 -8.8265 -11.558 -7.573501 -3.1695 -5.0955 
-12.6804 -12.0218 -10.564 -8.9075 -8.450001 -7.5605 -10.025 -14.9992 -14.379 -8.512501 -6.5505 
-16.2562 -15.5103 -12.627 -10.6215 -11.409 -13.6776 -16.1977 -17.7392 -15.789 -12.0895 
-19.7447 -17.5733 -14.341 -13.5805 -17.5261 -19.8503 -18.9377 -19.1492 -19.2156 
