-4.759 
n/a 
n/a 
n/a 
n/a 
-4.759 
n/a 
n/a 
n/a 
n/a 
-4.759 
n/a 
n/a 
n/a 
n/a 
-4.759 
n/a 
n/a 
n/a 
n/a 
-3.098 -3.3755 -1.7695 -2.911 -4.1145 -3.4635 -1.7695 -1.8085 -4.015 -3.7695 -2.186 -3.4635 -1.4985 -4.1145 -3.8625 -3.571 -3.3755 -2.186 -4.297 -3.925 -3.668 -3.7875 -4.1145 -1.934 -3.7905 -3.098 -4.179 -3.8445 -4.0005 -4.7015 
-5.164 -3.992 -4.603 -6.7305 -7.3375 -4.2045 -3.41 -4.5105 -6.5705 -5.7185 -6.0705 -4.6325 -5.3525 -7.7295 -7.596001 -5.429 -5.5045 -7.502001 -6.345 -8.651001 -7.2495 -8.677501 -6.838 -6.2545 -4.45 -7.0105 -8.43 -9.359501 -8.7425 
-5.453 -6.642 -9.238001 -10.259 -8.769 -5.807 -5.606 -6.698501 -8.227 -10.3605 -6.812 -8.852 -9.351 -12.3454 -9.554001 -7.001 -11.2047 -10.575 -11.7212 -12.5243 -12.2097 -8.917001 -11.8911 -6.778501 -8.172501 -11.5597 -14.2118 -14.1015 
-8.948 -12.2036 -13.4393 -12.2317 -10.9849 -7.241 -7.7815 -8.470501 -13.1624 -11.102 -11.4401 -13.1693 -14.2667 -14.3034 -11.3032 -13.3844 -14.2777 -15.9512 -15.5945 -17.4845 -12.4492 -16.0463 -12.4151 -11.5216 -13.0575 -17.3415 -18.9538 
-14.574 -16.4049 -15.412 -14.4476 -12.4189 -8.5015 -9.805501 -13.5297 -13.9039 -15.7301 -15.7574 -18.085 -16.2247 -16.0526 -17.6866 -16.4574 -19.6539 -19.8245 -20.5547 -17.724 -19.5785 -16.5703 -17.1582 -16.4066 -18.8393 -22.0835 
-1.7695 -3.197 -2.9905 -1.4985 -4.015 -4.1145 0 -2.911 -1.4985 -4.1145 -3.3255 -5.4085 0 -3.571 -3.3755 -2.186 -4.297 -3.925 0 -3.668 -2.4265 -4.4565 -1.7695 -1.4985 -4.015 -3.7905 
-3.9565 -4.227 -4.143 -5.216001 -8.248501 -4.1145 -2.911 -4.546 -5.3525 -8.572001 -8.527 -5.4085 -3.571 -5.429 -5.5045 -7.502001 -6.345 -3.925 -3.668 -5.731 -6.1885 -4.9325 -2.7955 -5.216001 -6.772501 
-4.7145 -5.638 -8.0115 -9.6665 -8.248501 -6.2935 -4.546 -7.764 -9.347 -14.0795 -8.527 -9.639 -5.429 -7.001 -11.2047 -10.575 -6.345 -8.651001 -5.731 -9.285001 -6.399 -5.777 -6.114 -8.1265 
-6.042 -9.2425 -12.6532 -9.6665 -11.1559 -7.9635 -7.764 -12.8609 -14.7551 -14.0795 -13.1977 -10.295 -7.001 -13.3844 -14.2777 -10.575 -11.7212 -11.0058 -9.285001 -9.392501 -7.276 -9.803 -9.033501 
-9.358001 -14.0528 -12.6532 -12.7297 -12.8259 -10.2085 -12.8609 -18.269 -14.7551 -18.7502 -13.8537 -12.3286 -13.3844 -16.4574 -14.2777 -15.9512 -14.076 -14.5598 -9.392501 -9.942 -11.4184 -12.7225 
-1.7695 -3.197 -3.135 -4.015 -2.915 -4.3895 -2.3345 -1.4985 -3.3755 -1.7565 -4.1145 -2.5195 -4.1145 -3.9875 -1.4985 -7.774 -3.807 -3.571 -3.3755 -4.5125 0 -4.297 -3.925 0 -2.0935 -3.668 -4.1145 -2.186 -1.4985 -3.7905 -3.098 -2.4265 -2.742 -3.0785 -2.0935 -1.4985 -4.015 -3.8385 -1.756 -3.5725 -6.237 -4.25 0 
-3.9565 -5.528 -6.5365 -6.960001 -7.712001 -4.6785 -3.233 -4.057 -4.5295 -6.695001 -7.3265 -7.1055 -7.356 -4.653 -9.116501 -12.601 -10.206 -5.429 -6.8625 -4.5125 -4.297 -6.345 -3.925 -2.0935 -3.995 -8.074 -6.3365 -3.339 -4.9115 -4.45 -5.6325 -4.095 -4.6085 -5.116 -2.9725 -5.216001 -7.607501 -5.509 -5.0135 -8.803501 -10.4185 -4.25 
-6.0665 -9.128 -9.031 -12.4292 -7.749001 -5.48 -5.0435 -5.3375 -10.1855 -9.700001 -9.8015 -10.9284 -9.537001 -12.166 -13.8775 -18.161 -12.4975 -10.142 -6.8625 -8.861 -6.345 -6.345 -6.1585 -3.995 -8.823 -10.19 -7.6755 -6.802 -5.42 -7.138 -7.0955 -5.8685 -7.743001 -6.37 -6.285 -8.755501 -9.238501 -9.0535 -10.228 -13.1778 -10.4185 
-9.423 -10.7035 -14.6618 -12.4662 -8.43 -9.251 -7.0785 -10.4945 -13.1905 -12.2028 -13.7916 -13.1094 -17.7892 -17.7222 -19.6548 -20.4582 -17.3353 -10.142 -12.7648 -11.5724 -6.345 -8.531501 -8.543 -8.823 -11.3392 -11.7242 -11.8103 -7.5375 -7.866 -8.525001 -9.4425 -8.502001 -8.675501 -9.6145 -10.0885 -10.4765 -12.978 -14.4012 -14.7889 -13.1778 
-11.0613 -16.3343 -14.6988 -13.1472 -12.6692 -10.4115 -12.3985 -13.4995 -15.6933 -16.1929 -15.9726 -21.3616 -22.7338 -23.3439 -21.6758 -25.296 -17.3353 -16.1983 -15.4762 -11.5724 -8.531501 -10.368 -13.4202 -11.3392 -12.8734 -15.859 -12.5458 -10.15 -9.319 -10.609 -12.1398 -9.4445 -12.0702 -13.7042 -11.8095 -14.216 -18.3257 -18.9621 -14.7889 
-2.871 -5.675 -2.871 -4.029 -9.478001 0 -4.297 -6.16 0 -3.668 0 0 -5.675 0 -1.934 -2.3615 -1.7695 -4.4585 -3.098 -1.7565 -1.4985 -3.898 -1.934 -1.4985 -6.0525 -3.098 -5.675 0 
-9.1195 -9.4175 -7.5725 -15.5 -10.9315 -4.297 -11.4374 -6.16 -3.668 -3.668 0 -5.675 -5.675 -1.934 -3.539 -4.6245 -6.066 -7.8415 -4.3615 -2.4195 -5.0465 -4.962501 -2.6125 -8.973001 -11.0145 -8.335501 -5.675 
-12.917 -14.3854 -19.1469 -15.5 -16.0425 -11.4374 -11.4374 -9.887501 -3.668 -3.668 -5.675 -5.675 -8.1565 -3.539 -7.36 -9.147 -10.213 -9.564501 -4.731 -6.246 -6.0625 -5.580501 -10.6095 -14.1734 -16.252 -8.335501 
-17.8849 -25.9598 -19.1469 -20.611 -23.6897 -11.4374 -15.1649 -9.887501 -3.668 -9.599501 -5.675 -8.1565 -10.3155 -7.36 -12.2083 -13.459 -11.936 -10.356 -10.0745 -7.028501 -6.7095 -14.2845 -15.8099 -19.4109 -16.252 
-29.4593 -25.9598 -24.2579 -28.2582 -23.6897 -15.1649 -15.1649 -9.887501 -9.599501 -9.599501 -8.1565 -10.3155 -14.1365 -12.2083 -16.5203 -15.182 -12.7275 -15.6995 -10.857 -7.618001 -15.6563 -19.4849 -21.0474 -19.4109 
