-4.759 
n/a 
n/a 
n/a 
n/a 
-4.759 
n/a 
n/a 
n/a 
n/a 
-4.759 
n/a 
n/a 
n/a 
n/a 
-4.759 
n/a 
n/a 
n/a 
n/a 
-5.1905 -8.007501 -2.7455 -4.235 0 -4.6555 0 -4.654 0 -4.1985 
-13.3625 -10.1465 -7.3555 -4.235 -4.6555 -4.6555 -4.654 -4.654 -4.1985 
-15.1548 -14.773 -7.3555 -9.796 -4.6555 -8.449 -4.654 -9.484501 
-20.4118 -14.885 -13.2659 -9.796 -8.449 -8.449 -9.484501 
-20.4118 -20.7954 -13.2659 -13.8307 -8.449 -13.5347 
-1.934 -5.1905 -3.355 -2.7455 -4.235 0 -3.5895 0 -4.654 -1.756 -4.1985 0 
-6.8345 -8.499001 -6.113 -7.3555 -4.235 -3.5895 -3.5895 -4.654 -5.8865 -5.723001 -4.1985 
-10.8356 -11.6398 -11.058 -7.3555 -8.897501 -3.5895 -8.373 -5.8865 -10.9075 -5.723001 
-13.9764 -16.5848 -11.058 -12.3674 -8.897501 -8.373 -9.229 -10.9075 -10.9075 
-18.9214 -16.5848 -16.0699 -12.3674 -13.8922 -9.229 -14.4552 -10.9075 
-5.1905 -6.8715 -3.644 -4.235 0 -3.5895 0 -4.654 0 -1.756 -4.2 
-11.4695 -12.073 -7.6265 -4.235 -3.5895 -3.5895 -4.654 -4.654 -1.756 -5.5055 
-17.0855 -15.8592 -7.6265 -8.897501 -3.5895 -8.373 -4.654 -5.8865 -5.5055 
-20.4865 -15.8592 -12.4208 -8.897501 -8.373 -8.373 -5.8865 -10.69 
-20.4865 -20.6535 -12.4208 -13.8922 -8.373 -9.229 -10.69 
-5.1905 -5.213 -4.6525 -4.235 0 -4.045 -1.756 -6.864 
-10.647 -10.168 -9.063 -4.235 -4.045 -5.4175 -8.611 
-15.602 -14.6731 -9.063 -10.31 -5.4175 -13.0621 
-20.1071 -14.6731 -15.2138 -11.6825 -13.0621 
-20.1071 -20.8239 -16.5863 -19.3271 
