-4.759 
n/a 
n/a 
n/a 
n/a 
-4.759 
n/a 
n/a 
n/a 
n/a 
-4.759 
n/a 
n/a 
n/a 
n/a 
-4.759 
n/a 
n/a 
n/a 
n/a 
-3.5455 -5.6225 0 -1.4985 -3.9465 -4.954 -7.5325 -3.1715 -3.325 -1.4985 -3.757 -4.033 -4.7175 -5.376 -3.1435 -4.194 -1.934 -2.985 -3.59 0 
-9.632501 -5.6225 -1.4985 -6.780001 -8.682501 -13.7367 -10.7025 -6.311501 -3.898 -4.5435 -6.936501 -5.685 -9.8365 -6.9315 -6.147 -5.7375 -4.111 -5.6905 -3.59 
-9.632501 -7.467 -6.780001 -12.194 -17.8778 -16.9067 -13.8425 -6.9355 -7.2445 -8.910501 -7.5275 -10.1425 -11.9566 -8.709001 -7.8335 -7.868001 -6.3825 -5.6905 
-10.72 -13.0783 -12.194 -21.3893 -21.0478 -20.0467 -14.4665 -9.9425 -12.5155 -9.744 -10.4105 -12.552 -13.7341 -9.671 -10.118 -10.1635 -6.3825 
-16.3313 -18.4923 -21.3893 -24.5593 -24.1878 -20.6707 -17.4735 -15.3079 -13.349 -12.627 -13.4554 -14.3295 -14.6961 -12.0621 -12.4135 -10.1635 
-1.934 -5.6225 -3.158 -3.9465 -3.757 -4.033 -10.235 -12.16972 -1.934 -4.0275 
-6.9665 -9.657001 -7.9375 -7.412001 -6.936501 -15.0124 -22.40472 -14.10372 -5.881001 
-11.5366 -14.5793 -11.6588 -10.3815 -18.5799 -27.18212 -24.33872 -18.05072 
-16.4589 -18.3006 -14.6283 -23.1239 -30.74962 -29.11612 -28.28572 
-20.1802 -21.2701 -27.3707 -35.29362 -32.68362 -33.06312 
-1.934 -5.6225 -1.4985 -4.375 -1.934 -6.437 -6.6715 -2.7415 -3.325 -1.4985 -4.328 -4.033 -4.157 -1.4985 -3.59 -2.229 -4.338 -4.0275 
-6.9665 -7.467 -5.7425 -6.7635 -9.385 -13.7669 -8.654 -5.7585 -3.898 -4.9975 -8.1265 -9.592501 -5.535 -4.268 -4.966 -7.14 -8.165001 
-7.9515 -12.0408 -8.3915 -14.6865 -16.8017 -15.7494 -11.6624 -6.248 -8.123 -10.1185 -14.1602 -10.6115 -8.718 -5.127 -10.504 -11.389 
-12.5669 -14.6898 -16.5371 -22.1032 -18.7842 -18.7578 -12.1519 -10.2805 -13.9742 -16.1522 -15.1792 -13.7945 -8.802 -10.8972 -14.753 
-15.2159 -22.8354 -23.9538 -24.0857 -21.7926 -19.2473 -16.1844 -16.2557 -20.0079 -17.1712 -18.3622 -13.8785 -14.7904 -15.1462 
-1.4985 -4.806 -1.934 -7.5325 0 -2.9705 -2.7415 -3.325 -3.757 -4.033 -4.7175 -1.756 -3.3155 -3.9465 -3.251 -3.1435 -3.4985 -1.934 -5.6225 0 -4.067 -5.376 -1.4985 -3.59 -2.229 -3.5085 -3.4425 
-5.952001 -6.8725 -9.744 -7.5325 -2.9705 -4.512 -5.7585 -6.553 -6.936501 -5.685 -6.438 -4.9385 -8.081501 -7.045501 -5.7245 -6.308001 -5.373 -6.9665 -5.6225 -4.067 -6.733001 -6.416 -4.268 -4.966 -5.5445 -6.09 
-8.256001 -15.3379 -9.744 -11.4196 -4.512 -7.397501 -8.890501 -9.265 -7.5275 -7.0875 -10.4945 -10.0925 -9.771001 -9.153501 -9.581 -7.6185 -10.3345 -6.9665 -9.933001 -6.733001 -7.83 -9.375501 -5.127 -7.23 -7.8155 
-17.2928 -15.3379 -13.9613 -12.9611 -7.397501 -10.7133 -11.8289 -9.302501 -8.8455 -11.7274 -15.6485 -11.782 -11.902 -13.1554 -11.3143 -13.0284 -10.3345 -10.064 -10.147 -7.83 -10.9383 -9.419001 -7.3135 -8.382 
-17.2928 -19.5552 -15.5028 -15.8466 -10.7133 -13.6517 -11.8664 -10.5995 -13.613 -16.8814 -17.338 -13.913 -15.9039 -14.8887 -16.7242 -13.0284 -13.432 -10.191 -10.154 -10.9383 -10.9818 -11.8501 -8.634 
