-4.759 
n/a 
n/a 
n/a 
n/a 
-4.759 
n/a 
n/a 
n/a 
n/a 
-4.759 
n/a 
n/a 
n/a 
n/a 
-4.759 
n/a 
n/a 
n/a 
n/a 
-1.4985 -3.6975 -4.02 -1.756 -3.17 -4.1975 -4.611 -3.853 -3.152 -4.09 -2.264 -3.676 0 
-5.259501 -7.2255 -6.049 -4.684 -7.693 -9.1225 -9.198 -6.5765 -5.73 -6.311501 -6.069 -3.676 
-8.6565 -9.7155 -9.1405 -8.825001 -13.2554 -13.9803 -12.2121 -9.205 -7.7845 -10.6319 -6.069 
-11.3663 -12.846 -13.5141 -14.9654 -18.1132 -16.9944 -14.8406 -10.5755 -12.2249 -10.6319 
-14.4968 -17.2196 -19.6545 -19.8232 -21.1273 -19.6229 -16.2111 -15.3669 -12.2249 
-4.02 -1.756 -12.16972 -4.1975 -5.5275 -3.853 -3.152 -1.4985 -4.4695 -4.245 -3.9755 -1.934 -3.676 -3.3155 -3.251 -1.8085 -5.097 -3.898 0 
-6.049 -14.93432 -16.36722 -10.4265 -8.554501 -6.5765 -4.764 -5.252501 -8.6695 -8.7145 -5.829 -4.7985 -6.384501 -7.428 -4.1695 -7.738501 -7.370501 -3.898 
-20.33172 -19.13182 -22.59622 -13.4535 -10.504 -8.236 -8.2995 -10.122 -13.4486 -10.6512 -9.467001 -7.0135 -10.8174 -9.3035 -9.497001 -10.513 -7.370501 
-24.52922 -25.36082 -25.62322 -15.403 -12.1635 -11.9953 -13.267 -14.9011 -15.3853 -14.2892 -11.725 -11.6904 -12.6929 -14.631 -12.4087 -10.513 
-30.75822 -28.38782 -27.57272 -17.0625 -15.9228 -16.9628 -18.0461 -16.8378 -19.0233 -16.5472 -16.4019 -13.5659 -18.0204 -17.5427 -12.4087 
-4.02 -1.756 -4.1975 -3.4635 -6.389 -4.3195 -3.6975 -9.04 -1.934 -3.676 
-6.049 -5.845 -6.8945 -9.863501 -10.2435 -6.5695 -14.1241 -11.142 -4.7985 
-9.615 -8.384001 -14.0685 -13.8876 -12.4935 -17.9813 -16.2261 -14.0065 
-12.3984 -15.964 -18.0926 -16.1376 -23.9053 -20.0833 -19.0906 
-19.9784 -19.9881 -20.3426 -27.5494 -26.0073 -22.9478 

n/a 
n/a 
n/a 
n/a 
