-4.759 
n/a 
n/a 
n/a 
n/a 
-4.759 
n/a 
n/a 
n/a 
n/a 
-4.759 
n/a 
n/a 
n/a 
n/a 
-4.759 
n/a 
n/a 
n/a 
n/a 
-3.4765 -2.3615 -5.009 -4.416 -3.2615 -2.3335 -2.95 -3.4905 -2.186 -4.2065 -1.7695 -4.2875 -3.9335 0 
-6.150001 -9.0035 -10.587 -7.26 -5.0495 -4.8245 -7.17 -5.4155 -7.58 -6.4705 -6.2995 -8.351501 -3.9335 
-12.9464 -14.6581 -13.431 -8.873501 -6.697001 -9.935 -9.1475 -10.168 -9.085501 -11.7111 -10.6921 -8.351501 
-18.601 -17.5021 -15.0445 -10.733 -12.1215 -12.0505 -14.2296 -10.5825 -14.3639 -16.1037 -10.6921 
-21.445 -19.1156 -16.904 -16.1575 -14.237 -17.1326 -14.6441 -16.4317 -18.7565 -16.1037 
-3.2615 -2.3615 -3.995 -2.742 -3.7905 -4.13 
-5.276 -5.9625 -6.501 -5.126 -7.9175 
-9.620501 -8.157001 -8.328 -9.325001 
-11.9238 -9.8585 -12.765 
-13.6253 -14.5921 
-3.2615 -2.3615 -2.871 -3.995 -2.186 -4.7 -2.664 -3.628 -3.4905 0 
-5.276 -4.583 -7.099501 -5.7465 -7.2755 -7.8365 -7.899 -8.092001 -3.4905 
-7.0725 -9.14 -9.27 -8.393001 -10.214 -13.5457 -12.5088 -8.092001 
-11.7903 -10.5235 -12.0317 -11.4953 -15.9232 -18.1555 -12.5088 
-13.1738 -13.2852 -15.134 -17.2045 -20.533 -18.1555 
-3.6705 0 -3.2615 -5.077 -2.3345 -3.8665 -4.246 0 -1.4985 -3.995 -4.0955 -5.051 -3.1435 -6.254 -1.7695 -3.135 -4.4495 
-3.6705 -3.2615 -10.019 -5.3265 -6.076 -6.96 -4.246 -1.4985 -4.712 -8.235001 -8.378 -6.8775 -8.170501 -7.921 -4.779 -5.734 
-6.111501 -10.019 -10.1645 -8.415 -8.149 -6.96 -5.8875 -4.712 -8.722 -12.8573 -10.5253 -12.4365 -10.1805 -11.3757 -5.7405 
-13.2794 -10.1645 -13.253 -10.0745 -8.149 -8.988501 -10.007 -8.722 -13.5557 -15.0046 -16.0843 -14.4465 -13.6938 -12.3372 
-13.4249 -13.253 -14.9125 -10.0745 -9.901001 -13.1698 -14.361 -13.5557 -15.703 -20.5636 -18.0943 -17.9598 -14.6553 
