-4.759 
n/a 
n/a 
n/a 
n/a 
-4.759 
n/a 
n/a 
n/a 
n/a 
-4.759 
n/a 
n/a 
n/a 
n/a 
-4.759 
n/a 
n/a 
n/a 
n/a 
-2.3615 -2.5685 -4.4825 -1.934 -4.065 -4.1 
-5.519 -6.7505 -5.5625 -5.723001 -6.884 
-7.4455 -7.6985 -9.2825 -9.7725 
-8.293501 -11.7717 -13.3912 
-12.4467 -15.8804 
-3.1495 -3.681 -4.4825 -3.5455 -4.065 -4.1 
-5.1675 -6.693501 -6.547 -7.942501 -6.884 
-7.674 -8.4725 -11.387 -8.443501 
-9.9125 -13.5683 -11.888 
-15.1233 -14.0693 
-3.1495 -3.152 -4.4825 -3.5455 -4.065 -9.3465 
-5.3825 -8.948501 -6.547 -7.942501 -14.9395 
-11.3764 -10.7025 -11.387 -19.6474 
-13.1304 -15.5425 -23.0919 
-17.9704 -27.2474 
-3.5455 -1.4985 -4.065 -4.1 0 
-3.91 -4.824 -6.884 -4.1 
-7.4805 -7.796 -6.884 
-8.5 -7.796 
-8.5 
