-4.759 
n/a 
n/a 
n/a 
n/a 
-4.759 
n/a 
n/a 
n/a 
n/a 
-4.759 
n/a 
n/a 
n/a 
n/a 
-4.759 
n/a 
n/a 
n/a 
n/a 
-3.0835 -4.359 -4.867 0 -8.942 -7.190001 
-6.1675 -11.046 -4.867 -8.942 -10.007 
-13.5013 -11.046 -14.8048 -10.007 
-13.5013 -20.9838 -15.8698 
-23.4391 -22.0488 
-4.359 -4.867 0 -10.678 
-11.046 -4.867 -10.678 
-11.046 -16.5408 
-22.7198 
n/a 
-3.0835 -3.522 0 -10.678 0 -4.179 0 0 -5.057 -4.179 0 
-6.3975 -3.522 -10.678 -10.678 -4.179 -4.179 0 -5.057 -8.6905 -4.179 
-6.3975 -14.9634 -10.678 -14.857 -4.179 -4.179 -5.057 -8.6905 -8.6905 
-18.5347 -14.9634 -14.857 -14.857 -4.179 -9.203501 -8.6905 -8.6905 
-18.5347 -19.1424 -14.857 -14.857 -9.203501 -10.6225 -8.6905 
-3.0835 -4.584 0 -7.7445 -7.190001 
-7.693501 -4.584 -7.7445 -9.337 
-7.693501 -13.2957 -9.337 
-16.7688 -14.8882 
-18.3613 
