-4.759 
n/a 
n/a 
n/a 
n/a 
-4.759 
n/a 
n/a 
n/a 
n/a 
-4.759 
n/a 
n/a 
n/a 
n/a 
-4.759 
n/a 
n/a 
n/a 
n/a 
-8.7865 0 -4.782 0 -1.934 -5.965 -5.1645 -5.5295 -3.711 -4.548 
-8.7865 -4.782 -4.782 -1.934 -7.337 -11.117 -11.7904 -9.491501 -8.6085 
-13.9231 -4.782 -6.802 -7.337 -12.8408 -17.7429 -15.7524 -14.7818 
-13.9231 -6.802 -12.4854 -12.8408 -19.4667 -21.7049 -21.0427 
-15.9431 -12.4854 -17.9892 -19.4667 -23.4287 -26.9952 
-1.934 -3.524 -4.782 0 -4.088 -5.1645 -5.9545 -3.711 -2.7415 -3.9535 -1.934 -5.3885 0 
-5.012 -7.369 -4.782 -4.088 -8.739 -9.371 -10.5273 -6.002501 -5.83 -5.3325 -6.4035 -5.3885 
-8.212 -7.369 -9.2955 -8.739 -9.39 -14.2806 -12.8188 -9.068001 -6.376501 -9.745501 -6.4035 
-8.212 -12.1917 -14.3677 -9.39 -14.324 -16.5721 -15.8843 -9.583501 -10.485 -9.745501 
-13.3967 -17.2639 -15.0187 -14.324 -16.6155 -19.6376 -16.3998 -13.8582 -10.485 
-1.934 -3.524 0 -4.782 0 -5.1645 -4.8565 -3.711 -3.8535 -1.934 -5.965 0 
-5.012 -3.524 -4.782 -4.782 -5.1645 -10.9575 -9.079 -8.932501 -5.002 -7.337 -5.965 
-5.012 -7.369 -4.782 -9.3575 -10.9575 -15.18 -14.5477 -9.844001 -10.31 -7.337 
-8.212 -7.369 -9.3575 -16.0047 -15.18 -20.6487 -15.4592 -15.2274 -10.31 
-8.212 -12.2537 -16.0047 -20.2272 -20.6487 -21.5602 -20.8426 -15.2274 
-5.1645 -5.3255 -3.794 -2.7415 -4.005 -2.5045 -5.3885 -1.934 -3.524 -4.782 0 
-11.5864 -11.0145 -5.690001 -5.236 -5.0615 -7.3385 -7.4995 -5.012 -7.369 -4.782 
-17.2754 -12.9105 -6.376 -6.0165 -8.849 -8.828 -9.953501 -8.212 -7.369 
-19.1714 -13.5965 -7.1485 -9.7355 -10.0445 -10.76 -13.1535 -8.212 
-19.8574 -14.369 -10.9669 -11.0498 -11.9765 -13.96 -13.1535 
