-4.759 
n/a 
n/a 
n/a 
n/a 
-4.759 
n/a 
n/a 
n/a 
n/a 
-4.759 
n/a 
n/a 
n/a 
n/a 
-4.759 
n/a 
n/a 
n/a 
n/a 
-4.5065 0 -7.1615 -8.0845 0 -5.7865 0 
-4.5065 -7.1615 -8.7095 -8.0845 -5.7865 -5.7865 
-10.5865 -8.7095 -8.7095 -10.375 -5.7865 
-10.617 -8.7095 -10.6885 -10.375 
-10.617 -10.6885 -10.6885 
-4.5065 0 -10.6645 -8.0845 0 -7.661 0 
-4.5065 -10.6645 -18.749 -8.0845 -7.661 -7.661 
-15.5556 -18.749 -18.749 -16.1987 -7.661 
-23.6401 -18.749 -26.8632 -16.1987 
-23.6401 -26.8632 -26.8632 
-4.5065 0 -5.0875 -8.0845 0 -5.7865 0 
-4.5065 -5.0875 -14.5266 -8.0845 -5.7865 -5.7865 
-9.8785 -14.5266 -14.5266 -10.375 -5.7865 
-19.3796 -14.5266 -16.8171 -10.375 
-19.3796 -16.8171 -16.8171 
-4.5065 0 -7.1615 -8.0845 0 -5.7865 0 
-4.5065 -7.1615 -8.7095 -8.0845 -5.7865 -5.7865 
-10.5865 -8.7095 -8.7095 -10.375 -5.7865 
-10.617 -8.7095 -10.6885 -10.375 
-10.617 -10.6885 -10.6885 
