-4.759 
n/a 
n/a 
n/a 
n/a 
-4.759 
n/a 
n/a 
n/a 
n/a 
-4.759 
n/a 
n/a 
n/a 
n/a 
-4.759 
n/a 
n/a 
n/a 
n/a 
-3.7855 0 -3.5905 -4.196 -3.4605 -3.324 
-3.7855 -3.5905 -8.078 -7.9205 -7.529 
-8.778501 -8.078 -11.9709 -12.4068 
-13.4506 -11.9709 -16.4572 
-17.3435 -16.4572 
-3.845 0 -1.934 -1.4985 -3.158 -1.7565 -3.5905 -1.4985 -3.5025 -4.248 -2.4945 -5.189 
-3.845 -1.934 -2.6125 -4.178 -4.71 -5.706501 -5.1795 -4.16 -8.588501 -5.7055 -6.6105 
-6.172501 -2.6125 -5.265 -5.562 -7.969 -6.799001 -8.042001 -9.642 -9.972501 -9.755 
-7.091001 -5.265 -6.3135 -8.4505 -9.022 -9.972 -14.12 -11.0376 -14.2558 
-9.413501 -6.3135 -8.748001 -9.4835 -12.2236 -16.05 -15.5156 -15.3209 
-4.4675 0 -1.4985 -3.772 -1.7565 -3.4605 -4.196 -1.934 -1.4985 -3.158 -3.5905 
-4.4675 -1.4985 -5.215 -5.153 -6.0775 -7.6175 -5.016 -2.6125 -4.178 -5.795 
-6.5155 -5.215 -5.5775 -10.1345 -10.8465 -8.1555 -5.8695 -5.265 -6.693 
-10.298 -5.5775 -10.503 -15.0295 -11.3845 -9.933001 -7.3855 -7.235001 
-10.6605 -10.503 -15.398 -15.5675 -13.162 -10.4895 -8.915 
-3.7655 0 -1.934 -2.3615 -3.5905 -7.870501 -3.4605 -3.772 
-3.7655 -1.934 -3.539 -7.355 -13.728 -13.2755 -7.441501 
-5.858 -3.539 -8.5755 -18.1977 -18.0999 -17.5737 
-7.278501 -8.5755 -19.622 -22.3918 -22.3105 
-12.9906 -19.622 -23.8161 -26.6024 
