-4.759 
n/a 
n/a 
n/a 
n/a 
-4.759 
n/a 
n/a 
n/a 
n/a 
-4.759 
n/a 
n/a 
n/a 
n/a 
-4.759 
n/a 
n/a 
n/a 
n/a 
-4.4505 -12.16972 -2.186 -1.4985 -3.098 -1.7565 -2.3615 -3.8735 -4.712 -3.8275 -2.186 -1.8085 -4.688 -1.7565 -4.637 -3.602 0 
-17.82562 -14.35572 -3.339 -4.3095 -4.3615 -3.523 -7.8055 -8.2285 -7.5635 -5.669 -3.164 -7.660001 -6.3755 -6.127 -5.8145 -3.602 
-20.01162 -15.50872 -5.6145 -4.5915 -5.9945 -8.8225 -12.6375 -11.7354 -9.790501 -6.6865 -9.574501 -9.309001 -11.3758 -7.979 -5.8145 
-21.16462 -17.78422 -5.7375 -6.2145 -11.7998 -13.9079 -16.1444 -13.9624 -10.706 -13.6732 -10.3835 -14.2495 -13.2278 -7.979 
-23.44012 -17.90722 -7.267 -12.2658 -16.8852 -17.4148 -18.3714 -14.8779 -17.6927 -14.4822 -15.5646 -16.1015 -13.2278 
-2.3615 -4.688 -3.849 0 -4.4505 -7.131001 0 -2.186 -2.871 -1.7565 -1.4985 -4.4695 -4.688 -1.934 -1.4985 -3.5125 -1.7565 -4.1865 -4.248 -4.866 
-6.132 -8.620501 -3.849 -4.4505 -8.4065 -7.131001 -2.186 -4.247 -3.5385 -2.4195 -5.252501 -8.1565 -6.177 -2.6125 -4.7015 -4.312 -5.463 -8.061501 -7.309 
-9.97 -8.620501 -8.2465 -8.4065 -8.4065 -8.735001 -4.247 -4.411 -3.7675 -6.027 -8.7615 -8.828501 -6.9355 -5.4205 -4.846 -7.4655 -8.934001 -8.673 
-9.97 -13.4238 -12.2387 -8.4065 -10.757 -10.76 -4.411 -4.5655 -7.2125 -9.7585 -9.5275 -9.279 -8.649501 -5.48 -7.985 -9.9505 -9.616501 
-14.7279 -17.416 -12.2387 -10.757 -12.782 -10.924 -4.5655 -7.827 -11.203 -10.3775 -10.305 -9.603001 -8.659 -8.303 -10.4585 -10.4 
-1.4985 -4.4505 -7.131001 -2.7415 -2.664 -3.699 -4.637 -3.602 -1.934 -1.4985 -4.1865 -4.712 -4.2995 
-5.694 -8.4065 -9.022501 -4.6625 -4.654 -7.7395 -5.8145 -5.007 -2.6125 -5.177 -7.3815 -7.076 
-8.902 -10.254 -10.758 -6.2475 -7.9835 -7.861 -6.4455 -5.555 -6.116 -8.053 -8.019501 
-10.5535 -11.9895 -12.343 -8.807501 -7.987 -8.1625 -6.888 -9.445001 -8.904501 -8.283 
-12.289 -13.5745 -14.903 -8.809501 -8.26 -8.5045 -10.163 -12.3079 -8.971001 
-4.4505 -9.2335 -4.3195 -1.8085 -4.637 -3.602 -1.934 -1.4985 -3.5125 -1.7565 -4.1865 -5.3745 
-10.477 -13.9346 -5.0655 -6.233 -5.8145 -5.007 -2.6125 -4.7015 -4.312 -5.463 -9.048 
-15.1781 -14.6806 -8.2945 -6.3345 -6.4455 -5.555 -5.4205 -4.846 -7.4655 -10.2755 
-15.9241 -17.9096 -8.2965 -6.724 -6.888 -7.4795 -5.48 -7.985 -12.9096 
-19.1531 -17.9116 -8.465 -7.1715 -7.7605 -7.499001 -8.303 -13.4911 
