-4.759 
n/a 
n/a 
n/a 
n/a 
-4.759 
n/a 
n/a 
n/a 
n/a 
-4.759 
n/a 
n/a 
n/a 
n/a 
-4.759 
n/a 
n/a 
n/a 
n/a 
-3.115 -4.1465 0 -3.3195 0 -3.6885 -3.345 -3.2795 -1.7565 -3.1385 -2.674 -2.985 -3.5205 -3.319 -1.7565 -4.991 -3.7865 
-7.4465 -4.1465 -3.3195 -3.3195 -3.6885 -7.4185 -5.657001 -4.4575 -4.388 -4.8995 -5.042 -4.257 -7.2295 -4.165 -6.464001 -5.126 
-7.4465 -5.6825 -3.3195 -7.252 -7.4185 -9.7235 -6.620501 -5.6625 -6.113 -7.0665 -5.6365 -7.92 -7.655 -8.387501 -6.6415 
-8.453 -5.6825 -7.252 -11.7074 -9.7235 -10.7484 -8.466001 -7.952001 -8.383 -7.612 -8.8975 -8.219 -11.9841 -8.5255 
-8.453 -8.895 -11.7074 -14.0124 -10.7484 -12.5939 -10.5125 -9.910001 -9.045501 -11.2198 -9.037001 -12.6147 -12.1221 
-4.426 -1.7565 -1.4985 -3.6115 -4.7285 -4.1555 -3.147 -4.1465 0 -3.3195 0 -3.6885 -1.934 -3.819 -1.7565 -3.1385 -1.7565 -4.0375 -1.4985 -3.699 0 
-5.47 -2.4195 -4.081 -6.5495 -8.4455 -5.77 -8.1105 -4.1465 -3.3195 -3.3195 -3.6885 -5.5135 -6.5045 -6.969 -4.388 -4.861 -5.9705 -5.835001 -5.264 -3.699 
-5.9535 -5.180501 -6.670501 -9.978001 -9.541501 -10.5435 -8.1105 -5.6825 -3.3195 -7.252 -5.5135 -10.6928 -9.333501 -10.275 -6.5125 -9.133 -7.9545 -9.883001 -5.264 
-8.462501 -7.797 -10.054 -11.0524 -14.315 -10.5435 -9.7565 -5.6825 -7.252 -9.918 -10.6928 -13.5218 -12.9871 -12.3995 -11.3615 -11.4326 -12.2749 -9.883001 
-10.2375 -11.2985 -11.1648 -15.8259 -14.315 -12.1895 -9.7565 -8.895 -9.918 -15.0561 -13.5218 -17.1754 -15.1116 -17.2485 -13.6611 -15.753 -12.2749 
-3.6055 -3.6835 -1.934 -1.4985 -3.188 -2.674 -1.8085 -4.5495 -3.766 -3.913 -3.594 -1.756 -3.9675 0 -3.115 -4.1465 0 -3.3195 0 -1.756 -3.6885 0 
-6.362 -6.562 -2.6125 -3.619 -6 -3.63 -5.1975 -8.014 -6.744 -8.3895 -4.857 -4.942 -3.9675 -3.115 -7.4465 -4.1465 -3.3195 -3.3195 -1.756 -5.3225 -3.6885 
-8.577001 -7.1825 -4.377 -6.116 -7.3195 -7.557 -8.662001 -11.3268 -10.3605 -9.543 -6.1045 -4.942 -7.2365 -7.4465 -7.4465 -5.6825 -3.3195 -4.768 -5.3225 -5.3225 
-8.875001 -8.458 -6.910001 -7.518001 -11.6641 -11.1663 -12.108 -14.9433 -11.815 -11.4453 -6.1045 -8.1005 -10.757 -7.4465 -8.453 -5.6825 -4.768 -7.737 -5.3225 
-9.1715 -11.2192 -8.121 -11.938 -15.2734 -14.6123 -15.7245 -16.3978 -13.7173 -11.4453 -9.857 -12.1542 -10.757 -8.453 -8.453 -6.8665 -7.737 -7.737 
-3.115 -4.1465 0 -3.3195 0 -3.6885 -3.345 -3.2795 -1.7565 -3.1385 -2.674 -3.766 -3.913 -3.7865 0 
-7.4465 -4.1465 -3.3195 -3.3195 -3.6885 -7.4185 -5.657001 -4.4575 -4.388 -4.8995 -6.866 -6.744 -8.463501 -3.7865 
-7.4465 -5.6825 -3.3195 -7.252 -7.4185 -9.7235 -6.620501 -5.6625 -6.113 -8.791 -9.675501 -11.7543 -8.463501 
-8.453 -5.6825 -7.252 -11.7074 -9.7235 -10.7484 -8.466001 -7.952001 -10.3035 -11.9815 -14.7308 -11.7543 
-8.453 -8.895 -11.7074 -14.0124 -10.7484 -12.5939 -10.5125 -12.4247 -13.494 -17.0368 -14.7308 
