-4.759 
n/a 
n/a 
n/a 
n/a 
-4.759 
n/a 
n/a 
n/a 
n/a 
-4.759 
n/a 
n/a 
n/a 
n/a 
-4.759 
n/a 
n/a 
n/a 
n/a 
-3.545 -1.7565 -4.3445 -1.756 -3.545 -1.7565 -5.3 -2.4945 -1.934 -5.1045 -4.806 -2.5045 -5.1045 -2.264 -5.4395 -3.9075 -4.675 -1.934 -3.85 -3.2875 0 
-4.649 -5.633 -6.451 -5.7565 -4.649 -5.9935 -7.593 -4.2645 -6.4855 -7.877 -6.961 -6.5225 -7.6165 -6.4385 -6.9095 -7.855 -6.7635 -4.875 -6.1075 -3.2875 
-5.647 -7.0225 -8.513 -6.4355 -6.043 -8.4905 -9.348001 -9.387001 -9.2635 -10.703 -9.211 -8.3815 -12.4462 -9.0775 -11.5852 -9.6075 -10.7025 -7.848001 -6.1075 
-7.0415 -8.522 -8.5155 -8.161 -8.509001 -10.304 -14.5221 -12.214 -12.2361 -12.953 -11.2084 -13.4878 -15.0852 -13.8492 -13.3377 -13.5659 -13.6755 -7.848001 
-8.5225 -8.524 -8.539001 -9.9505 -10.3095 -15.4781 -17.3491 -15.1866 -14.4861 -14.9504 -16.3147 -16.1268 -19.8569 -15.6017 -17.2961 -16.5389 -13.6755 
-1.4985 -7.7505 -3.9725 -1.756 -1.4985 -4.065 -3.1385 -2.4945 -1.934 -1.4985 -8.332001 -3.9075 0 
-8.530001 -12.3458 -5.5515 -3.0405 -4.824 -6.6145 -4.588 -4.2645 -2.6125 -10.7025 -11.117 -3.9075 
-13.1971 -13.9248 -6.612 -6.267 -6.941501 -7.8065 -6.458 -4.935 -12.2107 -13.4875 -11.117 
-14.7761 -14.9853 -9.4495 -8.323501 -8.213 -9.745001 -7.145 -14.942 -14.9957 -13.4875 
-15.8366 -17.8228 -11.6784 -9.509501 -10.074 -10.5775 -17.5188 -17.727 -14.9957 
-7.2955 -7.5705 -2.229 -3.85 -3.849 -3.468 -1.7565 -6.97 -5.1045 -7.7885 0 
-15.4006 -9.085501 -6.2675 -7.853001 -8.190001 -4.7385 -8.492001 -12.9281 -14.0546 -7.7885 
-16.9156 -13.3238 -10.8417 -12.3216 -8.7995 -12.874 -14.5615 -21.8782 -14.0546 
-21.1539 -17.898 -15.3103 -12.9311 -17.5656 -18.9435 -23.5116 -21.8782 
-25.7281 -22.3666 -15.9198 -21.6972 -23.6351 -27.8936 -23.5116 
-4.98 0 -6.1165 0 -4.698 -5.5025 -6.629 0 -3.85 -3.2875 -5.1045 -5.4395 -3.9075 -3.9175 -5.1045 -4.3725 -2.264 -4.806 0 
-4.98 -6.1165 -6.1165 -4.698 -11.3999 -12.9561 -6.629 -3.85 -6.1075 -7.8245 -9.769001 -6.9095 -7.0045 -10.1465 -10.093 -5.023001 -7.995001 -4.806 
-9.184 -6.1165 -12.1653 -11.3999 -18.8535 -12.9561 -10.543 -6.1075 -10.103 -13.235 -11.5444 -10.575 -13.6723 -15.2434 -10.7435 -11.4582 -7.995001 
-9.184 -12.1653 -18.8672 -18.8535 -18.8535 -16.8701 -12.8005 -10.103 -15.8809 -15.0104 -15.2099 -17.2428 -18.7692 -15.8939 -17.1787 -11.4582 
-15.5304 -18.8672 -26.3208 -18.8535 -22.7675 -19.1276 -16.796 -15.8809 -17.6563 -18.6759 -21.8777 -22.3397 -19.4197 -22.3291 -17.1787 
