-4.759 
n/a 
n/a 
n/a 
n/a 
-4.759 
n/a 
n/a 
n/a 
n/a 
-4.759 
n/a 
n/a 
n/a 
n/a 
-4.759 
n/a 
n/a 
n/a 
n/a 
-5.3365 -5.847 -1.7565 -8.818001 -5.1255 
-9.712501 -6.48 -10.147 -14.2857 
-10.5065 -15.6527 -15.6147 
-19.6792 -21.1204 
-25.1469 
-6.4705 -5.1255 -3.152 -4.6185 -2.9905 
-9.628501 -7.059 -5.948501 -6.4125 
-11.7176 -9.101 -7.498001 
-13.7596 -10.086 
-14.7446 
-5.3365 -5.1185 -2.9905 -1.7565 -10.2665 -5.1255 
-11.6528 -6.5625 -3.6185 -12.9722 -15.5604 
-13.0968 -8.376 -15.7806 -18.2661 
-14.9103 -20.8695 -21.0745 
-27.4038 -26.1634 
-5.3365 -4.5125 -2.9905 -1.7565 -12.16972 -5.1255 
-10.6095 -6.061 -3.6185 -14.87542 -17.29522 
-12.158 -7.9395 -17.68382 -20.00092 
-14.0365 -22.39082 -22.80932 
-28.48782 -27.51632 
