-4.759 
n/a 
n/a 
n/a 
n/a 
-4.759 
n/a 
n/a 
n/a 
n/a 
-4.759 
n/a 
n/a 
n/a 
n/a 
-4.759 
n/a 
n/a 
n/a 
n/a 
-3.321 -2.9805 -6.493001 -1.4985 -3.616 -3.193 -1.934 -3.488 -4.859 0 
-5.175 -10.8759 -8.77 -4.8055 -7.1475 -4.837 -4.9205 -6.423 -4.859 
-13.5836 -13.1529 -12.2202 -8.012501 -8.303 -7.455 -8.8135 -6.423 
-15.8606 -16.6031 -15.4272 -9.953501 -11.3484 -11.4272 -8.8135 
-19.3108 -19.8101 -17.3682 -13.1427 -15.3206 -11.4272 
-1.756 -2.9805 -5.84 -3.616 -3.193 -4.662 -2.264 -4.859 -3.488 0 
-4.3555 -7.055501 -10.7335 -7.1475 -7.8675 -6.387 -6.681001 -6.9665 -3.488 
-8.301001 -12.2642 -14.265 -12.4648 -9.8165 -10.3345 -8.0605 -6.9665 
-13.6113 -15.7957 -19.5823 -14.4138 -13.7876 -11.714 -8.0605 
-17.1428 -21.113 -21.5313 -18.3849 -15.1671 -11.714 
-3.0415 0 -2.9805 -5.84 -2.3615 -7.26 -3.193 -4.931 0 
-3.0415 -2.9805 -7.055501 -8.1595 -10.4945 -11.136 -7.211 -4.931 
-5.0885 -7.055501 -9.48 -16.5885 -14.3705 -15.154 -7.211 
-8.870001 -9.48 -18.0082 -20.4645 -18.3885 -15.154 
-11.3749 -18.0082 -21.8842 -24.4825 -18.3885 
-3.433 -1.7565 -2.3335 -2.9805 -4.164 -1.4985 -3.616 -3.193 -1.7695 -4.859 -3.488 
-4.1845 -4.314 -4.1515 -6.4465 -5.1675 -4.8055 -7.1475 -4.8505 -7.2545 -6.9665 
-6.014 -6.7635 -7.744 -7.1455 -9.066 -8.012501 -9.1105 -11.3083 -8.988001 
-7.711 -10.31 -8.459001 -11.3744 -12.4052 -10.8807 -16.0433 -13.0418 
-11.4155 -10.9256 -12.7103 -14.7136 -15.2734 -17.8135 -17.7768 
