-4.759 
n/a 
n/a 
n/a 
n/a 
-4.759 
n/a 
n/a 
n/a 
n/a 
-4.759 
n/a 
n/a 
n/a 
n/a 
-4.759 
n/a 
n/a 
n/a 
n/a 
-4.1865 -3.5025 -2.8645 -4.1145 -1.934 -3.6085 -3.6885 -1.756 -4.278 -2.8645 -3.299 -3.518 -3.664 -2.5045 -2.4265 -2.674 0 -2.4265 -5.6855 -2.5195 -3.299 -3.518 -3.5025 -1.7695 -3.644 -3.518 -3.5025 -2.4265 -2.8645 0 
-7.357 -6.037 -8.313 -6.838 -4.739 -5.021 -5.041 -6.4635 -6.751 -6.2335 -4.972 -7.4185 -5.4265 -4.228 -5.6185 -2.674 -2.4265 -7.691 -7.825 -5.45 -4.972 -7.502501 -5.609 -5.0855 -5.3155 -7.502501 -6.0315 -4.1435 -2.8645 
-10.177 -12.2925 -11.8229 -9.2945 -6.4605 -6.354 -10.5325 -8.6485 -10.8968 -8.1855 -8.609 -9.609 -7.691501 -8.3795 -5.6185 -4.892 -7.691 -10.396 -10.9903 -7.3135 -8.619501 -10.7175 -9.186501 -7.134 -9.1885 -10.7117 -7.5545 -4.1435 
-16.5643 -15.8024 -14.2794 -11.2964 -7.477 -12.6619 -12.7175 -12.9955 -12.8488 -12.0673 -10.7595 -12.1866 -12.0688 -8.3795 -7.7425 -10.4869 -10.396 -13.5613 -12.8538 -11.1744 -12.3613 -14.295 -12.3336 -11.2316 -12.6729 -12.2347 -7.5545 
-20.0742 -18.2589 -16.2813 -12.3129 -14.2375 -14.8469 -17.0645 -14.9475 -16.7306 -14.2178 -13.3371 -16.5639 -12.0688 -10.7475 -13.5344 -13.1919 -13.5613 -15.4248 -16.7147 -14.9162 -15.9388 -17.4421 -16.4312 -14.716 -14.1959 -12.2347 
-3.9225 -2.5685 -1.4985 -4.1145 -2.229 -4.1865 0 -8.282001 -3.402 -4.278 -2.186 -3.7875 -2.645 -3.264 -1.7565 -3.664 0 -2.3615 -4.4565 -1.7695 -3.16 -3.9515 -3.3155 -2.4265 -4.066 -1.934 -1.4985 -3.177 -4.191 -4.2115 -3.7875 -2.645 -3.16 -3.9515 0 
-5.686 -3.7015 -5.3525 -6.818501 -6.264 -4.1865 -8.282001 -11.117 -8.9525 -5.364 -5.4905 -6.073 -6.818001 -3.6125 -5.2935 -3.664 -2.3615 -5.8865 -4.9325 -5.4185 -5.8585 -7.280001 -4.7775 -4.728 -5.226 -2.6125 -4.0915 -5.1455 -8.091 -8.124001 -6.073 -5.929501 -5.8585 -3.9515 
-6.399 -7.952 -7.6675 -10.76 -6.264 -13.5137 -11.117 -16.6675 -10.2863 -9.854501 -7.8 -9.266001 -6.996001 -6.084001 -5.2935 -5.9855 -5.8865 -6.014 -9.0185 -8.221001 -9.6665 -8.616501 -6.837501 -6.3 -6.2535 -5.256001 -5.831 -8.304501 -12.6335 -9.4505 -9.855 -7.9075 -5.8585 
-10.9311 -9.795501 -11.995 -10.76 -16.2756 -16.3487 -16.6675 -18.0013 -14.7768 -12.2644 -11.2538 -9.3195 -9.437501 -6.084001 -7.538001 -9.1905 -6.014 -10.328 -10.3965 -12.2314 -10.3915 -10.025 -8.403501 -7.3835 -9.092501 -6.6185 -8.856501 -13.2006 -13.96 -13.9129 -11.8162 -7.9075 
-12.7746 -14.1698 -11.995 -20.7716 -19.1106 -21.8992 -18.0013 -22.4918 -17.1867 -15.7182 -11.3073 -11.9684 -9.437501 -8.355 -10.459 -9.313001 -10.328 -11.706 -15.0519 -12.9564 -11.8 -12.1856 -9.227501 -10.198 -10.341 -10.341 -13.7586 -14.5271 -18.4224 -15.8741 -11.8162 
-3.188 -4.0005 -3.432 -3.8125 -1.934 -4.1145 -3.6085 -3.6885 -1.934 -4.278 -1.7695 -3.383 -3.6135 -3.2945 -1.7565 -3.9005 -1.756 -4.1805 -1.7695 -3.383 -5.29 -1.7695 -3.5025 0 
-4.969501 -7.203 -6.9395 -5.148 -6.6335 -7.718 -5.021 -5.5135 -6.2645 -7.119 -5.849 -5.8785 -7.7875 -5.464 -5.5045 -5.634 -5.505 -6.101 -5.849 -10.007 -7.7665 -5.664001 -3.5025 
-8.4455 -11.4137 -8.581 -9.5185 -11.2088 -9.382 -7.179 -9.536501 -8.6095 -11.7773 -8.504001 -9.499001 -8.087001 -10.0475 -6.9115 -10.565 -7.335 -10.3155 -12.9542 -12.4835 -12.083 -5.664001 
-12.8704 -13.0552 -13.0939 -15.1974 -12.8728 -11.7064 -11.5382 -12.1573 -13.4798 -14.4323 -12.3445 -9.886001 -12.6285 -11.4545 -12.3873 -12.395 -11.7215 -17.6377 -15.4307 -16.8 -12.083 
-14.5119 -17.5681 -18.7728 -16.8614 -15.1972 -16.0656 -14.159 -17.0276 -16.1348 -18.2728 -12.7315 -14.4979 -14.0355 -16.9303 -14.2173 -16.7815 -19.0437 -20.1142 -19.7472 -16.8 
-3.0835 -4.191 -3.723 -3.845 
-6.441501 -8.1245 -7.38 
-11.0842 -12.0845 
-15.0442 
n/a 
