-4.759 
n/a 
n/a 
n/a 
n/a 
-4.759 
n/a 
n/a 
n/a 
n/a 
-4.759 
n/a 
n/a 
n/a 
n/a 
-4.759 
n/a 
n/a 
n/a 
n/a 
-3.8005 -2.186 -3.849 -2.5045 0 -7.967 -3.7825 -4.6945 -3.277 -3.251 -1.4985 -3.1385 -3.0695 -2.674 -7.3545 -1.756 -5.532 -2.5195 -3.75 -4.317 -5.213 0 
-5.7585 -4.8565 -6.305 -2.5045 -7.967 -10.9075 -6.512 -5.913001 -5.885 -5.0745 -4.2575 -4.286 -4.343 -11.5703 -8.686501 -6.8235 -7.947001 -6.0575 -5.846001 -7.5465 -5.213 
-8.899 -7.104 -6.305 -10.75 -10.9075 -13.637 -7.537001 -8.6315 -7.2995 -7.903 -5.1225 -5.2185 -13.8235 -12.9023 -13.915 -8.906 -11.805 -8.342 -9.552501 -7.5465 
-11.3307 -7.104 -14.6541 -13.6905 -13.637 -14.662 -10.031 -9.830001 -9.701501 -8.591001 -6.302001 -14.9152 -15.1555 -18.1308 -15.9975 -13.0272 -14.0895 -12.2901 -9.552501 
-11.3307 -15.5829 -17.5946 -16.42 -14.662 -17.156 -11.5777 -12.3468 -10.6115 -9.652 -16.5189 -16.2472 -20.384 -20.2133 -20.1187 -15.3117 -18.0376 -12.2901 
-3.8005 -2.186 -3.9615 -3.7825 -4.6945 -3.277 -3.5905 -1.756 -2.3615 -3.8235 -3.8005 -2.186 -4.164 -1.7695 -3.994 -5.213 -3.75 -3.7575 -4.39 0 -3.9675 -3.711 0 
-5.7585 -5.73 -7.7845 -6.512 -5.913001 -4.7035 -5.0695 -4.4615 -6.017 -8.238001 -5.7585 -5.337 -6.532 -6.1425 -8.1675 -8.818501 -5.4685 -9.724501 -4.39 -3.9675 -7.8395 -3.711 
-9.118 -9.490001 -9.509001 -7.537001 -7.366001 -5.502 -7.5895 -7.9505 -10.8899 -9.505 -9.3205 -7.6545 -11.557 -10.2695 -12.247 -11.1962 -12.1305 -9.724501 -8.035501 -7.8395 -7.8395 
-12.9658 -11.2535 -10.5245 -8.736501 -8.203001 -7.824 -11.4003 -13.2644 -12.1569 -13.1784 -11.602 -12.8343 -15.684 -14.7654 -14.6247 -17.8582 -12.1305 -13.6318 -12.2695 -7.8395 
-14.7293 -12.269 -11.724 -9.406501 -10.6605 -11.7572 -16.7142 -14.5314 -15.8303 -15.4599 -16.7818 -16.9613 -20.1799 -17.1431 -21.2867 -17.8582 -16.0378 -17.8658 -12.2695 
-1.4985 -3.098 -3.8005 -4.822 -1.7695 -1.4985 -3.959 -1.756 -4.2465 -3.711 -2.9705 -2.674 -3.1125 -1.934 -4.6975 -2.0935 -2.645 -3.1575 -4.8835 -3.277 -1.934 -3.75 -3.994 0 
-4.3095 -7.673 -8.806001 -4.8595 -2.7955 -5.5 -5.173 -5.052 -6.7155 -6.2235 -4.904 -3.6315 -4.863 -5.8345 -6.524 -3.883 -3.72 -6.986001 -7.252 -4.8125 -5.3465 -5.276 -3.994 
-8.814001 -13.0137 -8.844501 -5.318 -6.960001 -6.985 -8.729 -7.395 -8.965 -7.38 -5.443 -5.427 -6.5565 -6.77 -7.866 -4.941 -7.101501 -8.436001 -8.936 -8.385 -6.368 -5.276 
-14.4551 -13.0522 -9.344001 -9.289001 -8.321501 -10.9406 -9.925501 -9.539001 -10.075 -8.111 -7.3655 -7.254 -6.9085 -7.9265 -7.921 -8.5655 -8.472 -9.937501 -12.7315 -9.393001 -6.368 
-14.4936 -13.5517 -13.4134 -10.564 -12.4599 -12.1371 -12.0695 -10.7542 -10.904 -10.0315 -8.55 -7.5115 -8.0485 -7.953501 -11.9421 -9.052501 -9.977501 -13.6414 -13.7395 -9.393001 
-3.8005 -2.186 -1.8085 -3.8235 -2.3335 -5.3285 -1.4985 -3.959 -1.756 -4.2465 -3.711 -2.3335 -4.0555 -2.5195 -1.4985 -3.75 -1.7565 -4.317 -5.213 -4.3435 -3.7825 -4.6945 -3.277 -3.393 0 
-5.7585 -3.164 -4.9905 -5.742 -7.1765 -5.9025 -5.5 -5.173 -5.052 -6.7155 -5.501 -5.422501 -5.0775 -3.1695 -4.8715 -5.188 -5.877 -7.5465 -9.031 -6.41 -6.512 -5.913001 -4.243 -3.393 
-6.772 -6.3985 -6.4605 -8.7875 -7.6155 -10.1635 -6.985 -8.729 -7.395 -8.324 -8.3255 -6.3415 -5.8035 -6.005 -6.1545 -10.3155 -9.4715 -11.6353 -10.4195 -8.3105 -7.537001 -6.634501 -4.243 
-10.6249 -7.1365 -9.245001 -9.4335 -12.1597 -11.7669 -10.9406 -9.925501 -8.9525 -10.609 -9.622001 -7.0855 -7.9425 -7.890501 -10.7025 -13.91 -13.5777 -13.0238 -12.6398 -8.9825 -8.089001 -6.634501 
-11.3629 -9.808001 -10.0415 -14.2671 -13.7631 -15.7225 -12.1371 -11.483 -11.2819 -12.2961 -10.4525 -9.3415 -9.7135 -12.6037 -14.297 -18.0162 -14.9662 -15.2441 -13.3118 -9.507 -8.089001 
