-4.759 
n/a 
n/a 
n/a 
n/a 
-4.759 
n/a 
n/a 
n/a 
n/a 
-4.759 
n/a 
n/a 
n/a 
n/a 
-4.759 
n/a 
n/a 
n/a 
n/a 
-2.264 -3.531 -4.684 0 -2.543 -5.9825 -1.7565 -4.3075 -3.7515 -3.711 -3.152 -3.557 -1.934 -4.103 0 
-4.8755 -6.4115 -4.684 -2.543 -8.726501 -7.1245 -5.902 -5.822001 -7.1665 -5.7615 -5.1785 -4.4175 -5.541 -4.103 
-7.2665 -6.4115 -7.933 -8.726501 -10.718 -10.5745 -7.917 -8.976501 -9.070001 -7.775001 -5.9905 -7.523 -5.541 
-7.2665 -9.7075 -14.5101 -10.718 -14.168 -12.5895 -9.953501 -10.204 -11.2983 -8.621 -10.034 -7.523 
-10.7495 -16.3564 -16.5016 -14.168 -16.183 -14.626 -11.181 -12.7359 -12.1443 -13.0587 -10.034 
-3.777 -3.13 -3.6835 -2.543 -5.2995 -1.7695 -2.489 -4.673 -12.16972 
-5.5125 -7.559 -6.592 -8.201 -6.976501 -3.1405 -6.963 -17.82192 
-11.1775 -10.8317 -13.541 -10.1345 -9.061001 -7.4375 -20.68172 
-14.4502 -17.7807 -15.4745 -12.219 -13.4882 -21.15282 
-21.3992 -19.7142 -17.559 -16.6462 -27.20352 
-3.531 -3.13 0 -4.5735 -4.9225 -2.674 -2.543 -4.7885 -4.509 -1.934 -4.103 
-5.541 -3.13 -4.5735 -7.2555 -6.985 -6.07 -7.751 -8.175501 -6.389 -5.541 
-5.541 -8.4235 -7.2555 -9.436001 -10.8256 -11.724 -11.3916 -10.389 -10.131 
-11.8965 -11.4087 -9.436001 -13.4406 -16.4796 -15.3646 -13.6051 -14.131 
-14.8817 -13.5892 -13.4406 -19.0946 -20.1202 -17.5781 -17.3471 
-1.934 -10.9655 -2.264 -3.531 -3.13 -2.543 -4.5735 -3.6385 -2.229 -5.9825 -2.4945 -3.557 
-13.9059 -13.2295 -4.8755 -5.541 -5.3385 -7.728001 -7.56 -4.977 -8.2685 -7.5275 -5.304 
-16.1699 -15.841 -6.462501 -8.936001 -11.0297 -10.4675 -9.04 -11.9117 -9.512 -8.9905 
-18.7814 -17.428 -10.7175 -15.0016 -13.7692 -12.2165 -16.0905 -13.1552 -11.0918 
-20.3684 -21.683 -16.7831 -17.7411 -15.5182 -19.267 -17.334 -14.735 
