-4.759 
n/a 
n/a 
n/a 
n/a 
-4.759 
n/a 
n/a 
n/a 
n/a 
-4.759 
n/a 
n/a 
n/a 
n/a 
-4.759 
n/a 
n/a 
n/a 
n/a 
-1.934 -5.716 -3.0365 -2.186 -1.8085 -3.6065 -3.9555 -3.325 -1.4985 -3.7285 -5.5025 -2.7415 -4.1205 -2.3345 -4.088 -1.756 -6.81 -2.3615 -4.031 -1.934 -5.793 -3.5155 -3.959 -2.4945 -4.3325 -5.088 -2.5045 -4.6855 -1.7565 -4.559 -3.9555 0 
-7.4725 -9.231501 -3.66 -3.164 -4.464 -8.114 -6.9195 -3.898 -5.0645 -8.441501 -7.7125 -5.631001 -5.617 -7.0565 -5.1965 -8.654501 -9.02 -5.4055 -6.1545 -7.543 -9.557501 -6.0995 -5.624 -5.995501 -10.1595 -7.01 -6.941501 -7.671 -5.683 -9.3535 -3.9555 
-9.6975 -10.0195 -4.218 -6.005 -8.515501 -11.4334 -7.403501 -7.475 -9.799001 -10.8419 -10.1595 -6.916 -10.151 -8.0425 -9.0425 -11.1065 -13.5615 -7.388 -12.4261 -10.316 -12.3621 -7.253 -9.512501 -12.8021 -12.0815 -10.2435 -9.859001 -12.0619 -11.0827 -9.3535 
-10.5821 -10.627 -7.0135 -9.906 -12.0967 -11.9174 -11.5135 -12.7003 -12.332 -13.2889 -11.5797 -11.5516 -11.137 -11.509 -10.9035 -15.022 -15.4255 -13.8738 -15.1991 -13.1206 -13.5156 -11.4037 -16.2819 -14.7241 -15.315 -14.846 -14.2889 -17.4616 -11.0827 
-11.1896 -13.4225 -10.1585 -13.6076 -12.5807 -16.0274 -16.7388 -15.2333 -14.779 -14.7091 -16.2153 -12.5376 -14.6301 -13.5541 -15.8451 -17.3446 -22.1013 -16.6468 -18.0037 -14.2741 -17.6663 -18.1731 -18.2039 -17.9576 -19.9175 -19.2759 -19.6886 -17.4616 
-1.934 -5.716 -2.871 -5.3865 -2.186 -5.1605 -3.5155 -4.088 0 -4.4755 -1.934 -5.793 -2.925 -5.088 -3.918 
-7.4725 -9.4245 -7.6945 -7.509001 -6.7155 -8.528501 -7.5915 -4.088 -4.4755 -6.417 -7.543 -9.311001 -8.202001 -8.528501 
-10.2385 -14.5188 -11.11 -12.4039 -10.4265 -10.1305 -7.5915 -6.233001 -6.417 -9.0905 -9.7215 -14.8544 -11.8849 
-15.4768 -17.9343 -16.0049 -16.1149 -12.0285 -10.1305 -10.4345 -9.391001 -9.0905 -11.4338 -15.3965 -18.5373 
-18.8923 -22.8292 -19.7159 -17.7169 -12.0285 -13.0817 -13.5925 -12.3335 -11.4338 -17.1088 -19.0794 
-4.088 -1.756 -4.4755 -3.152 -4.2775 -3.959 -3.325 -2.871 -3.9725 -2.5195 -5.716 -1.756 -2.925 -3.4225 -3.894 -1.934 -5.793 -2.3345 -1.8085 -3.5035 -1.7565 -4.0375 -4.0555 -1.8085 -4.0965 -3.325 -3.4155 -4.559 0 
-5.1965 -6.2745 -7.45 -7.2025 -7.7775 -6.8285 -5.7585 -6.4505 -6.885 -8.2705 -7.9235 -4.2585 -7.889501 -7.38 -5.1635 -7.543 -8.364 -3.8605 -5.268 -5.0195 -5.9705 -7.9045 -6.0635 -6.302 -7.027501 -6.81 -5.0845 -4.559 
-6.8765 -8.35 -10.1725 -9.1415 -10.404 -9.129001 -8.835501 -9.737 -12.9044 -10.119 -10.757 -9.2025 -9.616001 -8.242001 -10.564 -9.2255 -10.1 -6.79 -6.5535 -9.4855 -9.3985 -9.6665 -11.254 -8.8835 -11.4861 -8.132501 -5.0845 
-8.687 -10.199 -12.6219 -12.3392 -12.7045 -12.1334 -12.3876 -15.913 -14.7529 -12.9525 -15.701 -10.7575 -10.9122 -14.0223 -12.2465 -10.397 -13.2901 -7.7135 -11.5727 -13.0775 -11.8567 -14.9454 -13.8355 -13.0743 -12.8086 -8.132501 
-10.2485 -12.7148 -15.8196 -14.6397 -15.7089 -15.6855 -18.5636 -17.7615 -17.5864 -17.8965 -17.256 -12.0537 -16.6925 -15.7048 -13.418 -13.7395 -14.2136 -12.9947 -15.1647 -15.5357 -17.1356 -17.5269 -18.0263 -14.3968 -12.8086 
-4.426 -1.7565 -1.4985 -3.0835 -4.7285 -4.1555 -3.147 -1.934 -2.3615 -3.158 -2.186 -5.716 -2.871 -1.7565 -1.4985 -5.847 -2.186 -3.6065 -3.5435 -1.7565 -4.088 -1.7695 -4.634 -3.873 -3.333 -1.7565 -5.793 -3.277 -1.7565 -2.871 -5.133 -4.0375 -1.7565 -1.4985 -4.267 0 -4.065 0 
-5.47 -2.4195 -3.535 -6.042 -8.4455 -5.77 -4.778 -3.539 -4.2655 -5.3735 -9.155001 -9.4245 -3.5385 -2.4195 -7.42 -8.093 -5.206 -7.1695 -4.9885 -5.0835 -6.1505 -6.996 -8.838 -7.920001 -4.76 -8.169001 -10.718 -4.296 -4.521 -8.504001 -7.134501 -5.415501 -2.4195 -5.119 -4.267 -4.065 -4.065 
-5.9535 -4.6785 -6.335501 -9.523001 -9.541501 -8.0725 -6.2335 -5.9105 -6.028 -12.7131 -12.9937 -9.793 -3.7675 -8.278501 -9.674001 -11.3804 -9.874001 -10.122 -8.091001 -7.021 -11.971 -11.613 -13.2392 -9.571001 -11.9903 -13.2336 -11.737 -7.685 -9.7935 -10.8653 -8.920501 -6.3465 -5.7705 -5.119 -8.007 -4.065 
-8.021 -7.476501 -10.0095 -10.7035 -11.844 -9.2635 -9.3675 -8.514 -13.587 -16.5518 -13.3622 -9.979 -10.2755 -10.7575 -12.9018 -16.0484 -12.8265 -13.2245 -9.799001 -13.1023 -16.588 -16.0142 -14.8902 -16.9945 -17.0549 -14.2526 -15.126 -13.5175 -12.212 -12.6513 -9.242001 -10.19 -5.7705 -8.632 -8.007 
-9.983001 -11.3061 -11.3 -13.006 -13.035 -12.6725 -11.5464 -16.131 -17.4257 -16.9203 -13.5482 -16.5104 -13.2341 -13.9853 -17.5698 -19.0009 -15.929 -14.9325 -15.8667 -17.7193 -20.9892 -17.6652 -22.3137 -22.0591 -18.0739 -17.6416 -20.9585 -15.936 -13.998 -12.9728 -13.9593 -10.19 -9.544001 -8.632 
