-4.759 
n/a 
n/a 
n/a 
n/a 
-4.759 
n/a 
n/a 
n/a 
n/a 
-4.759 
n/a 
n/a 
n/a 
n/a 
-4.759 
n/a 
n/a 
n/a 
n/a 
-6.567 -6.8725 -4.541 -4.622 -1.7565 -13.1505 -2.356 -4.191 -5.3955 -2.264 -12.16972 -8.896001 -7.8005 -3.7345 -3.326 -2.5045 -3.6115 -4.1375 0 
-12.5955 -9.72 -6.857 -8.154501 -10.3415 -12.7105 -6.344501 -9.009001 -7.6295 -15.46572 -21.06572 -17.0537 -12.0672 -6.4715 -5.561501 -6.1305 -5.713 -4.1375 
-16.47 -10.2355 -10.7495 -16.8826 -14.0498 -17.1304 -10.674 -10.451 -21.30402 -24.36172 -29.22342 -21.3204 -14.8042 -8.723001 -10.3475 -8.465 -5.713 
-16.9855 -14.128 -19.4776 -20.9074 -18.2799 -21.4599 -12.116 -24.45812 -30.20002 -32.51942 -33.49012 -24.0574 -17.0557 -13.9426 -12.682 -8.465 
-20.878 -22.8561 -23.5024 -25.0195 -22.6094 -22.9019 -26.12312 -33.35412 -38.35772 -36.78612 -36.22712 -26.3089 -22.2753 -16.2771 -12.682 
-3.288 -7.1525 -2.229 -16.41 -6.036 -2.356 -4.191 -5.3955 -2.7415 -4.622 -4.541 -2.5195 -1.4985 -3.6115 -4.1375 -1.7565 -1.4985 -6.3275 -6.523 -3.7345 -3.326 -3.307 -2.5045 -10.318 0 
-9.953001 -9.403001 -19.234 -22.8282 -8.058001 -6.344501 -9.009001 -8.081 -5.66 -7.6595 -7.3155 -3.1695 -4.081 -5.713 -5.5135 -2.4195 -8.724501 -9.702001 -10.8203 -6.4715 -5.021501 -5.3125 -13.5175 -10.318 
-11.2695 -27.1728 -25.6522 -24.8502 -12.3725 -10.674 -11.8465 -9.241 -8.3725 -9.0535 -7.971001 -5.891 -6.028501 -6.52 -5.755 -10.1635 -12.852 -14.0561 -13.5573 -8.476001 -6.731 -16.9683 -13.5175 
-29.4267 -33.7214 -27.6742 -29.1647 -16.702 -13.5115 -13.0065 -10.5985 -9.408501 -9.769 -10.367 -7.5165 -6.566501 -6.737 -14.2106 -13.9964 -17.2061 -16.7931 -15.5618 -10.1765 -19.1556 -16.9683 
-35.8449 -35.7434 -31.9887 -33.4942 -19.5395 -14.6715 -14.364 -11.6345 -10.135 -12.3674 -12.4485 -8.2075 -6.763 -15.409 -18.0435 -18.3505 -19.9431 -18.7976 -17.2623 -22.6579 -19.1556 
-3.288 -3.279 0 -3.8735 -2.229 -11.61 0 -5.4445 -4.99 -4.853 -2.6615 -5.3955 -2.7415 -4.541 -4.622 -2.5195 -1.4985 -3.6115 -4.1375 -1.7565 -7.233 -6.752501 -3.7345 -3.307 0 -8.006001 
-5.321 -3.279 -3.8735 -5.3655 -11.451 -9.798 -5.4445 -10.1815 -9.377001 -8.117001 -8.363001 -8.081 -6.1245 -6.857 -6.4445 -3.1695 -4.081 -5.713 -5.5135 -10.0315 -10.4115 -8.4995 -5.819 -3.307 -8.006001 
-5.321 -7.911 -5.3655 -14.7405 -10.621 -13.6745 -10.1815 -14.5685 -12.9398 -14.0313 -11.3201 -10.016 -7.606501 -8.3535 -7.071 -5.891 -6.028501 -6.52 -14.6589 -13.21 -10.4985 -9.220501 -5.819 -10.382 
-10.0345 -9.146001 -14.7385 -14.7385 -15.069 -18.529 -14.5685 -18.1313 -18.8541 -16.9884 -13.2551 -10.1085 -8.781501 -9.044001 -10.0345 -7.5165 -6.566501 -15.8722 -17.8374 -13.297 -11.5611 -9.220501 -10.6095 
-11.2695 -18.5724 -14.6615 -19.5865 -19.991 -23.067 -18.1313 -24.0456 -21.8112 -18.9234 -13.3476 -11.3553 -9.371 -12.3229 -11.66 -8.2075 -16.0385 -19.0507 -17.9244 -14.3596 -11.5611 -10.6475 
-2.264 -3.288 -4.9455 -1.8085 -4.99 -2.5195 -7.233 -9.746 -3.326 -3.307 -2.356 -2.6615 -5.3955 -2.7415 -4.622 -4.541 0 
-4.5935 -6.247 -7.823501 -6.138 -7.0725 -8.884501 -17.6742 -13.2204 -5.021501 -5.804501 -5.4465 -8.363001 -8.081 -5.66 -7.6595 -4.541 
-7.0205 -8.8195 -12.4068 -8.205 -14.2381 -19.8865 -21.1486 -14.9159 -7.897 -8.2145 -9.7705 -11.3201 -9.241 -8.3725 -7.6595 
-9.3675 -13.6732 -14.4738 -15.3196 -25.2401 -23.3609 -22.8441 -17.7914 -10.5784 -13.3345 -13.1796 -12.4801 -10.5985 -8.3725 
-14.3572 -15.7402 -21.5884 -26.3216 -28.7145 -25.0564 -25.7196 -20.4728 -15.6984 -16.7436 -14.3396 -13.8376 -10.5985 
