-4.759 
n/a 
n/a 
n/a 
n/a 
-4.759 
n/a 
n/a 
n/a 
n/a 
-4.759 
n/a 
n/a 
n/a 
n/a 
-4.759 
n/a 
n/a 
n/a 
n/a 
-1.4985 -2.5645 -4.6845 -1.7565 -6.5 
-5.093 -7.870501 -6.2415 -9.024 
-9.967 -9.724501 -14.091 
-11.8884 -17.6852 
-19.8491 
-4.3055 -5.608 -2.229 -3.8445 -4.1765 
-7.0285 -7.089 -5.9385 -8.2145 
-8.1985 -11.3271 -10.151 
-12.7474 -15.5396 
-16.9599 
-6.5 -2.229 -3.8445 -4.414 
-7.928501 -5.9385 -7.8595 
-12.1474 -9.814501 
-16.0234 
n/a 
-1.4985 -3.8445 -4.6845 -1.7565 -6.5 0 
-4.9855 -7.9445 -6.2415 -9.024 -6.5 
-9.271501 -9.767501 -14.091 -9.024 
-10.382 -17.7592 -14.091 
-18.3737 -17.7592 
