-4.759 
n/a 
n/a 
n/a 
n/a 
-4.759 
n/a 
n/a 
n/a 
n/a 
-4.759 
n/a 
n/a 
n/a 
n/a 
-4.759 
n/a 
n/a 
n/a 
n/a 
-7.193501 -9.146001 -3.644 -2.3335 -3.845 -1.7565 -5.0715 -2.4945 -4.2695 -2.0935 -3.135 -4.015 -4.985 -4.0645 -1.934 -2.3615 0 
-9.797501 -13.1282 -4.989501 -6.976001 -4.13 -6.297 -6.849 -7.357501 -6.33 -4.4665 -6.5365 -9.684501 -8.8645 -4.619 -3.539 -2.3615 
-14.9225 -14.4737 -9.803 -7.996001 -9.184501 -8.752501 -12.1324 -9.989501 -8.904501 -7.588 -12.5354 -13.5862 -9.269 -6.264 -3.539 
-16.268 -19.2872 -10.9714 -13.2421 -11.795 -14.1569 -14.7644 -12.6816 -12.1456 -13.8883 -16.4371 -13.9907 -11.1198 -6.264 
-21.0815 -20.4556 -16.2175 -15.8526 -17.1994 -16.7889 -17.4565 -15.9227 -18.4459 -17.79 -16.8416 -15.8415 -11.1198 
-8.4045 -4.985 -2.8645 -3.7555 -2.871 -7.01 0 -2.3335 -2.186 -8.253 -9.722501 -4.288 
-13.6877 -8.4755 -5.647 -5.889 -10.674 -7.01 -2.3335 -3.7085 -10.0415 -11.117 -14.1479 
-17.1782 -11.4504 -7.8955 -14.1138 -10.674 -9.316 -3.7085 -11.905 -13.2809 -15.5424 
-20.1531 -13.6989 -16.3517 -14.1138 -12.98 -10.1275 -11.905 -15.1444 -17.7063 
-22.4016 -22.1551 -16.3517 -16.4198 -13.7915 -18.5232 -15.1444 -19.5698 
-1.934 -2.3615 -3.135 -1.7565 -1.4985 -4.472 -8.894501 -2.4945 -8.977 
-3.539 -6.285501 -3.9195 -2.4195 -5.5535 -14.3403 -11.7758 -12.8997 
-8.295 -7.1585 -4.168 -6.751501 -16.6844 -17.2216 -22.181 
-9.077001 -7.5625 -8.1295 -17.6588 -19.5657 -27.6268 
-9.412001 -11.5972 -19.1996 -20.5401 -29.9709 
-3.1495 -8.573 -3.135 -4.6445 -3.3715 -3.319 -1.7565 -12.16972 -3.6785 -8.253 -10.4975 
-13.0177 -12.0618 -8.889501 -8.076 -7.602501 -4.165 -14.87542 -15.84822 -12.8943 -19.2947 
-16.5065 -17.8163 -12.5876 -12.6618 -7.992501 -18.14792 -18.55392 -25.06402 -23.936 
-22.261 -21.5144 -17.1734 -13.0518 -22.15502 -21.82642 -27.76972 -36.10572 
-25.9591 -26.1002 -17.5634 -27.21432 -25.83352 -31.04222 -38.81142 
