-4.759 
n/a 
n/a 
n/a 
n/a 
-4.759 
n/a 
n/a 
n/a 
n/a 
-4.759 
n/a 
n/a 
n/a 
n/a 
-4.759 
n/a 
n/a 
n/a 
n/a 
-3.995 -1.756 -4.4515 -3.458 -3.995 -3.874 -3.995 -6.114 0 
-5.3025 -6.289 -8.265501 -7.106 -7.315001 -9.3365 -9.814501 -6.114 
-7.31 -10.168 -10.304 -11.6116 -14.2687 -15.5122 -9.814501 
-11.6772 -12.2065 -15.3208 -18.5653 -20.4444 -15.5122 
-13.7157 -17.2233 -22.2745 -24.741 -20.4444 
-3.995 -3.458 -4.4515 -3.995 -3.874 -3.519 -1.7565 -3.737 -4.031 
-7.830501 -8.463 -7.647 -7.315001 -7.9025 -4.6225 -5.1295 -9.067 
-13.1833 -9.614 -11.382 -12.8347 -9.956 -7.642 -10.19 
-14.3343 -14.1474 -16.9017 -14.8882 -13.0735 -13.1637 
-18.8677 -19.6671 -18.9552 -18.0057 -18.5952 
-3.995 -3.458 -3.7075 -2.186 -3.6135 -3.519 
-7.830501 -7.441501 -5.825 -5.8795 -7.047501 
-10.7175 -10.3856 -9.502001 -9.712501 
-14.3544 -14.0626 -13.4656 
-18.0314 -18.0262 
-4.8325 0 -4.577 -6.3815 -1.934 -1.4985 -4.0965 -3.2 -8.1215 -1.4985 -4.0925 -3.458 -1.4985 -5.015 -1.7565 -2.664 -3.841 -1.756 -3.1435 -5.408 0 
-4.8325 -4.577 -7.2955 -7.6405 -2.6125 -5.3025 -6.548501 -9.9355 -8.6535 -6.058001 -5.695 -4.063 -6.094 -6.264 -3.9595 -5.0085 -5.562 -4.1365 -6.549 -5.408 
-9.9305 -7.2955 -9.2135 -8.240001 -6.284 -6.979 -10.6215 -10.508 -10.674 -6.4385 -6.1915 -8.469 -6.712 -8.851001 -5.8265 -6.6655 -7.113 -6.8695 -6.549 
-12.8174 -9.2135 -10.1815 -10.249 -7.712501 -10.6335 -10.6945 -10.694 -10.697 -6.937 -10.434 -9.068001 -9.2425 -9.995501 -7.388 -7.924 -9.294001 -6.8695 
-14.7354 -10.1815 -12.1905 -10.656 -10.6735 -10.6945 -10.7175 -10.717 -10.796 -10.6215 -10.599 -10.477 -10.1855 -10.6935 -8.426001 -9.708 -9.294001 
