-4.759 
n/a 
n/a 
n/a 
n/a 
-4.759 
n/a 
n/a 
n/a 
n/a 
-4.759 
n/a 
n/a 
n/a 
n/a 
-4.759 
n/a 
n/a 
n/a 
n/a 
-8.107 -3.2955 -3.582 -5.988 
-11.8007 -7.4125 -8.411501 
-15.9177 -12.5734 
-21.0786 
n/a 
-7.5835 -3.2955 -3.582 -5.1475 -4.921 0 
-10.7665 -7.4125 -6.741 -8.145 -4.921 
-14.8835 -10.1675 -9.527 -8.145 
-17.6385 -12.9535 -9.527 
-20.4245 -12.9535 
-12.16972 -3.2955 -3.582 -4.878 -5.988 0 
-15.46522 -7.4125 -7.304501 -8.2995 -5.988 
-19.58222 -11.4664 -11.022 -8.2995 
-23.63612 -15.1839 -11.022 
-27.35362 -15.1839 
-5.4175 -6.7085 -3.2955 -3.582 -5.988 
-7.1765 -10.348 -7.4125 -8.411501 
-10.5745 -14.7134 -12.5734 
-15.0071 -19.8743 
-20.168 
