-4.759 
n/a 
n/a 
n/a 
n/a 
-4.759 
n/a 
n/a 
n/a 
n/a 
-4.759 
n/a 
n/a 
n/a 
n/a 
-4.759 
n/a 
n/a 
n/a 
n/a 
-3.17 -1.7565 -1.4985 -8.007 -3.586 -1.4985 -3.6615 -3.43 -1.7695 -1.4985 -3.64 -1.7565 -5.675 0 -5.113 -1.4985 -3.6615 -1.934 -1.4985 -4.017 -2.4945 -3.4625 -4.357 0 
-4.179 -2.4195 -10.0315 -12.1902 -5.649 -4.9455 -5.783501 -4.647 -2.7955 -5.3715 -5.246 -7.690501 -5.675 -5.113 -7.114501 -4.9455 -4.437 -2.6125 -5.562 -5.7495 -4.7105 -6.592 -4.357 
-4.497 -11.1433 -14.2147 -14.2532 -8.8195 -6.501 -6.189001 -5.3235 -6.8805 -5.952 -11.8766 -7.690501 -11.421 -7.114501 -10.2595 -5.731 -5.0245 -6.7225 -7.003001 -7.9895 -7.2745 -6.592 
-13.7568 -15.3265 -16.2777 -17.4237 -10.3605 -6.923 -6.534501 -9.2255 -7.422 -13.0532 -11.8766 -13.8139 -13.4225 -10.2595 -10.6565 -6.1885 -8.317 -8.936001 -9.081501 -11.0527 -7.2745 
-17.94 -17.3895 -19.4482 -18.9647 -11.0845 -7.203001 -9.9715 -9.809501 -14.6998 -13.0532 -18 -15.8154 -16.5675 -10.6565 -11.114 -9.7425 -11.3009 -11.3021 -12.2017 -11.0527 
-1.934 -2.3615 -3.673 0 -2.3585 -2.7765 -3.319 -1.934 -1.4985 -3.397 -2.3335 -2.3585 -3.465 -1.7695 -3.1715 0 -3.3425 -4.1145 -5.1085 -1.7695 -3.866 -1.4985 -3.397 -1.756 -3.1715 -2.8965 -4.16 -3.115 -3.6965 -1.756 -4.2615 -1.8085 -3.874 -3.7775 -1.7695 -4.1145 -5.1085 -2.7765 -2.489 -4.4795 -1.934 -1.8085 -2.688 -3.959 -2.3345 -4.433 -4.5095 -3.0785 0 0 -3.557 -3.9615 -1.4985 -3.619 -2.9775 0 -4.0105 
-3.539 -5.457 -3.673 -2.3585 -3.3835 -5.8465 -5.132 -2.6125 -4.6405 -5.776 -3.8035 -3.9825 -3.665 -4.257 -3.1715 -3.3425 -7.487 -6.481 -6.911001 -5.982501 -5.586 -4.6405 -5.144 -4.8895 -5.974 -6.037 -6.7305 -7.107 -5.0215 -5.848 -6.5675 -4.814 -5.6635 -4.781 -6.501 -6.481 -7.9455 -3.495 -5.693501 -5.502 -3.2685 -3.642 -4.9925 -6.43 -4.6625 -10.022 -7.1765 -3.0785 0 -3.557 -6.427 -4.716 -5.662001 -6.7165 -2.9775 -4.0105 
-6.259 -5.457 -6.077 -3.3835 -6.416 -6.9655 -5.686 -5.4535 -6.4655 -6.9505 -5.4065 -4.1935 -5.5895 -4.257 -7.598001 -7.487 -8.5845 -8.226501 -8.453501 -6.712 -7.5135 -6.056 -7.855 -7.762 -8.664001 -8.091001 -9.060501 -8.1545 -8.035501 -8.033 -9.484501 -6.675 -7.1365 -9.7305 -8.290501 -9.387 -8.156501 -6.4145 -6.661 -6.9585 -4.9515 -5.1915 -7.8465 -7.243001 -10.442 -12.689 -7.1765 -3.0785 -3.557 -6.427 -7.019 -8.7095 -7.882501 -6.7165 -6.872001 
-6.259 -7.209001 -6.6365 -6.416 -7.0895 -7.580501 -7.4635 -7.456 -7.3745 -7.5325 -5.554 -5.9275 -5.5895 -7.955 -12.2071 -8.5845 -9.616001 -10.4945 -10.335 -7.985001 -9.005 -8.5045 -10.0885 -9.712 -9.928 -10.494 -9.790501 -9.820001 -10.434 -11.1192 -10.0935 -7.537 -10.4935 -11.5632 -11.8245 -9.6295 -11.4956 -7.2995 -7.553 -7.491 -5.2955 -8.2065 -8.656501 -13.6101 -13.109 -12.689 -7.1765 -7.5115 -6.427 -7.019 -10.6215 -10.564 -7.882501 -8.003 
-8.132501 -8.031501 -8.4205 -7.0895 -7.6755 -9.228001 -8.596001 -8.449 -7.794001 -7.623001 -7.221 -5.9275 -9.458 -13.0785 -13.3046 -9.616001 -12.6146 -12.376 -10.7445 -9.427 -10.181 -10.2915 -12.3333 -10.4055 -12.403 -11.224 -10.3445 -12.4891 -13.5202 -11.7282 -11.5305 -11.2092 -12.6162 -15.0972 -12.067 -13.4278 -12.3806 -8.405001 -7.9085 -7.6555 -8.363001 -9.02 -15.514 -16.2771 -13.109 -12.689 -12.4681 -10.6545 -7.019 -10.6215 -12.476 -10.564 -8.01 
-3.17 -1.7565 -1.4985 -4.1145 -3.64 -2.4285 -4.354 -1.756 -1.4985 -3.6615 -3.43 -3.5455 -4.5095 -2.4945 -4.357 -2.9775 -2.3345 -2.9775 0 
-4.179 -2.4195 -5.3525 -5.99 -5.851 -6.650001 -6.0865 -3.0405 -4.9455 -5.783501 -5.916 -7.467501 -7.5565 -6.0385 -7.877001 -5.580501 -6.0635 -2.9775 
-4.497 -6.764501 -7.3005 -8.0295 -11.2027 -8.458 -7.861 -6.511 -6.501 -7.5965 -9.6285 -9.894501 -11.4757 -10.051 -10.264 -6.433001 -6.0635 
-8.5705 -7.753 -9.542001 -14.2464 -13.0107 -9.368501 -9.536 -8.093 -8.4805 -10.167 -12.1535 -13.9127 -15.4882 -12.6214 -10.4765 -6.433001 
-9.617001 -10.575 -15.9301 -16.0544 -13.9212 -11.4421 -10.7345 -10.103 -11.2054 -12.7768 -16.1717 -17.9252 -18.0586 -12.8339 -10.4765 
-3.3715 -1.7565 -1.4985 -5.4085 -2.674 -1.4985 -3.886 -1.7565 -3.6615 -3.43 -1.934 -1.4985 -4.1145 -3.64 0 -3.345 -3.9665 -1.7565 -2.3615 -2.9775 -2.186 -3.074 -4.357 0 
-4.3215 -2.4195 -7.439501 -7.801001 -3.998 -5.443 -5.2465 -5.23 -5.783501 -4.639 -2.6125 -5.3525 -5.99 -3.64 -3.345 -7.738501 -5.64 -3.523 -3.809 -4.91 -4.156 -6.8605 -4.357 
-4.7025 -8.306001 -9.9455 -9.500501 -7.9165 -6.1155 -8.438001 -7.0515 -6.683001 -5.242 -6.54 -7.3005 -5.99 -6.837 -7.738501 -8.862 -6.834001 -5.138 -5.1535 -6.684 -7.133 -6.8605 
-10.0375 -10.6215 -11.7332 -13.7588 -8.7735 -9.71 -9.267 -8.1285 -7.074501 -9.5655 -8.68 -7.3005 -9.783 -11.7199 -8.862 -10.5535 -9.743501 -6.3875 -6.7515 -10.8076 -7.133 
-12.353 -12.4092 -15.9915 -14.6158 -12.4178 -11.0148 -10.8946 -8.6075 -10.426 -11.9059 -8.68 -12.0049 -14.7565 -12.8434 -10.5535 -13.463 -10.6765 -8.057 -11.8221 -10.8076 
