-4.759 
n/a 
n/a 
n/a 
n/a 
-4.759 
n/a 
n/a 
n/a 
n/a 
-4.759 
n/a 
n/a 
n/a 
n/a 
-4.759 
n/a 
n/a 
n/a 
n/a 
-2.5045 -2.911 -4.5745 -2.674 -3.4865 -3.16 -4.3565 -2.0935 -3.277 -1.756 -2.5685 -1.4985 -3.16 -3.7205 -2.4945 -4.4475 -1.7695 -1.4985 -3.535 -4.155 -4.204 -1.4985 -4.031 -1.7565 -1.4985 -3.7205 -2.4945 -5.186 -1.934 -1.4985 -2.911 -4.5745 -1.934 -1.8085 -3.7375 -3.4795 0 
-6.3625 -4.953 -6.7615 -5.966 -6.88 -6.782001 -5.712 -4.694 -4.6335 -4.2335 -3.7015 -4.0625 -6.832 -6.063001 -5.6245 -4.769 -2.7955 -4.255 -8.3955 -9.263 -5.8825 -4.937 -4.8995 -2.4195 -5.829 -6.063001 -6.5835 -6.4505 -2.6125 -4.6515 -4.953 -6.3635 -3.2685 -3.8995 -4.985 -3.4795 
-7.5055 -7.129001 -9.7165 -9.5145 -10.757 -7.997 -8.487 -5.876 -6.844501 -5.11 -6.586 -7.416 -8.781 -8.861 -5.804 -5.561 -5.3815 -8.911501 -13.9799 -11.4503 -9.193501 -5.0545 -5.3865 -6.594501 -7.4985 -8.318001 -7.6035 -7.149 -5.5885 -5.987 -6.8505 -7.7585 -5.2225 -5.149 -4.985 
-9.125501 -9.880001 -13.4752 -13.6799 -11.972 -10.7175 -9.797501 -8.083 -7.635 -8.5895 -9.838 -9.457001 -11.933 -9.764001 -6.6745 -7.8395 -10.5035 -14.7349 -16.1672 -14.7613 -9.366 -5.5065 -9.522 -8.571 -9.907701 -10.674 -8.024501 -7.7305 -6.715 -7.839001 -8.352501 -9.410501 -6.1815 -5.149 
-12.1667 -13.7833 -17.6406 -14.8949 -14.6925 -12.028 -12.0045 -8.7865 -11.3087 -12.1487 -12.564 -12.462 -12.836 -10.5565 -8.7825 -13.0891 -16.3269 -16.9222 -19.4782 -14.9338 -9.5825 -9.551001 -10.2345 -11.0568 -12.2637 -11.095 -9.701501 -8.337501 -8.671 -9.074501 -9.518001 -10.1235 -6.1815 
-3.5065 -3.6055 -2.911 -3.974 -2.8645 -3.1435 -4.8845 -3.4515 -1.7565 -3.7205 -1.934 -2.985 -3.5205 -3.5495 -1.756 -2.5685 -1.4985 -2.911 -4.5745 -2.4945 -4.4475 -2.264 -1.4985 -3.5025 0 -3.5445 -3.815 -3.8405 -1.4985 -4.031 -1.7565 -1.8085 -3.308 -2.742 -2.489 -4.0445 -2.264 -1.4985 -2.911 -4.5745 0 
-6.6425 -7.161 -4.4735 -6.5205 -5.22 -9.908501 -7.827 -4.611 -6.06 -5.7775 -4.111 -4.257 -6.571 -5.1075 -4.2335 -3.7015 -4.6515 -4.953 -6.235 -5.6245 -6.9935 -2.9195 -4.16 -3.5025 -3.5445 -7.152 -5.7745 -5.224 -4.937 -4.8995 -3.2595 -4.9475 -6.255 -3.301 -5.4245 -5.0845 -2.9195 -4.6515 -4.953 -4.5745 
-9.7665 -7.864 -7.3395 -8.325001 -12.8346 -12.7922 -10.151 -10.2925 -7.695001 -8.3645 -5.3075 -7.689 -7.638 -7.368001 -5.11 -7.3465 -5.987 -6.7085 -9.609501 -8.0275 -7.4045 -4.745 -4.16 -7.4215 -7.152 -8.7425 -7.6485 -9.0835 -5.0545 -6.0985 -6.785 -8.06 -6.898 -6.1295 -6.2385 -5.451 -6.1715 -5.987 -4.953 
-10.37 -9.021001 -8.685 -16.5086 -15.7183 -15.1162 -15.8325 -11.9275 -9.67 -9.267501 -9.446501 -8.675501 -9.901 -8.151501 -9.058001 -7.852 -7.5645 -10.269 -12.0083 -8.426001 -9.5585 -4.745 -7.4905 -10.168 -8.7425 -10.76 -11.5796 -9.170501 -6.196 -9.512501 -9.5135 -8.745501 -8.047501 -6.729 -6.641 -8.300001 -7.214 -5.987 
-11.527 -9.429001 -17.3176 -19.3923 -18.0423 -20.7977 -17.4675 -13.9025 -10.573 -13.8139 -10.6298 -11.1095 -10.753 -12.5547 -9.550501 -9.341001 -11.449 -12.6678 -12.4068 -10.553 -9.5585 -7.961 -10.185 -12.0825 -10.76 -14.6911 -11.6666 -10.6056 -9.595 -12.2544 -10.2245 -10.1722 -8.06 -7.247 -9.243 -8.585001 -7.214 
-4.7935 -2.5685 -4.0135 -1.7565 -3.4605 -8.055 -1.7695 -1.4985 -3.16 -3.8925 -7.071 -2.186 -3.2955 -2.3345 -1.4985 -2.911 -4.5745 
-8.736501 -6.252501 -4.201 -6.0775 -12.3633 -10.3967 -2.7955 -4.0625 -4.8765 -10.8625 -8.4015 -4.348001 -4.534 -3.233 -4.6515 -4.953 
-12.6375 -6.31 -7.584001 -15.5923 -14.705 -11.4227 -5.483 -6.238 -12.5965 -12.193 -9.5735 -5.5695 -5.117 -6.703001 -5.987 
-12.695 -9.753501 -17.8124 -17.934 -15.731 -14.1102 -7.418 -14.4706 -13.927 -13.365 -11.6872 -6.103 -8.071 -7.236001 
-16.1385 -20.2025 -20.1541 -18.96 -18.4185 -16.0452 -15.981 -15.8011 -15.099 -15.4787 -12.2207 -8.9945 -8.5515 
-4.3565 -1.934 -4.2115 -3.7875 -3.5205 -3.9915 -3.0415 -2.7835 -2.7295 -3.5795 -1.4985 -3.9915 -3.1435 -4.243 -8.324 
-6.307 -6.932 -8.124001 -7.9945 -7.027 -6.665 -4.8735 -4.405 -6.1675 -4.5845 -5.031 -7.436501 -8.25 -14.122 
-11.8606 -10.7025 -12.5132 -11.9716 -9.057001 -8.137501 -6.3315 -7.4125 -6.996 -7.105 -9.476501 -13.0802 -18.4562 
-15.6311 -15.0917 -16.4903 -14.0016 -10.6923 -9.691501 -9.476501 -7.98 -9.873501 -12.4859 -15.2732 -23.2864 
-20.0203 -19.0688 -18.5203 -15.6369 -12.2463 -13.1803 -10.1955 -10.8841 -15.5746 -18.2826 -25.4794 
