-4.759 
n/a 
n/a 
n/a 
n/a 
-4.759 
n/a 
n/a 
n/a 
n/a 
-4.759 
n/a 
n/a 
n/a 
n/a 
-4.759 
n/a 
n/a 
n/a 
n/a 
-6.0155 -4.318 -6.225 -3.9375 0 
-7.6005 -7.6365 -7.876501 -3.9375 
-7.6455 -8.015 -7.876501 
-8.0195 -8.015 
-8.0195 
-6.0155 -4.318 -6.225 -3.845 0 -6.9845 0 
-7.6005 -7.6365 -7.929 -3.845 -6.9845 -6.9845 
-7.6455 -7.979001 -7.929 -8.7425 -6.9845 
-7.9825 -7.979001 -8.8105 -8.7425 
-7.9825 -8.812 -8.8105 
-6.0155 -4.318 -6.225 -3.845 
-7.6005 -7.6365 -7.929 
-7.6455 -7.979001 
-7.9825 
n/a 
-6.0155 -4.318 -6.225 -3.845 0 -6.9845 0 
-7.6005 -7.6365 -7.929 -3.845 -6.9845 -6.9845 
-7.6455 -7.979001 -7.929 -8.7425 -6.9845 
-7.9825 -7.979001 -8.8105 -8.7425 
-7.9825 -8.812 -8.8105 
