-4.759 
n/a 
n/a 
n/a 
n/a 
-4.759 
n/a 
n/a 
n/a 
n/a 
-4.759 
n/a 
n/a 
n/a 
n/a 
-4.759 
n/a 
n/a 
n/a 
n/a 
-1.934 -7.112 0 -8.954 -2.855 -4.1145 0 -2.7415 -3.9535 -2.264 -3.524 -3.522 
-7.177 -7.112 -8.954 -10.598 -8.0795 -4.1145 -2.7415 -5.83 -5.513 -4.855 -5.537 
-7.177 -16.6702 -10.598 -15.8225 -8.0795 -7.489 -5.83 -7.1055 -7.951001 -8.717501 
-16.8002 -18.3142 -15.8225 -15.8225 -12.1256 -9.408501 -7.1055 -9.17 -11.7785 
-18.4442 -23.5387 -15.8225 -19.8686 -14.0451 -10.271 -9.17 -13.0253 
-3.0835 -1.934 -12.16972 -3.531 -2.855 -4.184 -4.1145 -2.229 -3.524 -3.522 -3.737 0 
-5.265 -15.11012 -15.70072 -5.2325 -5.956 -8.611 -6.818501 -6.32 -5.537 -7.442 -3.737 
-19.00012 -18.64112 -17.40222 -7.091001 -10.9252 -12.3054 -11.5995 -8.34 -9.2665 -7.442 
-22.53112 -20.34262 -19.26072 -12.5328 -14.6196 -17.0864 -13.6195 -12.5427 -9.2665 
-24.23262 -22.20112 -24.70252 -16.2272 -19.4006 -19.1064 -17.8222 -12.5427 
-3.0835 0 -1.934 -12.16972 0 -2.5045 -9.246 -2.855 -4.1145 0 0 -3.524 -3.522 0 -7.787 0 
-3.0835 -1.934 -15.11012 -12.16972 -2.5045 -12.4455 -12.3558 -8.0795 -4.1145 0 -3.524 -5.537 -3.522 -7.787 -7.787 
-5.265 -15.11012 -15.11012 -14.67422 -12.4455 -15.5553 -17.5803 -8.0795 -4.1145 -3.524 -5.537 -5.537 -11.8578 -7.787 
-19.00012 -15.11012 -17.61462 -24.61522 -15.5553 -20.7798 -17.5803 -8.0795 -8.554001 -5.537 -5.537 -14.3232 -11.8578 
-19.00012 -17.61462 -27.55562 -27.72502 -20.7798 -20.7798 -17.5803 -10.0815 -10.836 -5.537 -14.3232 -14.3232 
-3.524 -3.522 
-5.537 
n/a 
n/a 
n/a 
