-4.759 
n/a 
n/a 
n/a 
n/a 
-4.759 
n/a 
n/a 
n/a 
n/a 
-4.759 
n/a 
n/a 
n/a 
n/a 
-4.759 
n/a 
n/a 
n/a 
n/a 
-2.664 -6.1245 -1.934 
-9.2825 -9.1735 
-12.5541 
n/a 
n/a 
-1.8085 -3.264 -1.934 -3.691 0 
-4.241 -5.337501 -4.8225 -3.691 
-6.396501 -8.497001 -4.8225 
-9.9505 -8.497001 
-9.9505 
-3.1435 -1.8085 -3.264 -2.9705 -2.186 -1.934 -3.691 0 
-5.211 -4.241 -6.126 -3.89 -4.0835 -4.8225 -3.691 
-8.561501 -7.122 -6.6545 -5.7145 -7.596 -4.8225 
-10.9283 -7.672 -8.709001 -9.150001 -7.596 
-11.4783 -9.788 -12.4695 -9.150001 
-1.8085 -3.264 -1.934 -3.691 
-4.241 -5.337501 -4.8225 
-6.396501 -8.497001 
-9.9505 
n/a 
