-4.759 
n/a 
n/a 
n/a 
n/a 
-4.759 
n/a 
n/a 
n/a 
n/a 
-4.759 
n/a 
n/a 
n/a 
n/a 
-4.759 
n/a 
n/a 
n/a 
n/a 
-1.4985 -8.253 -7.9205 -2.186 -4.164 -2.5045 -3.8385 -1.934 -1.4985 -3.5455 -3.75 -1.756 -4.814 -1.934 -1.4985 -3.502 -3.75 -3.0695 -5.85 -1.4985 -3.873 -2.264 -1.4985 -4.84 -3.98 -2.3345 -1.8085 -4.1455 -5.081 -3.519 0 
-9.8875 -16.7177 -9.499001 -5.337 -5.2235 -5.9465 -5.627501 -2.6125 -4.554 -5.228001 -5.1985 -6.07 -6.434 -2.6125 -4.5955 -5.0795 -7.2735 -8.2795 -6.767 -4.7405 -5.824 -2.9195 -6.198 -8.211 -6.396501 -3.8605 -5.4825 -7.9635 -7.467501 -3.519 
-18.3522 -18.2962 -12.7256 -6.0985 -9.278501 -8.8725 -6.152 -5.298 -5.962 -6.806001 -10.6583 -7.665 -7.0555 -5.258 -5.9935 -8.755501 -12.6941 -9.4215 -9.795501 -6.7025 -6.371 -7.985501 -9.185 -10.022 -8.237 -7.077 -8.691 -10.259 -7.467501 
-19.9307 -21.5228 -13.4871 -10.238 -12.1487 -9.52 -9.0635 -6.3795 -7.1005 -12.7404 -12.2533 -8.4685 -10.396 -6.441501 -8.878501 -14.3767 -13.8361 -12.5748 -12.3291 -7.540501 -11.9706 -11.0523 -11.0254 -12.1255 -11.7579 -10.286 -11.1943 -10.259 
-23.1573 -22.2843 -17.6266 -13.2242 -12.7962 -12.4607 -9.97 -7.538001 -13.1635 -14.3354 -13.0568 -11.8694 -11.5795 -9.1645 -14.5151 -15.5187 -16.9894 -15.1084 -13.1671 -13.4685 -15.0374 -12.8927 -13.1289 -15.6464 -14.9669 -12.8807 -11.1943 
-2.4265 -3.644 -5.717 -1.8085 -3.6385 -4.84 -1.934 -2.3615 -3.7075 -2.186 -4.85 -3.383 -3.301 -2.3615 -3.7075 -2.186 -4.8115 -3.7575 -3.8385 0 -1.756 -4.7015 -3.7575 -4.7055 0 
-5.2615 -9.687501 -8.4855 -4.581 -7.808001 -6.161 -3.539 -5.029 -5.196 -6.283501 -7.6175 -4.6415 -6.1505 -5.029 -5.196 -7.794001 -7.2225 -7.198501 -3.8385 -1.756 -6.2 -7.055501 -7.7755 -4.7055 
-10.733 -12.5984 -11.4114 -8.518001 -8.56 -8.1875 -6.699 -5.7385 -9.4195 -8.286501 -9.370501 -7.247001 -9.395 -5.7385 -11.515 -10.8308 -11.4025 -7.198501 -5.126 -6.2 -9.121 -11.7615 -7.7755 
-13.6439 -15.5243 -15.3484 -9.1055 -11.0285 -11.7941 -7.962 -9.9775 -11.5221 -10.341 -12.2726 -10.476 -9.907001 -12.6141 -14.5518 -15.0108 -11.4025 -9.194 -10.5504 -9.121 -14.027 -11.7615 
-16.5698 -19.4613 -15.9359 -11.8376 -14.6351 -13.0571 -12.3968 -12.2531 -13.5766 -13.2431 -15.5016 -10.988 -16.7826 -15.6509 -18.7318 -15.0108 -13.398 -14.6856 -13.4714 -14.027 -14.027 
-3.1495 -8.590501 -1.934 -4.1865 -3.6885 0 -8.253 -9.868501 -2.186 -4.954 -1.934 -4.3855 -3.115 -3.8385 -3.8685 -2.186 -1.934 -7.295501 -1.756 -4.4215 -1.934 -10.316 0 
-13.0352 -10.5975 -6.483 -8.604 -3.6885 -8.253 -18.6657 -12.1289 -6.504001 -6.695001 -6.441 -7.066501 -7.3935 -7.1335 -5.4355 -4.0835 -6.532001 -6.6765 -6.7345 -7.505 -10.412 -8.8405 
-15.0422 -15.1465 -11.6069 -8.604 -13.1439 -18.6657 -20.9261 -16.4469 -8.096001 -11.676 -9.475 -12.0692 -10.6465 -8.573501 -7.263 -9.307 -8.219501 -12.205 -9.198 -15.9662 -10.199 
-19.5912 -20.2704 -11.6069 -18.3802 -23.5566 -20.9261 -25.2441 -18.0389 -13.2666 -14.71 -14.4205 -15.3222 -12.0865 -10.5476 -12.2325 -11.0035 -14.3036 -15.1431 -17.8514 -15.9662 
-24.7151 -20.2704 -21.3831 -28.7929 -25.817 -25.2441 -26.8361 -23.2095 -16.3006 -19.6555 -17.6735 -16.7622 -14.0606 -15.5171 -14.0602 -17.2421 -17.0929 -23.7965 -17.8514 
-2.3615 -5.2145 -4.4385 -1.7695 -3.7855 -3.75 -3.641 -7.358 -1.756 -3.5455 -3.502 -4.7055 -1.7695 -4.3855 -3.6385 -4.4385 
-7.404 -8.724001 -6.268001 -6.837501 -8.683001 -5.5645 -12.1786 -8.861501 -5.308001 -5.649 -8.129001 -6.4835 -5.2685 -8.068501 -8.632501 
-11.2583 -11.0807 -10.151 -11.8528 -10.523 -14.9215 -13.6821 -13.0821 -7.410501 -9.468 -10.068 -10.1765 -9.1745 -13.6933 
-13.615 -14.9637 -15.4937 -13.6928 -19.88 -16.425 -17.9027 -15.1846 -11.5585 -11.6096 -13.761 -14.0825 -14.9685 
-17.498 -20.3064 -17.3337 -23.0498 -21.3835 -20.6456 -20.0052 -19.3326 -13.7001 -15.3026 -17.667 -19.8765 
