-4.759 
n/a 
n/a 
n/a 
n/a 
-4.759 
n/a 
n/a 
n/a 
n/a 
-4.759 
n/a 
n/a 
n/a 
n/a 
-4.759 
n/a 
n/a 
n/a 
n/a 
-4.936 -4.348 -4.4715 0 -5.8645 0 
-8.4525 -7.692 -4.4715 -5.8645 -5.8645 
-8.877501 -7.692 -9.621 -5.8645 
-8.877501 -9.742001 -9.621 
-9.776001 -9.742001 
-4.3395 -4.348 -4.4715 0 -5.8645 0 
-7.647501 -7.692 -4.4715 -5.8645 -5.8645 
-10.703 -7.692 -9.621 -5.8645 
-10.703 -9.742001 -9.621 
-13.5148 -9.742001 
-4.936 -4.348 -4.4715 
-8.4525 -7.692 
-8.877501 
n/a 
n/a 
-4.936 -4.348 -9.784 0 -5.8645 0 
-8.4525 -15.1312 -9.784 -5.8645 -5.8645 
-19.8455 -15.1312 -15.7129 -5.8645 
-19.8455 -21.0601 -15.7129 
-25.7744 -21.0601 
