-4.759 
n/a 
n/a 
n/a 
n/a 
-4.759 
n/a 
n/a 
n/a 
n/a 
-4.759 
n/a 
n/a 
n/a 
n/a 
-4.759 
n/a 
n/a 
n/a 
n/a 
-2.3615 -3.188 -2.4945 -4.666 0 -2.3335 -3.188 -2.4945 -4.666 
-5.2525 -5.7045 -8.5595 -4.666 -2.3335 -6.29 -5.7045 -8.5595 
-7.132 -12.1657 -8.5595 -7.656001 -6.29 -8.8205 -12.1657 
-14.0162 -12.1657 -11.8507 -11.9037 -8.8205 -15.3421 
-14.0162 -15.4569 -16.0984 -14.4342 -15.3421 
-12.16972 -5.9955 0 -12.16972 -5.9955 
-18.16522 -5.9955 -12.16972 -18.16522 
-18.16522 -18.78502 -18.16522 
-30.95474 -24.78052 
-36.95024 
-3.074 -2.3615 -3.188 -1.756 -2.3335 -3.188 0 
-5.959001 -5.2525 -4.863 -4.016 -6.29 -3.188 
-9.528501 -6.4035 -6.621 -8.1095 -6.29 
-10.8717 -7.891 -8.965501 -8.1095 
-12.3592 -9.7205 -8.965501 
-1.934 -2.3615 -3.188 -1.756 -2.3335 -3.188 
-3.539 -5.2525 -4.863 -4.016 -6.29 
-5.714 -6.4035 -6.621 -8.1095 
-6.7955 -7.891 -8.965501 
-8.153001 -9.7205 
