-4.759 
n/a 
n/a 
n/a 
n/a 
-4.759 
n/a 
n/a 
n/a 
n/a 
-4.759 
n/a 
n/a 
n/a 
n/a 
-4.759 
n/a 
n/a 
n/a 
n/a 
-2.264 -1.4985 -4.328 -2.5195 -3.9185 0 -2.9805 -3.9955 -1.934 -1.4985 -4.219 -1.756 -3.1015 -3.251 -1.4985 -4.2055 -1.7565 -3.4625 -4.432 -4.328 -2.0935 -1.4985 -3.859 -2.95 0 
-2.9195 -5.3 -6.7895 -5.9165 -3.9185 -2.9805 -5.513 -6.0695 -2.6125 -5.129 -5.83 -4.642 -6.3485 -4.5775 -5.0445 -4.859 -4.684 -7.955 -4.899 -5.409 -2.9725 -4.4795 -5.741 -2.95 
-6.9635 -7.8205 -9.1665 -5.9165 -6.438 -5.513 -7.363 -6.732 -6.29 -6.4875 -8.148001 -7.8 -7.355 -6.118 -5.864 -6.364 -8.877501 -8.3505 -7.1335 -6.4255 -5.6185 -5.949 -5.741 
-9.5825 -10.503 -9.1665 -8.8005 -8.4865 -7.363 -8.120501 -9.274 -7.625501 -8.5845 -11.5244 -8.944 -8.717501 -7.896 -7.4505 -9.8605 -9.0155 -9.9405 -7.841001 -8.2205 -6.351501 -5.949 
-12.3674 -10.503 -12.1807 -11.016 -10.598 -8.120501 -10.0675 -10.4945 -9.869 -12.1169 -12.6684 -10.4855 -10.1385 -9.179001 -11.154 -10.1105 -10.6215 -10.8108 -9.3135 -9.21 -6.351501 
-2.5195 -3.9185 -5.648 -2.9805 -2.186 -1.934 -1.4985 -3.275 0 -3.321 -2.9805 -2.186 -4.645 -1.756 -8.056001 -3.859 -2.95 -2.5045 -7.900001 0 
-5.9165 -7.857 -7.7685 -4.1635 -4.0835 -2.6125 -4.7845 -3.275 -3.321 -5.175 -4.1635 -6.196 -6.244501 -9.717001 -12.5954 -5.741 -5.055 -9.916 -7.900001 
-8.1045 -9.863501 -9.144 -5.8795 -4.6915 -5.6875 -4.7845 -6.77 -5.175 -6.688 -7.2945 -7.384 -15.2439 -14.3664 -14.4774 -7.9475 -12.9261 -9.916 
-9.93 -11.3682 -10.9766 -6.544001 -7.92 -5.6875 -7.744 -8.897 -6.688 -10.3475 -8.58 -16.8418 -19.8933 -16.2484 -16.6839 -16.0984 -12.9261 
-11.4631 -13.2008 -11.6411 -9.677001 -7.92 -8.623 -9.741501 -10.5645 -10.3475 -11.633 -18.043 -21.4912 -21.7753 -18.4549 -24.8348 -16.0984 
-2.9805 -2.7415 -1.934 -3.8685 -2.5195 -1.4985 -3.158 -1.7565 -3.9185 0 -1.934 -3.634 -4.219 -2.9805 -3.9955 -1.756 -3.7555 -1.8085 -4.2055 -1.7565 -3.4625 -4.432 -4.328 -2.0935 -1.4985 -3.859 -2.95 0 
-4.004 -4.5155 -5.944 -6.3695 -3.1695 -4.178 -4.71 -5.984001 -3.9185 -1.934 -4.9425 -7.0705 -6.663501 -5.513 -6.33 -5.2875 -4.597 -4.713 -4.859 -4.684 -7.955 -4.899 -5.409 -2.9725 -4.4795 -5.741 -2.95 
-5.5885 -7.7505 -8.443001 -7.009501 -6.3945 -5.562 -8.290501 -5.984001 -6.068 -4.9425 -8.7515 -9.352 -8.469501 -7.785501 -8.7075 -6.145 -6.366 -5.7035 -6.364 -8.877501 -8.3505 -7.1335 -6.4255 -5.6185 -5.949 -5.741 
-8.691001 -10.6215 -8.9945 -10.309 -7.519 -8.821 -8.290501 -7.758501 -8.753 -8.7515 -11.5608 -11.1394 -10.3095 -9.9425 -9.603001 -8.0325 -8.323501 -7.311 -9.8605 -9.0155 -9.9405 -7.841001 -8.2205 -6.351501 -5.949 
-11.7734 -11.173 -12.3992 -11.6323 -10.3815 -8.821 -9.972 -10.609 -12.96 -11.5608 -13.3482 -12.9794 -12.4665 -10.9658 -11.5991 -10.4335 -9.5 -10.494 -10.1105 -10.6215 -10.8108 -9.3135 -9.21 -6.351501 
-3.9185 -1.7695 -3.4425 -2.264 -3.074 -1.756 -3.228 -2.95 -3.973 -2.264 -3.859 -2.95 -4.2055 -2.264 -4.065 -3.074 
-5.6175 -5.919001 -5.686501 -7.1365 -5.365 -5.3125 -5.1415 -7.421 -6.229 -6.0645 -5.741 -7.8555 -6.3405 -6.431001 -7.309 
-10.0095 -8.213 -11.2438 -8.668001 -8.2425 -7.061501 -10.2535 -10.0345 -8.620001 -9.1105 -11.3589 -10.2985 -11.0557 -9.922501 
-13.3279 -14.1751 -12.7753 -11.8433 -10.1635 -12.4587 -12.867 -12.4777 -13.3588 -15.1266 -13.8019 -15.1925 -14.5472 
-19.29 -15.7066 -15.9506 -13.7643 -16.0785 -15.0722 -15.3102 -17.2165 -19.3749 -17.5696 -18.6959 -18.684 
