-4.759 
n/a 
n/a 
n/a 
n/a 
-4.759 
n/a 
n/a 
n/a 
n/a 
-4.759 
n/a 
n/a 
n/a 
n/a 
-4.759 
n/a 
n/a 
n/a 
n/a 
-2.6615 0 -1.7565 -3.1385 -3.6845 -4.0155 -3.277 -1.934 -3.5085 -4.02 -1.934 -6.3215 0 
-2.6615 -1.7565 -4.388 -7.119 -7.810501 -5.3245 -4.8125 -5.161 -5.651 -5.502 -7.453 -6.3215 
-4.7915 -4.388 -7.838 -11.779 -8.945001 -6.6055 -7.6405 -7.849 -7.0255 -11.6858 -7.453 
-7.611001 -7.838 -13.1004 -12.9135 -10.6885 -9.35 -10.228 -9.115001 -13.4515 -11.6858 
-11.4636 -13.1004 -14.2349 -14.657 -13.433 -11.9803 -11.494 -15.626 -13.4515 
-2.6615 0 -3.5085 -4.02 -2.4945 -3.6845 -4.0155 -3.158 -1.934 -6.3215 
-2.6615 -3.5085 -5.651 -6.378 -6.086 -7.810501 -5.876 -4.7985 -7.453 
-6.047 -5.651 -8.224001 -8.9585 -9.830001 -9.882501 -9.261001 -10.564 
-9.062 -8.224001 -10.485 -13.1395 -12.0266 -13.7591 -15.2453 
-11.7234 -10.485 -14.6234 -15.3361 -15.9032 -19.7434 
-6.3215 -4.449 -2.6615 0 -2.4945 -3.6845 -2.7035 -3.158 -1.7565 -3.7515 -4.9225 
-11.6589 -7.936001 -2.6615 -2.4945 -6.086 -6.665 -5.832 -4.71 -4.833 -8.573 
-15.1459 -7.936001 -6.1415 -6.086 -8.9785 -10.068 -8.02 -6.6495 -10.0483 
-15.1459 -11.644 -9.348001 -8.9785 -12.4551 -12.168 -9.783001 -12.1988 
-18.8539 -14.8505 -12.4297 -12.4551 -14.5551 -13.931 -15.3323 
-2.6615 0 -1.7565 -6.3215 -4.02 -2.186 -3.6845 -4.0155 -3.277 0 
-2.6615 -1.7565 -7.9375 -10.504 -5.624 -5.7515 -7.810501 -5.3245 -3.277 
-4.7915 -7.9375 -12.419 -12.108 -7.9815 -9.5985 -8.945001 -5.3245 
-11.8753 -12.419 -14.023 -14.4655 -12.6347 -10.7045 -8.945001 
-16.3568 -14.023 -16.3805 -19.1187 -13.7407 -10.7045 
