-4.759 
n/a 
n/a 
n/a 
n/a 
-4.759 
n/a 
n/a 
n/a 
n/a 
-4.759 
n/a 
n/a 
n/a 
n/a 
-4.759 
n/a 
n/a 
n/a 
n/a 
-3.321 -2.4265 -5.0625 -3.383 -3.976 -3.1575 -2.8965 -3.9545 0 
-4.872 -7.917001 -8.899501 -8.599 -7.051 -5.4505 -7.0365 -3.9545 
-10.749 -11.931 -14.4429 -11.9696 -8.859 -9.269501 -7.0365 
-14.763 -17.4744 -17.8135 -13.7776 -12.8548 -9.269501 
-20.3064 -20.845 -19.6215 -17.7734 -12.8548 
-3.321 -10.2885 -4.67 -1.4985 -3.7345 -4.236 -3.1575 -2.8965 -5.173 
-14.5179 -15.1341 -5.253 -4.9965 -8.2015 -6.7735 -5.4505 -6.9795 
-19.3635 -15.7171 -8.094 -9.465 -11.0442 -8.252501 -9.387501 
-19.9465 -18.5581 -12.7453 -12.4437 -12.5232 -12.4711 
-22.7875 -23.2094 -15.724 -13.9227 -16.7418 
-2.4265 -2.186 -4.496 -3.034 -4.2815 -1.7695 -2.8965 -5.173 
-3.292 -6.035501 -6.8195 -5.568 -4.4915 -4.497 -6.9795 
-7.0145 -8.064501 -8.695001 -5.7335 -5.791 -8.710501 
-9.3555 -9.887 -8.809001 -6.8195 -9.632001 
-11.5262 -9.921 -10.013 -10.8155 
-3.818 -3.074 -3.9545 -3.6245 -3.9555 -1.7695 -3.3165 -3.972 
-7.774 -8.036 -7.9145 -5.870501 -6.122 -4.0585 -8.3465 
-13.0326 -12.2094 -10.096 -7.015 -8.5865 -9.504001 
-17.206 -14.3909 -11.2405 -9.9055 -14.1682 
-19.3875 -15.5354 -14.131 -15.4872 
