-4.759 
n/a 
n/a 
n/a 
n/a 
-4.759 
n/a 
n/a 
n/a 
n/a 
-4.759 
n/a 
n/a 
n/a 
n/a 
-4.759 
n/a 
n/a 
n/a 
n/a 
-3.975 0 -2.5195 -2.9705 -3.8195 0 
-3.975 -2.5195 -4.9775 -7.438001 -3.8195 
-6.8625 -4.9775 -8.998501 -7.438001 
-10.361 -8.998501 -8.998501 
-14.382 -8.998501 
-3.2785 -2.9705 -8.2065 -2.3585 -2.674 
-6.7185 -12.4818 -11.0145 -3.6565 
-16.6694 -15.2898 -12.3125 
-19.4774 -16.5878 
-20.7754 
-3.975 0 -2.5195 -2.9705 -3.8195 0 
-3.975 -2.5195 -4.9775 -7.438001 -3.8195 
-6.8625 -4.9775 -8.998501 -7.438001 
-10.361 -8.998501 -8.998501 
-14.382 -8.998501 
-2.5195 -2.9705 -3.952 0 
-4.9775 -7.128 -3.952 
-10.4765 -7.128 
-10.4765 
n/a 
