-4.759 
n/a 
n/a 
n/a 
n/a 
-4.759 
n/a 
n/a 
n/a 
n/a 
-4.759 
n/a 
n/a 
n/a 
n/a 
-4.759 
n/a 
n/a 
n/a 
n/a 
-2.264 -2.3335 -2.95 -3.2615 -4.8955 -12.16972 -3.8255 -2.645 -5.5295 -2.0935 -3.091 -4.1135 -4.397 
-4.6785 -4.8245 -5.5065 -8.1625 -17.69162 -15.99522 -5.774 -8.7995 -7.902501 -4.5345 -7.23 -8.512001 
-7.7465 -7.5235 -8.772 -21.45822 -21.51712 -17.94372 -12.6397 -11.3971 -9.832001 -8.5395 -10.476 
-10.418 -10.9538 -23.57752 -25.28372 -23.46562 -24.80942 -15.2373 -13.3266 -13.952 -11.9359 
-13.8483 -25.75932 -27.40302 -27.23222 -30.33132 -27.40702 -17.1668 -17.4466 -17.3484 
-3.2615 -4.8955 -7.744 -7.581 0 -2.229 -5.891 -3.402 -3.4005 -3.6205 -3.1385 -6.009 -3.7015 -7.581 
-8.1625 -13.2659 -15.8994 -7.581 -2.229 -7.927001 -7.641 -6.392 -6.5485 -7.6035 -7.7405 -6.915 -10.9575 
-17.0325 -21.4213 -15.8994 -9.234501 -7.927001 -9.918 -11.077 -9.788 -10.9901 -12.5763 -8.540501 -14.804 
-25.1879 -21.4213 -17.5529 -14.9749 -9.918 -13.354 -14.473 -14.2998 -15.9629 -13.3763 -16.6509 
-25.1879 -23.0748 -23.2933 -16.9659 -13.354 -16.75 -18.9848 -19.2726 -16.7629 -21.4867 
-1.934 -4.8955 -7.581 -4.0655 -1.7695 -4.2675 -2.3335 
-6.124 -13.1029 -12.4937 -4.4155 -4.8665 -5.7275 
-14.7992 -18.0156 -12.8437 -6.728 -6.2665 
-19.7119 -18.3656 -15.1562 -8.171 
-20.0619 -20.6781 -16.5992 
-3.2615 -4.8955 -3.034 -7.2355 0 -5.228 0 -7.581 -3.0695 -4.1585 -2.7455 -1.4985 -12.16972 0 -2.664 -3.4005 -3.402 -3.325 -3.288 0 -2.0935 -2.9705 -2.9805 -4.878 -3.0415 -3.3715 -3.8035 
-8.1625 -7.443501 -11.4325 -7.2355 -5.228 -5.228 -7.581 -10.2285 -6.094501 -6.271 -3.637 -14.76202 -12.16972 -2.664 -5.708 -6.9645 -8.033 -6.7645 -3.288 -2.0935 -4.642 -4.783 -6.528501 -7.823501 -4.5985 -6.0565 
-9.589001 -16.0438 -11.4325 -10.784 -5.228 -13.7972 -10.2285 -13.2535 -8.8675 -6.844501 -17.29892 -14.76202 -14.83372 -5.708 -8.040501 -12.2887 -11.7199 -6.7645 -5.359 -4.642 -6.0505 -8.540001 -9.429001 -8.5105 -6.9245 
-18.3629 -16.0438 -14.981 -10.784 -13.7972 -16.4447 -13.2535 -16.0265 -9.408001 -20.69122 -17.29892 -17.42602 -17.87772 -8.040501 -13.5083 -15.9756 -11.7199 -9.463 -7.9925 -6.0505 -9.602 -11.5597 -10.156 -9.641001 
-18.3629 -19.5923 -14.981 -19.3532 -16.4447 -19.4697 -16.0265 -16.567 -23.25472 -20.69122 -19.96292 -20.47002 -20.21022 -13.5083 -17.1952 -15.9756 -14.4184 -12.5347 -9.308001 -9.602 -12.9797 -12.2867 -11.2865 
