-4.759 
n/a 
n/a 
n/a 
n/a 
-4.759 
n/a 
n/a 
n/a 
n/a 
-4.759 
n/a 
n/a 
n/a 
n/a 
-4.759 
n/a 
n/a 
n/a 
n/a 
0 -3.9745 -2.186 -2.857 -3.783 0 -3.3435 -2.186 -4.1935 -4.1985 0 -1.756 -3.5125 -2.186 -2.857 -3.3755 0 0 
-3.9745 -5.909 -4.678 -5.071 -3.783 -3.3435 -4.9685 -7.552 -8.228001 -4.1985 -1.756 -5.334 -5.685 -4.678 -5.348001 -3.3755 0 
-5.909 -8.447001 -6.756001 -5.071 -7.844001 -4.9685 -11.0169 -11.9407 -8.228001 -5.5775 -5.334 -7.444 -8.609 -7.16 -5.348001 -3.3755 
-8.447001 -10.3745 -6.756001 -8.8475 -8.588 -11.0169 -15.4056 -11.9407 -9.811 -9.6785 -7.444 -9.991501 -11.4286 -7.16 -5.348001 
-10.3745 -10.3745 -10.5425 -9.139501 -15.0472 -15.4056 -15.4056 -13.5237 -13.912 -11.9827 -9.991501 -12.9587 -11.4286 -7.16 
0 -3.9745 -2.186 -2.857 -3.783 0 -3.3435 -2.186 -2.857 -5.294 -4.1985 0 -3.5125 -2.186 -2.857 -3.527 0 
-3.9745 -5.909 -4.678 -5.071 -3.783 -3.3435 -4.9685 -4.678 -7.898001 -9.7375 -4.1985 -3.5125 -5.685 -4.678 -6.6145 -3.527 
-5.909 -8.447001 -6.756001 -5.071 -7.844001 -4.9685 -7.488 -9.670501 -12.6773 -9.7375 -8.3545 -5.685 -8.609 -8.0965 -6.6145 
-8.447001 -10.3745 -6.756001 -8.8475 -8.588 -7.488 -12.9957 -14.4498 -12.6773 -13.9261 -10.218 -8.609 -10.4345 -8.0965 
-10.3745 -10.3745 -10.5425 -9.139501 -11.5183 -12.9957 -17.775 -14.4498 -16.8659 -15.7896 -13.2948 -10.4345 -10.4345 
-3.9745 -2.186 -2.857 -3.783 0 -3.3435 -2.186 -2.857 -4.1985 0 -3.5125 -2.186 -2.857 -3.527 0 
-5.909 -4.678 -5.071 -3.783 -3.3435 -4.9685 -4.678 -6.362 -4.1985 -3.5125 -5.685 -4.678 -6.6145 -3.527 
-8.447001 -6.756001 -5.071 -7.844001 -4.9685 -7.488 -8.1245 -6.362 -8.3545 -5.685 -8.609 -8.0965 -6.6145 
-10.3745 -6.756001 -8.8475 -8.588 -7.488 -10.0575 -8.1245 -11.167 -10.218 -8.609 -10.4345 -8.0965 
-10.3745 -10.5425 -9.139501 -11.5183 -10.0575 -10.0575 -13.1727 -13.0305 -13.2948 -10.4345 -10.4345 
0 -3.9745 -2.186 -2.857 -3.783 0 -3.3435 -2.186 -2.857 -4.4975 0 -3.5125 -2.186 -2.857 -5.0975 0 
-3.9745 -5.909 -4.678 -5.071 -3.783 -3.3435 -4.9685 -4.678 -6.709001 -4.4975 -3.5125 -5.685 -4.678 -8.2735 -5.0975 
-5.909 -8.447001 -6.756001 -5.071 -7.844001 -4.9685 -7.488 -8.264501 -6.709001 -6.675 -5.685 -8.609 -9.8675 -8.2735 
-8.447001 -10.3745 -6.756001 -8.8475 -8.588 -7.488 -10.564 -8.264501 -9.6363 -9.956 -8.609 -14.1361 -9.8675 
-10.3745 -10.3745 -10.5425 -9.139501 -11.5183 -10.564 -10.564 -11.382 -12.9173 -12.9974 -14.1361 -14.1361 
