-4.759 
n/a 
n/a 
n/a 
n/a 
-4.759 
n/a 
n/a 
n/a 
n/a 
-4.759 
n/a 
n/a 
n/a 
n/a 
-4.759 
n/a 
n/a 
n/a 
n/a 
-3.6115 -4.0455 -4.789 -2.4945 -4.3725 -1.934 -5.8555 -10.9935 0 
-6.736501 -8.985001 -6.647 -5.572001 -5.022501 -8.191001 -17.6306 -10.9935 
-12.2474 -10.8704 -9.651501 -5.9685 -12.0513 -20.1371 -17.6306 
-14.1328 -13.8749 -9.8545 -13.3177 -23.9974 -20.1371 
-17.1373 -14.0779 -17.9839 -25.2638 -23.9974 
-1.934 -9.0225 -3.0365 -2.186 -4.1365 -2.9705 -2.186 -3.2955 -2.0935 -4.2845 -4.8445 0 
-10.259 -12.3164 -3.66 -6.77 -6.796 -3.89 -4.348001 -4.307 -6.281 -8.497 -4.8445 
-13.5529 -12.9399 -8.244 -9.693001 -7.538001 -5.7615 -5.274 -8.2465 -10.4855 -8.497 
-14.1764 -17.5239 -11.7756 -10.3185 -9.554001 -6.421 -9.366501 -12.6394 -10.4855 
-18.7604 -21.0555 -12.4011 -12.3345 -10.191 -10.8987 -13.6454 -12.6394 
-1.934 -9.0225 -4.2845 -4.0455 -4.221 -4.1365 -2.186 -3.0365 0 
-10.259 -13.5644 -7.7395 -7.947001 -9.054001 -6.204 -4.5415 -3.0365 
-14.8009 -17.0194 -12.1466 -13.0202 -10.6605 -8.439001 -4.5415 
-18.2559 -21.4265 -17.2198 -14.6267 -12.8955 -8.439001 
-22.663 -26.4997 -18.8263 -16.8617 -12.8955 
-4.2845 -4.278 -4.3935 -2.186 -1.934 -7.864 0 
-6.1835 -7.170501 -6.162001 -4.0835 -8.801001 -7.864 
-7.921 -8.829 -7.922501 -11.5771 -8.801001 
-9.562 -10.609 -15.9065 -11.5771 
-11.4332 -18.992 -15.9065 
