-4.759 
n/a 
n/a 
n/a 
n/a 
-4.759 
n/a 
n/a 
n/a 
n/a 
-4.759 
n/a 
n/a 
n/a 
n/a 
-4.759 
n/a 
n/a 
n/a 
n/a 
-8.445001 -2.186 -4.0155 -3.277 -3.5905 -3.098 -4.235 -2.186 -4.19 0 
-11.3628 -6.477 -5.3245 -4.7035 -7.4335 -7.79 -5.9235 -5.4405 -4.19 
-15.6538 -7.502001 -6.6845 -7.8365 -12.4191 -9.757001 -7.8095 -5.4405 
-16.6788 -7.927501 -9.9325 -12.9509 -14.3861 -11.76 -7.8095 
-17.1043 -11.4325 -15.0469 -14.9179 -16.3891 -11.76 
-3.034 -2.9805 -2.7415 -2.7035 0 -3.091 -4.235 -7.915 -7.1435 -4.9665 
-4.4605 -4.004 -6.066 -2.7035 -3.091 -5.1065 -13.1506 -10.985 -12.5788 
-5.2415 -7.3785 -6.066 -7.2095 -5.1065 -14.4897 -16.2206 -16.4203 
-7.8215 -7.3785 -9.087501 -8.9195 -14.4897 -17.5597 -21.6559 
-7.8215 -9.303501 -9.731 -18.4199 -17.5597 -22.995 
-4.235 -7.915 -7.1435 -4.424 -2.5045 -8.445001 -2.229 -4.642 -3.7515 0 
-13.1506 -10.985 -12.0363 -6.42 -11.8669 -10.958 -6.512 -9.245501 -3.7515 
-16.2206 -15.8778 -14.0323 -16.7162 -14.3799 -15.241 -12.0061 -9.245501 
-21.1134 -17.8738 -24.3285 -19.2292 -18.6629 -20.7351 -12.0061 
-23.1094 -28.17 -26.8415 -23.5122 -24.157 -20.7351 
-4.235 -7.4995 -4.349 -2.9905 -2.5045 -3.091 -4.642 -3.7515 
-12.7351 -12.4677 -6.159 -5.032001 -5.0075 -7.5425 -9.245501 
-17.7033 -14.2777 -7.526 -7.4065 -9.503 -12.7602 
-19.5133 -15.6447 -9.517 -12.1604 -15.1753 
-20.8803 -17.6357 -14.4329 -17.8327 
