-4.759 
n/a 
n/a 
n/a 
n/a 
-4.759 
n/a 
n/a 
n/a 
n/a 
-4.759 
n/a 
n/a 
n/a 
n/a 
-4.759 
n/a 
n/a 
n/a 
n/a 
-3.951 -4.9405 -1.756 -4.3915 -3.59 -2.186 -2.857 -4.742 
-7.327001 -6.1115 -5.922 -8.7145 -5.4475 -4.678 -7.349501 
-8.185 -11.2523 -10.4855 -10.8352 -8.271 -8.702001 
-13.6142 -15.8158 -12.6062 -13.6587 -12.7904 
-18.1777 -17.9365 -15.4297 -18.1781 
-2.857 -4.886 -2.186 -2.6165 -4.6065 0 -3.6705 -2.0935 -2.857 -3.59 0 
-6.81 -6.5595 -3.5105 -7.908501 -4.6065 -3.6705 -5.107 -4.5085 -5.837 -3.59 
-8.028501 -7.87 -8.5165 -7.908501 -8.936501 -5.107 -7.472501 -7.032001 -5.837 
-9.4895 -13.1216 -8.5165 -12.7593 -10.647 -7.472501 -9.986001 -7.032001 
-14.8179 -13.1216 -13.6179 -14.4698 -13.0125 -9.986001 -9.986001 
-9.146001 -9.447001 -8.2515 0 -12.16972 -12.16972 
-18.9006 -17.9071 -8.2515 -12.16972 -24.33944 
-27.3607 -17.9071 -20.90242 -24.33944 
-27.3607 -30.55802 -33.07214 
-40.01162 -42.72774 
-2.8705 -6.4065 -2.186 -5.029 0 -3.6705 -3.818 -2.0935 -2.8705 -4.1265 
-8.474001 -8.286 -8.5445 -5.029 -3.6705 -5.7425 -5.467 -4.3745 -5.432 
-9.894001 -14.8547 -8.5445 -9.204 -5.7425 -6.961 -7.609 -6.71 
-16.4627 -14.8547 -12.8723 -11.5202 -6.961 -8.694 -9.918 
-16.4627 -19.1825 -15.1885 -12.7387 -8.694 -11.285 
