-4.759 
n/a 
n/a 
n/a 
n/a 
-4.759 
n/a 
n/a 
n/a 
n/a 
-4.759 
n/a 
n/a 
n/a 
n/a 
-4.759 
n/a 
n/a 
n/a 
n/a 
-3.5435 -4.8275 -2.8645 -3.133 
-8.656501 -7.825001 -6.669 
-11.8888 -12.0421 
-16.1059 
n/a 
-1.934 -8.3345 -8.506001 -2.674 -3.133 -3.4715 0 
-11.2749 -17.1389 -11.431 -6.8015 -7.469001 -3.4715 
-20.0793 -20.0639 -15.5585 -11.6095 -7.469001 
-23.0043 -24.1914 -20.3665 -11.6095 
-27.1318 -28.9994 -20.3665 
-7.679501 -3.4715 -2.674 -3.133 -5.649 0 
-11.7802 -7.132 -6.8015 -9.267501 -5.649 
-15.4407 -11.7129 -13.408 -9.267501 
-20.0216 -18.3194 -13.408 
-26.6281 -18.3194 
-1.934 -3.97 -3.0365 -2.4945 -3.133 -3.6185 
-5.607 -7.125 -3.688 -6.396501 -6.411 
-7.9605 -7.66 -7.079 -9.747001 
-8.416 -11.239 -9.8985 
-12.3348 -14.0585 
