-4.759 
n/a 
n/a 
n/a 
n/a 
-4.759 
n/a 
n/a 
n/a 
n/a 
-4.759 
n/a 
n/a 
n/a 
n/a 
-4.759 
n/a 
n/a 
n/a 
n/a 

n/a 
n/a 
n/a 
n/a 
-2.3615 -8.874001 -2.8645 -1.4985 -4.8555 -3.905 -12.16972 
-12.5237 -12.0051 -4.3545 -6.6315 -8.329 -17.08492 
-15.6548 -13.4951 -10.5035 -10.6335 -22.21592 
-17.1448 -19.6441 -14.5055 -24.52042 
-23.2938 -23.6461 -28.39242 
-2.3615 -6.7635 -2.186 -4.196 -3.8755 -1.934 -7.1665 -4.8555 -3.277 -2.4265 -3.43 -2.925 -1.7565 -4.8745 0 
-9.223001 -8.338 -5.389 -8.2705 -5.2035 -9.279 -11.785 -8.047501 -5.4405 -5.461 -5.0455 -4.898 -6.689001 -4.8745 
-10.0355 -11.803 -9.245001 -9.657001 -11.405 -13.6713 -14.2988 -9.9645 -8.151501 -7.7015 -5.285 -9.718 -6.689001 
-13.5005 -15.659 -10.703 -17.2893 -17.6731 -16.0273 -16.3462 -12.8325 -10.586 -8.627001 -9.820001 -9.718 
-17.3565 -17.117 -18.3353 -22.1776 -19.8571 -18.0747 -19.2142 -15.267 -11.5115 -13.2286 -9.820001 
-5.7865 -4.8555 -3.277 0 -6.6925 -2.186 -3.905 -4.878 -2.9705 -2.186 -3.321 -4.881 -3.222 -4.8745 0 
-9.473001 -8.047501 -3.277 -6.6925 -8.474501 -6.581 -7.1645 -8.575001 -3.89 -5.151 -6.823 -5.6785 -8.393001 -4.8745 
-12.763 -8.047501 -11.0457 -8.474501 -13.0757 -9.0465 -10.7495 -9.203001 -6.278501 -7.367001 -7.419 -10.7335 -8.393001 
-12.763 -16.1398 -12.8277 -13.0757 -15.5412 -13.0609 -11.3775 -11.7535 -8.016001 -7.8555 -12.6224 -10.7335 
-20.8553 -17.9218 -17.4289 -15.5412 -19.5556 -13.6889 -13.928 -13.491 -8.538 -13.2375 -12.6224 
