-4.759 
n/a 
n/a 
n/a 
n/a 
-4.759 
n/a 
n/a 
n/a 
n/a 
-4.759 
n/a 
n/a 
n/a 
n/a 
-4.759 
n/a 
n/a 
n/a 
n/a 
-3.5195 -2.5645 -2.998 -3.6765 -3.152 -4.19 -1.756 -3.1635 -4.874 -3.034 -9.0815 -5.198 -1.8085 -4.297 -4.367 -10.0425 -12.16972 -1.7565 -12.16972 
-5.5775 -4.9295 -7.3435 -6.9935 -6.435 -5.6195 -5.8775 -8.4545 -6.619 -13.2785 -14.6201 -6.729501 -5.6255 -8.751501 -15.3229 -22.26182 -13.92622 -14.87542 
-9.127501 -9.463501 -10.8553 -9.925501 -7.441501 -9.2895 -9.226 -10.204 -17.5207 -18.8171 -16.1516 -8.970001 -9.4495 -19.9268 -27.54222 -24.01832 -27.04514 
-13.7349 -13.3271 -13.7873 -10.932 -11.4191 -9.9985 -10.3545 -21.2303 -23.0593 -20.3486 -18.3921 -13.4088 -20.6302 -32.14612 -29.29872 -37.13724 
-17.5985 -16.2591 -14.7938 -14.9096 -12.1281 -11.127 -21.5134 -26.7689 -24.5908 -22.5891 -22.8309 -24.5895 -32.84952 -33.90262 -42.41764 
-3.5195 -2.5645 0 -1.934 -9.934 -12.16972 -11.0905 -2.3335 -3.5015 -4.299 -1.7695 -4.297 -2.871 -1.4985 -4.73 -2.998 -5.452 -1.756 -4.318 -4.354 -1.7565 -3.1635 -3.6765 0 
-5.5775 -2.5645 -1.934 -10.802 -22.15852 -23.26022 -13.424 -5.909 -9.024 -6.4355 -6.559501 -7.523001 -5.1 -5.8195 -8.4385 -9.4005 -6.7165 -5.712 -9.151001 -6.5675 -5.5615 -8.0365 -3.6765 
-5.5775 -5.02 -10.802 -23.02652 -33.24902 -25.59372 -16.9995 -11.8469 -11.3295 -11.6695 -10.396 -10.4265 -9.482 -9.7215 -15.1592 -10.786 -11.4799 -10.807 -10.7575 -10.5035 -9.951 -8.0365 
-8.238001 -14.2792 -23.02652 -34.11702 -35.58252 -29.16922 -22.9374 -14.1524 -16.5635 -15.506 -13.2995 -14.8085 -13.5588 -16.6322 -16.5447 -15.5494 -16.5749 -12.4135 -14.6935 -14.893 -9.951 
-17.7864 -26.50372 -34.11702 -36.45052 -39.15802 -35.10712 -25.2429 -19.3864 -20.4 -18.4095 -17.6815 -18.8853 -20.4695 -18.0177 -21.3081 -20.6444 -18.1814 -16.3495 -19.083 -14.893 
-3.5195 -4.4985 -1.4985 -3.5015 -1.7565 -12.16972 -3.8825 -1.934 -9.934 -1.8085 -5.665 -4.299 -2.264 -1.8085 -4.73 -4.297 -4.0875 -3.5015 -3.851 -1.7695 -2.9705 -2.998 -3.152 -4.493 -1.756 -3.1635 -3.152 -4.874 
-8.033001 -5.6985 -4.737 -4.783 -14.87542 -16.05222 -4.9695 -10.802 -11.7973 -7.817 -8.701501 -5.322001 -3.5925 -6.001 -7.3 -8.033501 -5.143 -7.184 -4.0015 -4.56 -7.258 -6.7325 -5.593 -5.8585 -5.8775 -7.1595 -6.21 
-9.0635 -9.276501 -5.5595 -18.59932 -18.75792 -17.13922 -14.3489 -12.6653 -17.8058 -9.315001 -9.489501 -6.5565 -7.666 -8.1335 -11.6031 -9.726501 -8.4565 -7.204 -7.3745 -8.861501 -8.5865 -8.861501 -6.381001 -8.627501 -8.066 -9.5105 
-12.542 -10.146 -19.46742 -22.48182 -19.84492 -26.51862 -16.2122 -18.6738 -19.3038 -9.957 -10.1605 -9.278001 -8.9495 -12.8694 -13.2961 -13.1544 -8.466001 -10.418 -11.7934 -10.3882 -10.523 -9.648001 -8.824 -9.9645 -9.7465 
-13.2095 -24.15492 -23.34992 -23.56882 -29.22432 -28.38192 -22.2207 -20.1718 -19.9458 -10.4395 -12.9998 -9.962001 -14.1056 -14.5624 -16.724 -13.1639 -11.8032 -14.8369 -13.3201 -12.3247 -11.3095 -12.1626 -10.0095 -10.2915 
-3.5195 -2.5645 -2.998 -4.493 -1.756 -3.1635 -4.874 -1.8085 -8.241501 -4.299 -2.264 -1.8085 -4.73 -4.297 -1.934 -12.16972 -3.9615 -7.141 0 
-5.5775 -4.9295 -7.959001 -5.8585 -5.8775 -8.4545 -7.052 -10.66 -13.2093 -5.322001 -3.5925 -6.001 -7.3 -6.330501 -15.11012 -16.13122 -9.665001 -7.141 
-9.127501 -10.6875 -9.194501 -8.627501 -9.226 -10.7025 -16.4087 -15.6278 -14.2323 -6.5565 -7.666 -8.1335 -8.726501 -19.97922 -19.07162 -21.83472 -9.665001 
-14.9589 -11.923 -12.0541 -9.347 -11.4724 -20.0592 -21.3765 -16.6508 -15.4668 -9.278001 -8.9495 -8.9975 -22.66162 -23.94072 -24.77512 -21.83472 
-16.1944 -14.7826 -12.7736 -11.665 -20.8291 -25.027 -22.3995 -17.8853 -18.1883 -9.962001 -9.7305 -23.07682 -26.62312 -29.64422 -24.77512 
