-4.759 
n/a 
n/a 
n/a 
n/a 
-4.759 
n/a 
n/a 
n/a 
n/a 
-4.759 
n/a 
n/a 
n/a 
n/a 
-4.759 
n/a 
n/a 
n/a 
n/a 
-2.5045 -1.4985 -2.95 -6.231 -3.8255 -1.934 -3.704 
-3.1915 -3.9285 -10.075 -10.061 -5.695 -5.4025 
-4.5155 -11.6313 -13.905 -12.1719 -10.5035 
-12.4673 -15.4613 -16.0159 -16.9804 
-16.2973 -17.5722 -20.8244 
-2.0935 -3.135 -4.574 -3.5065 -3.0365 -2.186 -1.8085 -7.1955 -4.1705 -1.7565 -4.086 -1.934 -1.4985 -3.7435 -2.4265 -4.098 -3.704 -3.034 -2.925 -4.7995 0 
-4.4665 -7.456501 -8.387501 -5.511001 -3.66 -3.164 -9.398001 -12.0164 -5.2045 -5.332 -5.9305 -2.6125 -4.5515 -6.1305 -5.228 -7.5655 -6.893001 -4.4 -7.397 -4.7995 
-8.825001 -11.8132 -10.0575 -5.959001 -4.218 -11.7951 -14.3791 -13.0504 -6.948501 -6.850501 -6.3955 -5.2945 -6.5905 -9.0765 -9.0635 -9.7885 -8.264 -8.376 -7.397 
-13.4561 -13.4832 -10.7445 -6.7955 -13.2455 -16.7762 -15.4131 -14.7944 -8.111 -7.268001 -8.231 -7.202001 -9.563001 -13.0174 -11.1421 -11.3507 -12.5926 -8.376 
-15.1261 -14.1702 -11.581 -16.0372 -18.2266 -17.8102 -17.1571 -15.9569 -8.4245 -8.615001 -9.9505 -10.3215 -13.5369 -15.096 -12.7043 -15.6793 -12.5926 
-3.135 -3.5485 -3.7435 -3.3365 -4.7885 -4.1335 -1.934 -2.3615 -4.1435 -6.999001 -4.9175 -1.934 -2.3615 -3.7435 -4.3005 0 
-6.094 -7.2465 -7.378 -7.697001 -7.178 -6.261 -3.539 -6.3395 -12.2027 -12.7357 -6.3755 -3.539 -6.1875 -7.948 -4.3005 
-10.3285 -11.8318 -12.2173 -11.1335 -9.2565 -7.8225 -8.2165 -14.9739 -17.9394 -14.1937 -8.219501 -7.34 -11.0438 -7.948 
-15.204 -16.6711 -15.6538 -13.212 -10.675 -12.8696 -17.0891 -20.7106 -19.3974 -16.0377 -12.4963 -12.5653 -11.0438 
-20.0433 -20.1076 -17.7323 -14.6305 -15.7221 -21.7422 -22.8258 -22.1686 -21.2414 -20.3145 -17.7216 -12.5653 
-3.135 -6.231 -3.7435 -4.196 -4.086 -4.9175 -3.135 -2.95 -3.7435 -1.7565 -5.989501 -1.756 -3.5185 -1.4985 -5.265 -4.495 0 
-9.0775 -8.148001 -8.005501 -9.8785 -6.558 -8.358 -4.868 -7.575 -4.905 -7.532501 -7.779001 -5.1175 -4.9765 -6.819 -9.605501 -4.495 
-11.3259 -12.7464 -14.0186 -12.3505 -9.6885 -10.3745 -10.1555 -9.037 -10.733 -8.991001 -11.5463 -6.443501 -10.7495 -10.7595 -9.605501 
-15.9243 -18.7595 -16.4906 -15.481 -11.735 -15.662 -11.6175 -15.318 -12.1915 -13.2949 -12.8723 -12.4703 -14.69 -10.7595 
-21.9374 -21.2315 -19.6211 -17.5275 -17.0225 -17.124 -17.8985 -16.7765 -16.4954 -14.6209 -18.8991 -16.4108 -14.69 
