-4.759 
n/a 
n/a 
n/a 
n/a 
-4.759 
n/a 
n/a 
n/a 
n/a 
-4.759 
n/a 
n/a 
n/a 
n/a 
-4.759 
n/a 
n/a 
n/a 
n/a 
-3.5965 -3.881 -3.999 -4.9595 -1.7565 -2.871 -4.9595 -4.0145 -2.0935 -3.968 0 
-6.690001 -7.822001 -9.312 -6.591001 -4.521 -8.224 -7.608001 -5.629 -6.798501 -3.968 
-11.6938 -13.4738 -11.1379 -9.352 -9.2915 -11.0809 -9.6745 -9.925501 -6.798501 
-17.3456 -15.2997 -13.8989 -14.2365 -13.0166 -13.1474 -14.004 -9.925501 
-19.1715 -18.0607 -18.7834 -17.9616 -15.0831 -17.4769 -14.004 
-3.941 -3.5015 -2.871 -3.6185 -1.7565 -4.3955 -1.934 -3.673 -2.4285 -4.013 -1.7565 -4.0145 0 
-8.241 -6.2575 -7.613501 -5.093 -6.088 -6.567 -5.6915 -5.744 -6.9595 -5.1845 -5.774001 -4.0145 
-11.265 -11.4414 -9.226001 -9.573 -8.025001 -10.7963 -8.248 -11.2966 -7.9705 -9.212501 -5.774001 
-16.4489 -13.0539 -13.8156 -11.6486 -12.5637 -13.3528 -13.977 -12.3076 -12.3973 -9.212501 
-18.0614 -17.6435 -15.8912 -16.1873 -15.1202 -19.0818 -14.988 -16.7344 -12.3973 
-3.5965 -3.941 -2.8645 -4.6145 -1.7565 -4.97 -1.756 -5.3105 -1.4985 -3.942 
-6.159 -6.774 -8.7675 -4.752 -6.162001 -6.148 -6.4115 -6.351 -5.103 
-9.123001 -13.169 -9.711 -6.973 -7.309501 -6.9905 -7.4185 -8.6485 
-15.6438 -14.1125 -12.1226 -8.1285 -8.108001 -8.3315 -9.659501 
-16.5873 -16.5241 -13.2781 -9.0845 -9.287001 -10.659 
-2.7295 -2.7765 -3.429 -1.4985 -3.941 -3.5965 -2.186 -1.4985 -2.871 -2.9705 -2.7415 -1.4985 -3.881 -3.5015 -1.7695 -3.5665 -1.4985 -4.0145 0 -2.4285 0 -1.4985 -3.254 -1.7565 -4.213 -2.9705 -2.7765 -3.429 0 -3.322 
-4.065 -4.863501 -4.4635 -5.133 -7.1555 -5.619 -3.339 -4.316 -5.591 -4.512 -4.063 -5.357 -7.312 -4.5585 -5.017 -5.204 -5.0175 -4.0145 -2.4285 -2.4285 -1.4985 -4.4095 -4.0065 -5.680501 -6.264501 -4.677 -4.863501 -3.429 -3.322 
-6.0675 -5.968 -8.383 -9.6485 -9.920501 -7.219 -5.399 -6.506001 -6.9335 -5.831 -8.686501 -8.258 -9.0445 -6.804 -5.942 -8.783501 -5.0175 -5.96 -2.4285 -4.002501 -4.4095 -4.8735 -8.3435 -7.612 -7.631001 -6.8145 -4.863501 -7.4215 
-7.162 -9.592001 -13.4793 -12.8801 -11.5569 -8.639501 -7.2425 -7.8275 -8.4495 -10.5975 -10.354 -9.9405 -10.147 -7.846 -9.212501 -8.783501 -7.5045 -5.96 -4.002501 -7.1225 -4.8735 -8.884001 -9.972001 -8.827001 -10.1265 -6.8145 -8.818501 
-10.9062 -14.7235 -16.7109 -14.5165 -12.9774 -10.66 -8.6035 -9.409 -13.2498 -12.265 -12.3533 -11.1742 -11.189 -11.2785 -9.212501 -11.5419 -7.5045 -7.4275 -7.1225 -7.333001 -8.884001 -10.6925 -11.2894 -11.6281 -10.1265 -11.2429 
