-4.759 
n/a 
n/a 
n/a 
n/a 
-4.759 
n/a 
n/a 
n/a 
n/a 
-4.759 
n/a 
n/a 
n/a 
n/a 
-4.759 
n/a 
n/a 
n/a 
n/a 
-1.934 -3.994 -9.939 -4.248 -6.652 -3.0835 -3.59 0 
-5.238 -14.987 -14.634 -12.1386 -10.6475 -6.711 -3.59 
-16.7416 -19.682 -22.5246 -16.1341 -14.275 -6.711 
-21.4366 -27.5726 -26.5201 -19.7616 -14.275 
-29.3272 -31.5681 -30.1476 -19.7616 
-3.59 -2.9705 -3.7555 -1.4985 -3.0835 -3.3365 -4.248 -1.7565 -4.037 -1.934 -3.994 0 
-6.172 -6.568501 -4.843 -3.535 -5.870501 -7.2285 -4.8235 -6.3715 -5.223001 -5.238 -3.994 
-9.7955 -7.7535 -6.9145 -6.3955 -10.6737 -7.534501 -9.9205 -8.245501 -10.0315 -5.238 
-10.7625 -9.838 -9.91 -11.2313 -10.9797 -12.6649 -11.7945 -13.3774 -10.0315 
-12.847 -12.9563 -14.8334 -11.5373 -16.1101 -14.5389 -16.9264 -13.3774 
-3.994 -2.229 -3.0835 -4.758 -4.9225 -4.3285 0 
-5.9595 -4.6705 -8.184 -9.805 -9.651501 -4.3285 
-7.4375 -10.27 -13.6288 -15.5408 -9.651501 
-13.6762 -15.7148 -19.3646 -15.5408 
-19.121 -21.4506 -19.3646 
-1.4985 -3.0835 -3.59 -2.9705 -4.098 -4.037 -2.0935 -2.5685 -1.4985 -3.1385 -1.934 -3.994 0 
-3.535 -6.711 -6.172 -6.415501 -8.297001 -4.876 -3.987 -3.7015 -4.2575 -4.522 -5.238 -3.994 
-6.804501 -9.182501 -9.509001 -11.1521 -9.9405 -7.4405 -5.0335 -5.7305 -5.28 -7.571501 -5.238 
-9.196001 -12.5289 -14.2682 -12.7956 -12.722 -8.3435 -6.812 -6.85 -8.9235 -7.571501 
-12.5422 -17.2881 -15.9117 -15.5771 -13.625 -10.1425 -8.011001 -10.0505 -8.9235 
