-4.759 
n/a 
n/a 
n/a 
n/a 
-4.759 
n/a 
n/a 
n/a 
n/a 
-4.759 
n/a 
n/a 
n/a 
n/a 
-4.759 
n/a 
n/a 
n/a 
n/a 
-3.8735 -2.229 -5.3885 -2.9705 -2.186 -2.871 -1.7565 -1.4985 -3.502 -3.994 -2.229 -5.746 -4.167 -4.587 -2.9905 -1.7695 -2.489 -1.4985 -3.0835 -1.934 -4.0045 
-5.3655 -8.2185 -8.4335 -3.89 -4.247 -3.5385 -2.4195 -4.5955 -5.394 -5.9595 -7.5165 -7.6305 -9.613501 -5.232501 -4.444 -3.1405 -3.9675 -3.535 -5.265 -5.7835 
-9.344 -11.6235 -8.948 -6.034 -4.411 -3.7675 -5.5145 -7.2135 -7.4675 -10.586 -9.413501 -13.6164 -10.0395 -5.847001 -5.217 -4.568 -4.583 -5.7875 -10.0125 
-13.1268 -12.138 -10.622 -6.16 -4.5655 -7.4595 -7.946001 -9.7135 -12.375 -12.483 -15.6726 -14.0424 -10.654 -5.895 -6.2485 -5.8435 -6.865 -11.1066 
-13.6413 -13.812 -10.668 -6.2675 -8.344501 -10.586 -10.298 -14.7664 -14.272 -18.7421 -16.0986 -14.6569 -10.702 -6.926001 -8.022 -7.4495 -12.6215 
-3.502 -4.317 -4.214 -3.9535 -5.3885 -4.612 -3.0835 -1.934 -4.0045 0 
-5.926 -8.934501 -7.995 -8.184 -10.001 -7.9305 -5.265 -5.7835 -4.0045 
-11.4337 -13.0723 -12.5183 -13.0321 -10.528 -8.3615 -10.0125 -5.7835 
-15.5715 -17.5956 -17.3664 -13.5591 -10.5445 -13.565 -10.0125 
-20.0948 -22.4437 -17.8934 -13.5756 -16.1598 -13.565 
-2.871 -1.7565 -1.4985 -4.1225 -3.994 -4.214 -4.4715 -2.186 -3.0835 -3.5015 -5.3885 0 -3.8735 -1.934 -4.0045 0 
-3.5385 -2.4195 -4.965 -6.781501 -9.353001 -7.138 -6.442501 -5.597 -5.07 -8.542 -5.3885 -3.8735 -5.938 -5.7835 -4.0045 
-3.7675 -5.8415 -8.897 -12.8329 -12.5348 -9.2805 -10.0575 -8.6075 -10.3529 -8.542 -6.517 -5.938 -10.4339 -5.7835 
-8 -9.607501 -15.3584 -16.0147 -14.6773 -13.0327 -13.165 -14.1962 -10.3529 -10.01 -8.6085 -10.4339 -10.4339 
-12.0164 -16.1013 -18.5402 -18.1572 -18.4295 -16.1402 -18.7537 -14.1962 -11.8209 -12.1015 -13.358 -10.4339 
-5.3885 -2.9705 -2.186 -2.871 -1.7565 -1.4985 -4.451 -3.7905 -4.8015 -1.7565 -3.502 -3.75 -3.994 -4.612 -3.0835 -3.5015 -1.934 -2.915 -1.756 -4.0045 0 
-8.4335 -3.89 -4.247 -3.5385 -2.4195 -5.505 -9.307501 -10.802 -6.13 -4.9855 -5.0795 -5.276 -9.0185 -7.9305 -5.07 -4.704 -5.4615 -4.266 -5.1655 -4.0045 
-8.948 -6.034 -4.411 -3.7675 -6.4515 -10.0505 -16.4872 -12.1305 -8.93 -6.653 -5.751 -10.041 -12.7382 -10.611 -6.239501 -9.0795 -6.712 -5.8275 -5.1655 
-10.622 -6.16 -4.5655 -8.244 -11.398 -17.2302 -17.8157 -14.9305 -9.894501 -7.0445 -10.7025 -13.8781 -15.4187 -11.7805 -10.7575 -9.896501 -7.2305 -5.8275 
-10.668 -6.2675 -10.0095 -13.9697 -18.5777 -18.5587 -20.6157 -15.895 -10.4 -12.3842 -14.5396 -16.5586 -16.5882 -16.2985 -11.5745 -10.222 -7.2305 
