-4.759 
n/a 
n/a 
n/a 
n/a 
-4.759 
n/a 
n/a 
n/a 
n/a 
-4.759 
n/a 
n/a 
n/a 
n/a 
-4.759 
n/a 
n/a 
n/a 
n/a 
-2.4265 -6.02 -4.1865 -4.432 -4.328 -6.738 -6.3085 -2.0935 -7.511 -1.4985 -3.6885 -3.2275 -1.7565 -3.1715 -4.231 
-7.8275 -9.5045 -7.061 -4.899 -8.095 -6.7865 -8.9575 -9.08 -8.519501 -4.962501 -6.811 -5.2895 -4.5595 -6.5785 
-11.727 -12.6402 -7.0755 -8.098001 -8.1 -9.578501 -16.0966 -9.837001 -12.1355 -8.137501 -8.5255 -8.3175 -7.796501 
-14.8627 -12.6547 -8.7155 -8.103001 -10.2235 -16.8062 -16.8536 -13.6488 -15.3105 -8.821001 -11.9889 -11.7783 
-14.8772 -14.2947 -8.719501 -10.223 -17.5092 -17.5632 -20.6654 -16.8238 -15.994 -12.3574 -15.4497 
-2.5045 -2.3335 -2.95 -4.432 -4.328 -6.3085 -4.931 -1.4985 -3.1385 -2.925 -3.152 -4.168 -1.4985 -3.6885 -4.1835 0 
-4.744 -4.8245 -7.1125 -4.899 -8.2445 -12.2629 -6.216001 -4.2575 -5.268001 -4.203 -6.576 -5.4005 -4.962501 -6.094501 -4.1835 
-5.158 -9.3035 -7.5135 -8.2475 -14.6207 -13.5479 -9.1175 -5.439 -7.054501 -7.722 -8.660501 -9.045 -9.366501 -6.094501 
-9.464001 -9.409 -11.6442 -14.6271 -15.9057 -16.4494 -10.516 -7.660501 -10.4765 -10.115 -12.3876 -13.5168 -9.366501 
-9.519 -13.6749 -18.0238 -15.9121 -18.8072 -17.8479 -12.7375 -11.2957 -12.9415 -13.8421 -16.8594 -13.5168 
-1.7695 -5.7955 -1.4985 -3.685 -1.7565 -4.1865 -4.432 -4.328 -6.738 -6.3085 -5.8255 -5.965 -3.1715 -4.231 0 -3.6885 -3.2275 0 
-6.2755 -6.502 -4.771501 -4.5825 -5.463 -7.061 -4.899 -8.095 -6.7865 -13.1574 -12.9563 -8.389 -6.5785 -4.231 -3.6885 -6.811 -3.2275 
-6.877 -8.768001 -5.532001 -9.523001 -8.415001 -7.0755 -8.098001 -8.1 -14.254 -20.2882 -15.3803 -12.1192 -6.5785 -9.153501 -6.811 -6.811 
-9.289001 -9.208 -10.4945 -12.7188 -8.430501 -8.7155 -8.103001 -15.9601 -21.3848 -22.7122 -19.1105 -12.1192 -12.2 -12.43 -6.811 
-9.854501 -14.3659 -13.6903 -12.7343 -10.181 -8.719501 -15.9649 -23.0909 -23.8088 -26.4424 -19.1105 -17.7407 -15.4765 -12.43 
-3.7015 -6.738 -6.3085 0 -1.4985 -3.321 -4.432 -4.328 -1.7565 -3.8735 0 -2.0935 -3.3425 -6.1365 -3.6885 -2.356 -3.7775 -1.7695 -4.231 -1.7565 -5.965 -3.1715 
-10.7175 -6.7865 -6.3085 -1.4985 -5.696501 -7.133 -4.899 -5.0935 -5.112 -3.8735 -2.0935 -5.21 -8.432001 -7.923 -6.187 -5.67 -4.781 -6.6115 -5.486501 -7.106 -8.389 
-10.7585 -6.7865 -8.151501 -5.696501 -7.6 -7.1685 -6.046 -7.2465 -5.112 -6.2575 -5.21 -9.745501 -9.172501 -10.233 -9.031 -5.723001 -9.969501 -7.5845 -10.3675 -9.1485 
-10.7585 -8.504001 -9.6885 -7.6 -7.607001 -8.114 -7.3275 -7.2465 -7.231501 -9.750501 -9.745501 -10.0845 -11.5723 -13.077 -9.054001 -11.3747 -10.508 -12.5673 -12.41 
-12.476 -9.852 -9.814501 -7.607001 -8.409 -8.845 -7.3275 -9.2255 -10.6875 -14.3312 -10.0845 -12.6131 -14.4163 -13.1 -14.7929 -11.9132 -15.4908 -14.6098 
