-4.759 
n/a 
n/a 
n/a 
n/a 
-4.759 
n/a 
n/a 
n/a 
n/a 
-4.759 
n/a 
n/a 
n/a 
n/a 
-4.759 
n/a 
n/a 
n/a 
n/a 
-3.6955 -2.5685 -1.7695 -3.8095 -5.1845 0 -4.548 -2.264 -3.432 -3.047 -2.4265 
-6.354 -5.236 -4.549 -9.398001 -5.1845 -4.548 -6.000501 -5.949 -6.97 -4.803 
-7.7615 -8.245501 -10.0215 -9.398001 -11.0269 -6.000501 -10.7025 -9.294001 -9.269501 
-11.3804 -13.7854 -10.0215 -15.3312 -12.4794 -10.7025 -14.0475 -11.9529 
-16.9203 -13.7854 -15.9547 -16.7837 -17.1814 -14.0475 -16.7064 
-3.8 0 -3.7115 -2.229 -3.8095 -1.934 -5.1845 0 -2.7295 -4.4755 -3.3255 -3.432 
-3.8 -3.7115 -4.375 -6.559 -5.543 -6.564 -5.1845 -2.7295 -7.2585 -6.496 -7.607 
-7.215 -4.375 -7.39 -8.526501 -9.528001 -6.564 -8.921 -7.2585 -9.967001 -11.4357 
-7.326 -7.39 -9.43 -12.6687 -9.528001 -9.604 -13.662 -9.967001 -15.0595 
-11.4502 -9.43 -13.8624 -12.6687 -12.7546 -14.4204 -16.3705 -15.0595 
-3.6955 -3.7115 -2.791 -3.8095 -1.934 -5.1845 -1.756 -4.4755 -1.756 -3.047 -1.934 -3.5025 
-6.689 -4.5375 -6.0055 -5.543 -6.564 -7.2435 -5.784 -6.1895 -4.7285 -5.078 -5.476501 
-6.8995 -7.596 -9.043501 -9.528001 -8.114 -12.0435 -7.9455 -9.697001 -7.0905 -9.132001 
-10.7575 -9.836 -13.2007 -11.2646 -13.0288 -14.205 -11.7046 -12.107 -11.1371 
-12.9975 -14.0666 -14.9373 -16.1794 -15.1903 -17.9641 -14.1146 -16.1536 
-3.6955 -2.264 -3.8095 -1.934 -5.1845 0 -3.3425 -3.432 -2.7295 -2.7765 -3.047 
-5.097 -6.706 -5.543 -6.564 -5.1845 -3.3425 -7.198 -6.4075 -4.065 -4.5075 
-9.212501 -8.303 -9.528001 -6.564 -9.3365 -7.198 -10.9477 -8.048 -5.696 
-10.7605 -12.8788 -9.528001 -9.7865 -13.2504 -10.9477 -12.5882 -9.865001 
-15.3363 -12.8788 -12.9371 -13.7276 -17.0001 -12.5882 -14.4052 
