-4.759 
n/a 
n/a 
n/a 
n/a 
-4.759 
n/a 
n/a 
n/a 
n/a 
-4.759 
n/a 
n/a 
n/a 
n/a 
-4.759 
n/a 
n/a 
n/a 
n/a 
-3.2615 -3.7375 -3.5785 -1.4985 -5.3745 -4.891 -3.251 -5.198 -6.844 -3.1385 -2.229 -5.0665 -4.2995 -1.756 -2.925 -5.7565 -2.5195 -4.682 
-7.078 -5.134 -5.474 -6.2355 -7.061501 -7.578501 -7.1165 -13.0062 -8.3995 -4.6125 -6.544 -7.066 -5.518 -4.2585 -7.5385 -6.703 -7.197001 
-8.1615 -6.639 -10.5975 -7.2945 -9.762501 -10.181 -15.0693 -14.5617 -8.431001 -7.542 -9.1215 -8.268001 -8.008 -9.113501 -8.3995 -11.8281 
-9.513 -11.8429 -11.6565 -9.808001 -10.625 -18.2428 -16.6248 -14.5932 -8.861 -9.638 -10.2235 -10.5535 -12.9244 -10.31 -13.6612 
-14.8295 -12.9019 -14.17 -10.624 -18.6868 -19.7983 -16.6563 -15.0232 -13.0524 -10.7512 -12.509 -15.4699 -14.1209 -15.5717 
-1.4985 -1.4985 -4.5675 -2.7415 -3.0465 -2.9905 -2.5195 -9.841001 0 
-4.935 -5.37 -6.9525 -7.0885 -4.989 -5.134 -13.0341 -9.841001 
-9.2875 -7.358 -11.7005 -8.486501 -7.0065 -16.3602 -13.0341 
-11.3395 -12.2008 -13.0985 -10.4595 -19.1589 -16.3602 
-16.1823 -13.5988 -15.0715 -22.5601 -19.1589 
-3.2615 -3.135 -3.6905 -4.891 -5.198 -5.7505 -3.1385 -7.4025 -4.248 -3.9235 -3.882 -2.3615 -3.9235 -3.687 -12.16972 -3.59 0 
-5.675 -7.926001 -9.625 -9.0485 -11.9127 -10.4265 -11.7882 -12.2049 -8.2085 -8.102501 -5.4545 -5.7745 -8.533501 -16.80552 -15.75972 -3.59 
-9.370001 -14.5095 -14.0309 -16.14 -16.5887 -19.0762 -16.5906 -16.1654 -12.7209 -9.337501 -9.622001 -10.411 -21.95322 -20.39552 -15.75972 
-16.2075 -18.9154 -21.1224 -20.816 -25.2384 -23.8786 -20.5511 -20.6778 -13.9559 -13.9084 -14.4839 -23.83072 -25.54322 -20.39552 
-20.6134 -26.0069 -25.7984 -29.4657 -30.0408 -27.8391 -25.0635 -21.9128 -18.5268 -18.7703 -27.90362 -27.42072 -25.54322 
-3.2615 -3.7375 -3.5785 0 -5.3745 -4.891 -3.2795 -5.198 -5.1845 -6.844 -4.712 -7.609 -2.3335 -2.186 -5.608 -2.5195 -12.16972 
-7.078 -5.134 -3.5785 -5.3745 -7.061501 -8.928501 -8.084001 -9.755501 -6.9655 -10.2435 -11.994 -8.451 -3.7085 -6.8975 -6.9635 -15.36282 
-8.1615 -5.134 -10.31 -7.061501 -12.4912 -13.8604 -12.8681 -11.7679 -10.322 -18.0767 -12.9353 -10.0685 -8.585501 -7.857 -20.62062 
-8.1615 -12.0345 -11.997 -12.4912 -17.4231 -18.6445 -14.8805 -15.1244 -18.2454 -18.7582 -15.1402 -15.9249 -10.1635 -21.85192 
-15.408 -13.7215 -17.4267 -17.4231 -22.2072 -20.6569 -18.237 -23.0478 -18.9269 -20.9631 -20.8182 -17.5029 -24.59522 
