-4.759 
n/a 
n/a 
n/a 
n/a 
-4.759 
n/a 
n/a 
n/a 
n/a 
-4.759 
n/a 
n/a 
n/a 
n/a 
-4.759 
n/a 
n/a 
n/a 
n/a 
-6.182 -6.273 0 -6.3215 -7.192 -2.4945 -3.383 -3.301 -4.126 -5.804 
-10.9315 -6.273 -6.3215 -10.4855 -10.477 -4.732 -4.6415 -7.8915 -9.513 
-10.9315 -13.4179 -10.4855 -13.7705 -12.7145 -6.205 -9.212001 -13.6533 
-18.0764 -17.5819 -13.7705 -16.008 -14.1875 -11.2903 -15.0016 
-22.2404 -20.8669 -16.008 -17.481 -19.2728 -17.0799 
-6.182 -6.273 -1.756 -6.3215 -7.192 -2.4945 -7.244 -4.447 -4.3285 -5.1015 
-10.9315 -8.286501 -8.437 -10.4855 -10.477 -6.8035 -9.488 -9.116501 -9.7215 
-12.945 -15.2555 -12.8052 -13.7705 -14.1335 -10.0405 -13.8111 -14.7143 
-19.914 -19.6237 -16.0902 -17.427 -18.7358 -15.9452 -19.5587 
-24.2822 -22.9087 -19.7467 -22.0293 -23.9277 -21.543 
-6.182 -6.273 -1.756 -6.3215 -7.192 -2.4945 -3.301 -4.126 -5.804 
-10.9315 -8.286501 -8.437 -10.4855 -10.477 -5.269 -7.8915 -9.513 
-12.945 -15.2555 -12.8052 -13.7705 -13.2515 -10.674 -13.6533 
-19.914 -19.6237 -16.0902 -16.545 -18.6565 -16.4358 
-24.2822 -22.9087 -18.8647 -21.95 -24.4183 
-6.182 -6.273 -1.756 -6.3215 -7.192 -2.4945 -4.4695 -4.126 -4.447 -5.1015 
-10.9315 -8.286501 -8.437 -10.4855 -10.477 -6.5845 -8.1735 -7.565001 -8.291 
-12.945 -15.2555 -12.8052 -13.7705 -14.567 -11.1959 -10.622 -12.163 
-19.914 -19.6237 -16.0902 -17.8605 -19.1784 -13.6444 -15.22 
-24.2822 -22.9087 -20.1802 -22.4719 -21.6269 -18.2424 
