-4.759 
n/a 
n/a 
n/a 
n/a 
-4.759 
n/a 
n/a 
n/a 
n/a 
-4.759 
n/a 
n/a 
n/a 
n/a 
-4.759 
n/a 
n/a 
n/a 
n/a 
-5.251 -4.331 -5.5045 -1.934 -3.691 -3.5455 -3.6065 -4.644 -1.7565 -2.95 
-8.5445 -8.160501 -6.317501 -4.8225 -7.076 -6.9005 -6.686501 -5.2855 -4.3865 
-12.7212 -8.553 -8.443001 -7.579501 -11.0804 -7.710001 -7.156 -5.7935 
-13.1137 -10.9083 -11.6106 -11.7477 -11.8899 -8.288501 -7.615 
-15.469 -14.0759 -15.7788 -12.5572 -12.4684 -8.869 
-3.616 -3.1385 -4.1555 -1.7695 -3.511 -2.8965 -3.135 -2.95 -1.934 -3.691 0 
-5.859 -7.9795 -4.988501 -4.633 -7.318501 -6.925 -4.868 -4.54 -4.8225 -3.691 
-10.4035 -8.842 -7.819001 -8.279 -11.8518 -8.877501 -6.041 -7.6435 -4.8225 
-11.266 -11.7625 -12.3966 -13.2695 -13.8043 -10.028 -9.147 -7.6435 
-14.1865 -16.3401 -17.3871 -15.222 -14.9548 -13.3726 -9.147 
-1.4985 -6.1435 -5.7565 -1.7695 -3.691 -1.934 -3.948 -4.644 
-6.868 -10.2435 -6.202 -5.5435 -5.816501 -5.024 -7.111 
-11.2576 -10.6965 -8.438001 -6.9275 -9.0115 -8.31 
-11.7106 -12.9325 -9.179501 -10.2375 -12.4443 
-13.9466 -13.674 -12.5001 -13.9523 
-5.251 -3.152 -4.101 -1.7695 -3.691 -1.934 -3.6065 -3.6435 -1.7565 -2.95 
-6.883 -8.6145 -4.6905 -5.5435 -5.816501 -4.9755 -7.074 -4.7345 -4.3865 
-12.8277 -9.194 -7.7075 -6.9275 -9.701501 -9.1505 -8.015 -6.6805 
-13.4072 -12.2772 -8.910001 -11.4607 -13.8857 -10.4929 -10.6678 
-16.4904 -13.4797 -13.5094 -15.6449 -15.2281 -13.1457 
