-4.759 
n/a 
n/a 
n/a 
n/a 
-4.759 
n/a 
n/a 
n/a 
n/a 
-4.759 
n/a 
n/a 
n/a 
n/a 
-4.759 
n/a 
n/a 
n/a 
n/a 
-3.851 -1.7695 -5.645 -1.756 -4.2655 0 -4.2815 -4.168 -4.87 -4.2995 
-4.0015 -7.5185 -7.2425 -5.637 -4.2655 -4.2815 -8.5185 -9.237 -9.2925 
-9.372 -9.165 -11.6993 -5.637 -7.9445 -8.5185 -9.796 -14.0243 
-11.1865 -13.6944 -11.6993 -10.228 -13.1027 -9.796 -14.7851 
-15.7159 -13.6944 -16.2903 -15.5292 -14.3802 -14.7851 
-1.4985 -4.39 -1.7565 -4.2655 -1.756 -3.9675 0 -2.3345 -1.4985 -4.031 -1.7565 -4.3685 -1.7565 -3.8405 -3.458 -4.489 -1.756 -5.525 0 -2.0935 -2.3335 -2.925 -4.168 -2.0935 -1.4985 -3.685 -1.7565 -9.151501 0 
-5.256001 -4.681 -5.3855 -5.291 -4.942 -3.9675 -2.3345 -3.233 -4.771 -5.571 -6.035 -5.0855 -5.905 -6.1295 -7.651 -6.2105 -6.551 -5.525 -2.0935 -4.488501 -4.0295 -6.790501 -5.994 -2.9725 -4.771501 -4.5825 -7.714 -6.3885 
-5.366 -8.857501 -6.265501 -6.936 -4.942 -6.2895 -3.233 -7.704 -6.571 -10.9163 -7.351 -10.309 -9.2605 -11.0513 -7.743001 -11.8785 -6.551 -8.538 -4.488501 -7.021 -7.831 -9.265 -6.982 -6.785501 -5.532001 -14.15 -9.368501 
-9.377501 -8.9995 -7.971001 -6.936 -7.080501 -7.554501 -7.704 -8.3795 -12.1499 -12.2323 -13.0285 -13.6645 -14.2309 -11.1433 -14.1672 -11.8785 -8.893 -11.4118 -7.021 -11.0089 -10.243 -10.2095 -11.3512 -7.599501 -15.2087 -14.15 
-9.567501 -10.575 -7.971001 -9.013 -8.677501 -12.4519 -8.3795 -14.09 -13.4659 -17.9098 -16.384 -18.6349 -14.3229 -17.5675 -14.1672 -14.2205 -11.9108 -13.9443 -11.0089 -13.4209 -11.1875 -14.5787 -12.1652 -17.484 -15.2087 
-4.273 0 -4.2655 -3.8035 0 -9.2515 0 -10.283 -4.5675 -4.38 
-4.273 -4.2655 -9.164001 -3.8035 -9.2515 -9.2515 -10.283 -14.9923 -8.377501 
-9.0985 -9.164001 -9.164001 -14.046 -9.2515 -19.6937 -14.9923 -18.8023 
-14.2624 -9.164001 -19.6373 -14.046 -19.6937 -24.403 -18.8023 
-14.2624 -19.6373 -19.6373 -24.4882 -24.403 -28.213 
-4.2815 -4.8635 -5.157 -1.7695 -9.589001 -4.2995 -3.851 -1.7695 -5.891 -1.756 -4.3705 -3.4095 -1.756 -3.1435 -6.419 -4.4855 -4.0445 -4.33 -4.489 
-8.545 -8.516001 -7.2475 -12.776 -15.189 -7.6445 -4.0015 -7.943 -7.0585 -5.5605 -8.166 -5.0475 -4.1365 -7.252 -9.35 -8.004001 -6.656501 -8.851001 
-12.4225 -10.209 -19.2226 -17.7187 -19.2022 -7.664 -9.216001 -9.0015 -8.7585 -9.1525 -9.852501 -8.549001 -8.9305 -12.3735 -13.6136 -10.0475 -11.3795 
-14.1155 -22.2873 -23.6451 -21.7319 -19.2217 -13.1173 -10.287 -10.6215 -12.6859 -10.419 -13.4412 -13.4689 -13.8368 -17.0278 -15.8945 -14.9217 
-26.1938 -26.7098 -27.6583 -21.7514 -24.675 -14.1883 -11.907 -14.5489 -13.9524 -14.1699 -18.3611 -18.5549 -18.3575 -19.0713 -20.7687 
