-4.759 
n/a 
n/a 
n/a 
n/a 
-4.759 
n/a 
n/a 
n/a 
n/a 
-4.759 
n/a 
n/a 
n/a 
n/a 
-4.759 
n/a 
n/a 
n/a 
n/a 
-9.993501 -9.8905 -7.447001 0 -8.214001 
-20.0426 -17.3713 -7.447001 -8.214001 
-27.5234 -17.3713 -16.0654 
-27.5234 -25.9897 
-36.1418 
-3.2645 -2.489 -5.398 -1.7695 -4.2765 -4.4715 0 
-3.7195 -6.302 -7.6875 -4.5005 -8.519501 -4.4715 
-7.465 -8.374001 -9.601501 -8.699501 -8.519501 
-9.254001 -9.873501 -13.9523 -8.699501 
-11.0059 -14.3943 -13.9523 
-2.4265 -5.622 -4.243 0 -8.55 
-7.489 -10.5645 -4.243 -8.55 
-12.7611 -10.5645 -14.348 
-12.7611 -20.6695 
-22.8661 
-3.2825 -3.5045 -1.7695 -4.39 -3.5505 -1.7695 -4.2765 -6.8555 0 
-7.9055 -5.8085 -4.907 -6.7015 -5.7115 -4.5005 -12.3316 -6.8555 
-10.609 -9.901001 -7.1385 -8.558001 -7.688 -12.778 -12.3316 
-14.7015 -12.1325 -8.85 -10.1465 -16.5305 -12.778 
-16.933 -13.844 -10.185 -19.114 -16.5305 
