-4.759 
n/a 
n/a 
n/a 
n/a 
-4.759 
n/a 
n/a 
n/a 
n/a 
-4.759 
n/a 
n/a 
n/a 
n/a 
-4.759 
n/a 
n/a 
n/a 
n/a 
-3.6835 -3.2895 -4.676 -5.9225 -2.5045 -4.891 -3.3425 -5.351 -2.5045 -3.6835 -5.257 
-4.478 -7.113501 -11.7299 -8.4005 -7.5045 -7.8715 -8.055 -7.105 -6.0385 -7.002 
-7.239 -14.5258 -14.2079 -13.7289 -11.2534 -13.9162 -8.1525 -7.807 -7.2705 
-14.7743 -17.0038 -19.5363 -17.4778 -17.2981 -14.0137 -8.2725 -7.823 
-17.2523 -22.3322 -23.2852 -23.5225 -17.3956 -14.1337 -8.2815 
-3.6835 -3.2895 -3.9955 -3.264 -2.3335 -5.1845 -4.891 -5.7755 -3.3425 -3.8225 -3.1385 -2.0935 -2.985 -4.0195 
-4.478 -5.96 -6.6635 -4.533 -8.1525 -6.988 -11.9313 -9.533501 -6.722 -6.4475 -5.396501 -4.3315 -6.4595 
-6.0265 -8.284 -7.644001 -9.617001 -9.676001 -14.7327 -15.6893 -13.0722 -10.485 -8.556001 -6.797501 -7.3255 
-8.331 -9.2515 -12.8472 -11.3131 -17.6663 -18.4907 -19.228 -16.8352 -12.5935 -9.961 -9.6595 
-9.314 -14.4731 -14.5433 -19.3034 -21.4243 -22.0294 -22.991 -18.9437 -13.9985 -12.9016 
-3.6835 -3.401 -5.2405 -6.037 0 -2.3335 -1.4985 -4.891 -3.2955 -1.4985 -4.64 -2.5045 -2.985 -4.225 
-6.1645 -8.197001 -12.2629 -6.037 -2.3335 -3.3515 -5.891001 -8.530001 -4.8715 -5.9645 -7.177001 -5.065001 -6.588 
-8.7405 -15.3738 -12.2629 -6.4935 -3.3515 -7.717 -8.729 -9.669001 -9.743501 -8.065001 -9.8655 -8.489 
-15.9779 -15.3738 -12.7194 -7.025 -7.717 -10.316 -9.8395 -14.541 -11.8608 -10.9627 -13.2895 
-15.9779 -15.8303 -13.2509 -11.7277 -10.316 -11.4265 -14.7115 -16.6583 -14.7585 -14.3867 
-3.6835 -3.2895 -3.9235 -2.8645 -5.5395 -2.3335 -6.144 -2.9645 -5.351 -2.5045 -4.9355 
-4.478 -6.585 -5.948 -7.072 -8.1115 -8.3505 -9.828501 -8.4505 -7.105 -7.576 
-6.994 -8.484 -9.543501 -9.828 -14.3305 -12.3752 -15.3783 -8.6355 -12.8059 
-8.809 -10.354 -12.5255 -16.047 -18.3552 -17.925 -15.5633 -15.2328 
-10.3885 -13.8594 -18.7445 -20.0717 -23.905 -18.11 -22.1606 
