-4.759 
n/a 
n/a 
n/a 
n/a 
-4.759 
n/a 
n/a 
n/a 
n/a 
-4.759 
n/a 
n/a 
n/a 
n/a 
-4.759 
n/a 
n/a 
n/a 
n/a 

n/a 
n/a 
n/a 
n/a 
-4.536 -1.756 -4.7135 -3.429 -4.076 -3.5015 -1.934 -4.1865 -4.471 0 
-5.822001 -6.4045 -9.024 -7.410501 -7.652 -4.704 -5.967 -7.723001 -4.471 
-7.423 -10.13 -13.4499 -11.8105 -7.936 -8.5515 -9.264 -7.723001 
-11.4491 -14.5559 -17.8499 -12.0945 -10.476 -12.0725 -9.264 
-15.875 -18.9559 -18.1339 -14.6345 -13.997 -12.0725 
-4.536 -1.756 -4.7135 -3.0465 -4.076 -3.5015 -1.934 -4.1865 -4.471 0 
-5.822001 -6.4045 -9.1045 -7.4735 -7.652 -4.704 -5.967 -7.723001 -4.471 
-7.423 -10.6465 -13.7635 -11.5609 -7.936 -8.5515 -9.264 -7.723001 
-11.9656 -15.3055 -17.8509 -11.8449 -10.476 -12.0725 -9.264 
-16.6246 -19.3929 -18.1349 -14.3849 -13.997 -12.0725 
-4.536 -1.756 -4.7135 -2.4945 -4.129 -1.4985 -3.8175 -3.9825 -1.934 -1.4985 -4.1865 -3.5505 -3.686 0 
-5.822001 -6.4045 -7.583 -5.790501 -5.337 -4.741 -5.9455 -4.624 -2.6125 -5.177 -6.3645 -6.054 -3.686 
-7.423 -8.055 -11.159 -6.927501 -8.637501 -7.3665 -6.064 -5.1565 -6.116 -8.0605 -9.1955 -6.054 
-8.870001 -11.796 -12.296 -9.955501 -8.993 -7.897501 -6.573 -8.636001 -9.2615 -11.3875 -9.1955 
-12.7058 -12.933 -15.324 -10.1225 -9.2025 -8.538 -9.882501 -11.9535 -12.8191 -11.3875 
