-4.759 
n/a 
n/a 
n/a 
n/a 
-4.759 
n/a 
n/a 
n/a 
n/a 
-4.759 
n/a 
n/a 
n/a 
n/a 
-4.759 
n/a 
n/a 
n/a 
n/a 
-5.1845 -1.756 -3.6085 -4.4605 -2.4945 -5.2185 -3.6055 -3.158 
-7.2435 -5.505 -7.749001 -6.873 -7.1215 -8.748501 -5.061 
-8.2295 -9.6565 -10.1075 -10.0505 -9.992001 -9.313001 
-12.5986 -12.0392 -13.285 -12.9898 -10.481 
-14.9813 -15.2167 -16.2243 -13.4788 
-5.1845 -1.756 -3.6085 -5.8205 -2.4945 -5.2185 -2.264 -4.126 0 
-7.2435 -5.505 -9.131001 -7.6615 -7.1215 -7.0465 -5.3735 -4.126 
-8.2295 -10.4675 -11.2114 -10.0125 -9.034 -9.368 -5.3735 
-13.4096 -12.5479 -13.5624 -11.925 -10.718 -9.368 
-15.49 -14.8989 -15.4749 -13.609 -10.718 
-5.1845 -1.756 -3.6085 -5.8205 -2.4945 -4.4655 -3.6055 -3.158 
-7.2435 -5.505 -9.131001 -7.6615 -5.8055 -7.1455 -5.061 
-8.2295 -10.4675 -11.2114 -11.2325 -8.027 -8.158501 
-13.4096 -12.5479 -14.7824 -13.454 -8.9875 
-15.49 -16.1189 -17.0039 -14.4145 
-5.1845 -1.756 -3.6085 -5.8635 -3.429 -3.5015 -3.6055 -3.158 0 
-7.2435 -5.505 -8.592 -10.1265 -4.918 -6.5625 -5.061 -3.158 
-8.2295 -10.8409 -13.1106 -11.6155 -7.1825 -7.4385 -5.061 
-13.783 -15.3595 -14.5996 -13.88 -8.165501 -7.4385 
-18.3016 -16.8485 -16.8641 -14.863 -8.165501 
