-4.759 
n/a 
n/a 
n/a 
n/a 
-4.759 
n/a 
n/a 
n/a 
n/a 
-4.759 
n/a 
n/a 
n/a 
n/a 
-4.759 
n/a 
n/a 
n/a 
n/a 
-2.3615 -2.186 -1.8085 -3.952 -2.871 -3.277 -4.07 -3.0575 -3.6905 -5.5255 -2.3615 -7.3765 -2.3615 -4.3955 0 
-3.5005 -3.164 -5.482 -6.6955 -6.509 -8.295 -6.955 -6.844 -9.011001 -8.057 -10.4425 -10.016 -7.065001 -4.3955 
-4.179 -7.051 -8.598001 -10.8305 -12.013 -11.4822 -11.1243 -12.8073 -12.3663 -16.6304 -13.082 -14.7817 -7.065001 
-7.7435 -10.564 -12.9262 -16.3345 -15.2002 -15.6515 -17.0876 -16.1626 -20.9397 -19.2699 -17.8477 -14.7817 
-11.5313 -14.8922 -18.4302 -19.5217 -19.3695 -21.6148 -20.4429 -24.736 -23.5792 -24.0356 -17.8477 
-1.4985 -3.7075 -2.186 -3.88 -4.8435 -3.3255 -1.4985 -3.352 -6.0885 -4.2125 -1.934 -1.4985 -3.352 -4.9305 -4.1095 0 -3.5445 -1.4985 -4.622 -5.0075 -1.7565 -1.4985 -5.3675 -4.455 -1.7565 -1.4985 -5.732 -3.3755 -4.9845 
-4.6235 -5.825 -4.5835 -7.8955 -6.5385 -3.8945 -4.43 -7.983 -8.110001 -6.555 -2.6125 -4.43 -8.172501 -8.402 -4.1095 -3.5445 -4.002 -5.221 -7.7045 -6.334 -2.4195 -6.5115 -8.1035 -5.7535 -2.4195 -6.261001 -5.8985 -6.862 
-5.975501 -8.6055 -8.278501 -9.113501 -7.013 -6.7745 -8.122001 -8.7875 -9.621 -6.9835 -5.521501 -8.332001 -10.396 -8.402 -7.267501 -4.002 -7.307 -8.019501 -8.341001 -6.5595 -7.324501 -8.507 -9.019 -6.014501 -6.848501 -6.3015 -6.864 
-8.965 -10.259 -9.4495 -9.7185 -9.945001 -9.691 -8.939501 -10.199 -9.982501 -10.031 -9.252001 -10.5975 -10.396 -10.4425 -7.664501 -7.307 -9.818001 -8.4315 -8.496 -10.1675 -9.269501 -9.150001 -9.063001 -8.5825 -6.862501 -7.206501 
-10.287 -10.2955 -10.0265 -10.2835 -10.237 -10.0365 -10.2185 -10.3755 -10.5815 -10.518 -10.622 -10.5975 -10.6335 -10.623 -9.975 -9.818001 -10.344 -8.545 -10.194 -10.206 -9.9285 -9.197001 -9.134001 -8.584001 -7.659501 
-2.3615 -4.2995 -1.7565 -2.871 -3.158 -1.7565 -3.0575 -3.6905 -1.7565 -5.7715 -1.756 -3.644 0 
-6.233 -5.232 -4.521 -4.729 -4.71 -5.2545 -6.844 -5.23 -7.778 -7.3255 -5.6485 -3.644 
-7.6235 -7.742 -6.071 -5.908 -8.841001 -8.6195 -9.186001 -12.2651 -9.4315 -11.858 -5.6485 
-10.6465 -9.6134 -7.291501 -10.31 -12.3348 -11.6943 -16.4761 -13.9186 -14.1412 -11.858 
-12.5179 -10.8339 -12.0253 -13.8038 -15.4096 -18.9844 -18.1296 -18.6283 -14.1412 
-2.3615 -4.2995 -2.8645 -2.871 -3.158 -2.4285 -3.0575 -3.5785 -4.9375 -2.3615 -2.186 -3.849 -8.325001 -2.229 -4.1465 
-6.233 -6.3575 -5.417 -4.729 -5.31 -6.2915 -5.7175 -9.193501 -7.2415 -3.5005 -4.8565 -12.3346 -10.6605 -6.035501 
-7.7155 -9.526501 -7.6145 -6.3545 -8.769501 -8.7355 -11.8411 -11.5841 -8.0745 -5.99 -13.6231 -14.6701 -14.467 
-11.0927 -11.7204 -9.592 -10.181 -10.2485 -14.6309 -14.2317 -12.4171 -10.259 -15.0644 -15.9586 -18.4766 
-13.2866 -13.6979 -13.9673 -11.66 -16.1439 -17.0215 -15.0647 -14.6016 -19.3334 -17.3999 -19.7651 
