-4.759 
n/a 
n/a 
n/a 
n/a 
-4.759 
n/a 
n/a 
n/a 
n/a 
-4.759 
n/a 
n/a 
n/a 
n/a 
-4.759 
n/a 
n/a 
n/a 
n/a 
-3.1495 -3.074 -3.2015 -3.9915 -4.079 -1.7695 -3.433 -3.9915 -1.756 -4.385 -1.7565 -3.6045 0 -3.1435 -4.515 -3.0835 -3.1335 -1.7565 0 -18.863 0 0 -3.849 0 
-6.687 -6.069 -8.537001 -7.851501 -5.261 -5.9665 -7.9925 -5.1375 -5.8005 -4.933 -5.152 -3.6045 -3.1435 -7.486501 -7.956501 -6.288 -5.0585 -1.7565 -9.554501 -9.554501 0 -3.849 -3.849 
-9.349001 -10.4595 -12.9094 -10.2985 -9.938 -11.1586 -9.700001 -10.082 -6.3405 -7.601501 -5.152 -7.471 -7.486501 -11.3814 -12.025 -8.151 -5.0585 -11.7042 -8.998501 -8.998501 -3.849 -3.849 
-13.8167 -14.8319 -15.3564 -14.9755 -15.1973 -12.8661 -14.7685 -10.4915 -9.124001 -7.601501 -9.045 -12.0826 -11.3814 -15.4499 -13.888 -8.151 -15.829 -11.7042 -8.998501 -15.4582 -3.849 
-18.1891 -17.2789 -20.0334 -20.2348 -16.9048 -17.9346 -15.178 -13.275 -9.124001 -12.1637 -13.6798 -15.9775 -15.4499 -17.3129 -13.888 -19.5235 -15.829 -11.7042 -15.4582 -15.4582 
-3.1495 -4.0995 -3.9915 -2.6165 -3.699 -2.0935 -3.433 -2.4285 -5.0815 -3.916 0 -4.0005 -3.0835 -3.4605 -4.281 -2.5045 -22.03772 0 
-6.8855 -8.417 -6.745 -6.035 -5.118 -5.535501 -6.023 -7.5755 -9.4075 -3.916 -4.0005 -7.5705 -6.785501 -7.9975 -5.893 -21.72262 -18.30072 
-11.9168 -8.9905 -9.7605 -7.2875 -8.9285 -8.352501 -10.389 -12.1633 -9.4075 -8.274 -7.5705 -11.7037 -11.9893 -9.72 -25.47192 -21.72262 
-12.4903 -14.3916 -11.3874 -11.3602 -11.6851 -12.9801 -14.9768 -12.1633 -14.0137 -12.0466 -11.7037 -16.9075 -13.7118 -29.34472 -25.47192 
-17.8914 -16.0185 -15.4601 -14.1168 -16.3127 -17.5679 -14.9768 -16.7695 -17.7863 -16.1798 -16.9075 -18.63 -33.33652 -29.34472 
-2.4265 -2.186 -2.6165 -5.164 -2.0935 -3.433 -3.3425 -4.0995 -3.7905 -3.9915 -2.4265 -2.186 -4.0005 -3.849 -4.0105 -3.432 -3.09 -29.91344 0 
-3.292 -3.5105 -8.116 -6.0565 -5.535501 -6.669 -7.39 -6.5085 -4.8895 -6.467 -3.292 -5.0275 -6.8985 -7.5175 -7.9455 -6.429501 -35.30444 -31.07564 
-4.443 -8.906501 -9.626 -10.004 -9.4375 -10.66 -9.842501 -8.389501 -6.903501 -7.242 -6.0085 -7.5275 -10.8008 -11.7487 -11.3324 -39.48174 -35.30444 
-9.848001 -10.2285 -13.5649 -13.906 -13.6049 -13.1125 -10.7635 -10.8103 -8.328001 -10.2805 -8.481 -11.4662 -15.032 -15.1356 -44.38464 -39.48174 
-11.5456 -14.1674 -17.4669 -18.0734 -16.0574 -14.0335 -13.1843 -12.2348 -11.5857 -12.753 -12.5485 -15.6974 -18.4189 -48.18784 -44.38464 
-1.4985 -2.9645 -1.7565 -3.8825 -6.055501 -3.9915 -2.4945 -2.6165 -4.023 -2.0935 -2.9995 -3.8435 0 -3.2275 -3.916 -2.4285 0 -1.4985 -3.0835 -3.874 -3.16 -3.5495 -2.7415 -3.849 0 -18.863 0 
-4.1725 -3.7825 -5.343 -10.564 -8.512001 -5.397 -3.8065 -5.4395 -4.979 -4.1725 -6.195 -3.8435 -3.2275 -7.126 -6.095 -2.4285 -1.4985 -3.535 -5.47 -7.752501 -5.0605 -6.2985 -5.431 -3.849 -9.554501 -9.554501 
-4.2115 -7.642 -12.5017 -13.0205 -9.560501 -6.733 -6.48 -6.2755 -7.174 -7.174 -6.195 -7.442 -7.126 -9.335501 -6.095 -4.002501 -3.535 -5.861001 -8.259001 -9.314 -7.639 -9.001 -5.431 -10.7785 -8.998501 
-7.9545 -15.2415 -14.9582 -14.069 -11.4767 -9.013 -7.190001 -8.487 -10.6095 -7.174 -10.298 -9.8125 -9.335501 -9.335501 -7.4795 -6.4285 -5.861001 -8.717501 -9.377501 -10.7505 -10.586 -9.001 -10.8045 -10.805 
-15.5788 -17.698 -16.0067 -15.9852 -13.7567 -10.419 -9.528 -12.1597 -10.6095 -11.811 -13.1677 -12.2762 -9.335501 -10.941 -10.4675 -9.4835 -8.717501 -10.4675 -10.7505 -10.778 -10.586 -10.805 -10.8045 
