-4.759 
n/a 
n/a 
n/a 
n/a 
-4.759 
n/a 
n/a 
n/a 
n/a 
-4.759 
n/a 
n/a 
n/a 
n/a 
-4.759 
n/a 
n/a 
n/a 
n/a 
-3.17 -1.7565 -1.4985 -3.972 -2.4945 -5.349 -3.402 -2.264 -1.4985 -3.8975 -3.557 -2.264 -2.3335 -3.972 0 
-4.179 -2.4195 -4.963 -6.0975 -5.841001 -7.8655 -3.793 -2.9195 -5.256001 -6.835501 -4.9 -4.6785 -7.207001 -3.972 
-4.497 -5.9835 -6.682 -9.429001 -8.303 -7.895 -4.34 -7.0645 -7.6595 -7.4265 -7.73 -9.700001 -7.207001 
-8.087501 -8.079 -9.948001 -12.4846 -8.3315 -8.449 -7.935501 -9.651 -8.093 -10.717 -13.1731 -9.700001 
-9.037001 -11.4488 -13.2604 -12.5131 -8.821 -12.2285 -10.4755 -9.971001 -11.7761 -16.1601 -13.1731 
-4.8315 0 -4.3305 -5.808 -3.1435 -4.541 -3.9745 -2.356 -1.934 -4.2315 0 
-4.8315 -4.3305 -10.6095 -7.707 -7.4495 -8.3065 -6.443501 -5.342 -6.064 -4.2315 
-10.3965 -10.6095 -12.5085 -12.387 -10.0065 -11.2631 -9.978001 -9.3415 -6.064 
-16.6755 -12.5085 -17.1885 -14.944 -13.0253 -14.7976 -13.9915 -9.3415 
-18.5745 -17.1885 -19.7455 -17.9628 -16.5598 -18.8111 -13.9915 
-2.645 -4.159 -2.4945 -5.532 -2.3345 -2.9705 -1.4985 -4.16 -2.4945 -3.147 0 
-6.1095 -6.489 -9.608 -7.96 -5.03 -4.186 -5.226 -5.649 -4.546 -3.147 
-9.2355 -14.3381 -11.9876 -10.9035 -5.6805 -7.56 -6.8285 -8.604 -4.546 
-17.5974 -16.7177 -14.9311 -11.554 -9.287001 -8.314 -9.002001 -8.604 
-19.977 -19.6612 -15.5816 -15.1605 -10.082 -10.6885 -9.002001 
-3.972 -4.552 -2.3345 -4.8465 0 
-9.027 -6.194 -7.929501 -4.8465 
-10.259 -12.61 -7.929501 
-16.675 -12.61 
-16.675 
