-4.759 
n/a 
n/a 
n/a 
n/a 
-4.759 
n/a 
n/a 
n/a 
n/a 
-4.759 
n/a 
n/a 
n/a 
n/a 
-4.759 
n/a 
n/a 
n/a 
n/a 
-3.0835 -4.6955 -1.7565 -6.029 0 -3.9005 -3.9355 -1.7565 -6.029 -8.998501 
-7.566501 -6.7515 -7.397501 -6.029 -3.9005 -8.677 -5.8675 -7.397501 -16.0683 
-8.6 -12.9945 -7.397501 -10.9703 -8.677 -10.9556 -12.9923 -17.6256 
-15.1574 -12.9945 -12.5276 -15.7468 -10.9556 -18.0804 -23.2204 
-15.1574 -18.1246 -17.3041 -18.0254 -18.0804 -28.3085 
-8.998501 -3.534 -7.994 
-12.8093 -12.4312 
-21.7065 
n/a 
n/a 
-1.4985 -3.535 -3.8625 -1.7565 -6.6325 -10.039 0 -3.0835 -3.8625 
-4.255 -8.177501 -5.847 -9.915501 -11.0465 -10.039 -3.0835 -7.3865 
-8.894501 -9.642501 -14.6486 -14.3295 -11.0465 -13.4181 -7.3865 
-9.747001 -18.8273 -19.0626 -14.3295 -14.4256 -17.7211 
-18.9992 -23.2413 -19.0626 -17.7086 -18.7286 

n/a 
n/a 
n/a 
n/a 
