-4.759 
n/a 
n/a 
n/a 
n/a 
-4.759 
n/a 
n/a 
n/a 
n/a 
-4.759 
n/a 
n/a 
n/a 
n/a 
-4.759 
n/a 
n/a 
n/a 
n/a 
-3.0415 -6.705 -2.742 -2.489 -5.451 -2.3345 -2.5685 
-10.575 -9.838 -3.301 -7.1035 -6.884501 -4.884 
-13.708 -10.29 -8.005 -7.849 -7.9495 
-14.16 -15.214 -8.2095 -8.2405 
-19.084 -15.4185 -8.3165 
-6.705 -2.7415 -4.4095 -1.756 -5.827 -1.934 -1.4985 -4.2605 0 
-9.5395 -7.0255 -6.2155 -7.354 -7.5435 -2.6125 -4.8355 -4.2605 
-13.8783 -8.919001 -12.9259 -9.061 -8.0525 -6.2935 -4.8355 
-15.7718 -15.7076 -14.6329 -9.527 -11.8925 -6.2935 
-22.5604 -17.4146 -15.0989 -13.3804 -11.8925 
-3.0415 -3.2015 -1.756 -8.283 -4.4995 -1.7695 -8.267 
-7.484 -4.741 -10.259 -13.2745 -5.291 -11.1415 
-9.2325 -14.355 -15.2505 -14.066 -15.4282 
-18.9575 -19.3465 -16.042 -24.2032 
-23.949 -20.138 -26.1792 
-3.0415 0 -6.705 -3.7555 -5.1585 -1.756 -3.074 -4.8755 0 
-3.0415 -6.705 -10.3475 -9.8765 -6.551 -4.566 -8.631001 -4.8755 
-10.575 -10.3475 -16.8581 -11.3902 -9.166 -10.016 -8.631001 
-14.2175 -16.8581 -18.3718 -14.0052 -14.6244 -10.016 
-20.7281 -18.3718 -20.9868 -19.4636 -14.6244 
