-4.759 
n/a 
n/a 
n/a 
n/a 
-4.759 
n/a 
n/a 
n/a 
n/a 
-4.759 
n/a 
n/a 
n/a 
n/a 
-4.759 
n/a 
n/a 
n/a 
n/a 
-1.4985 -4.9175 -4.7275 -2.186 -4.2285 -5.498 -1.934 -1.4985 -4.877 -1.7565 -2.8705 -3.1385 0 
-5.785501 -9.826 -6.177501 -6.443501 -6.653001 -5.758 -2.6125 -5.773001 -5.731501 -3.8505 -5.2995 -3.1385 
-11.4484 -11.331 -10.9924 -8.212501 -8.009001 -6.2385 -6.193501 -5.8675 -7.25 -6.299 -5.2995 
-12.9534 -16.1459 -12.7614 -8.623 -8.436001 -8.945001 -6.217 -7.492501 -8.649501 -6.299 
-17.7683 -17.9149 -13.1719 -9.078 -9.986501 -8.996 -8.023001 -8.858001 -8.649501 
-5.233 -4.3195 -1.8085 -3.8175 -3.355 -1.934 -2.8705 -3.1385 -2.229 -4.0335 0 
-8.3335 -5.0655 -4.55 -6.1305 -4.8475 -4.1055 -5.2995 -4.6125 -5.7475 -4.0335 
-9.0375 -6.9085 -6.27 -7.051001 -6.546 -7.2685 -7.419001 -7.6375 -5.7475 
-10.287 -8.454 -7.072001 -8.715501 -10.6335 -8.557 -10.553 -7.6375 
-12.3301 -10.6215 -8.7235 -13.0262 -11.922 -12.0168 -10.553 
-2.8705 -4.7505 -2.4945 -3.4625 -7.1955 -2.0935 -5.309 
-5.729 -6.558001 -4.7105 -9.279501 -8.499001 -7.263 
-7.073501 -8.911 -10.5535 -10.9472 -14.0691 
-9.7335 -14.988 -12.2212 -16.5173 
-15.8419 -16.6557 -17.7913 
-2.8705 -3.1385 -3.9195 -1.934 -3.074 -5.399 -4.2425 0 
-5.2995 -8.092001 -6.025 -6.5925 -8.083 -8.9865 -4.2425 
-10.9006 -10.688 -9.832001 -11.9357 -11.9013 -8.9865 
-13.4966 -14.495 -16.4078 -15.754 -11.9013 
-17.3036 -21.0708 -20.2261 -15.754 
