-4.759 
n/a 
n/a 
n/a 
n/a 
-4.759 
n/a 
n/a 
n/a 
n/a 
-4.759 
n/a 
n/a 
n/a 
n/a 
-4.759 
n/a 
n/a 
n/a 
n/a 
-3.0365 -2.186 -3.098 -2.871 -3.545 -3.1015 
-3.66 -4.5535 -4.554 -6.581 -6.5785 
-5.57 -5.568 -8.0495 -9.5765 
-5.7555 -9.075001 -11.299 
-9.1455 -12.5489 
-3.1015 -3.0365 -2.4945 -3.098 -2.871 
-5.474 -3.688 -4.907001 -4.554 
-6.057 -5.665 -6.818501 
-7.5625 -7.719 
-9.8275 
-3.1015 -2.925 -2.674 -3.7285 -4.304 
-5.38 -4.1785 -6.993 -7.797 
-6.376 -8.446501 -11.4623 
-10.8426 -13.1792 
-15.5753 
-2.5045 -3.8825 -3.098 -2.871 0 
-5.282001 -6.544001 -4.554 -2.871 
-7.191501 -7.915501 -4.554 
-8.354 -7.915501 
-8.354 
