-4.759 
n/a 
n/a 
n/a 
n/a 
-4.759 
n/a 
n/a 
n/a 
n/a 
-4.759 
n/a 
n/a 
n/a 
n/a 
-4.759 
n/a 
n/a 
n/a 
n/a 
-5.1255 -4.791 -3.8125 -4.2815 -2.356 -2.8965 -4.791 -3.213 -7.641 -4.105 -4.1215 -2.186 -3.4155 -2.871 0 
-11.1181 -7.581501 -8.255501 -4.868001 -4.4085 -7.339 -7.496 -11.8904 -12.308 -8.169001 -6.118 -5.0125 -6.165501 -2.871 
-13.9086 -12.3615 -8.860001 -6.369 -8.925 -9.901 -16.4772 -16.5574 -16.372 -9.253 -9.377501 -7.859 -6.165501 
-18.6886 -12.966 -10.0615 -11.0819 -11.6556 -18.8822 -21.1442 -20.6214 -17.456 -12.6333 -12.3266 -7.859 
-19.2931 -14.1675 -14.7744 -13.8125 -20.6368 -23.5492 -25.2082 -21.7054 -20.8363 -15.5824 -12.3266 
-7.641 -2.229 -9.947001 -1.756 -4.4315 -4.8345 -2.742 -3.61 -2.645 -4.1495 -3.034 -4.2815 -2.356 -2.8965 -8.3935 -5.449 0 
-9.778 -12.771 -11.7562 -5.904 -6.741501 -8.2335 -5.2735 -5.8955 -6.1495 -7.100501 -5.568 -4.868001 -4.4085 -12.4352 -14.0995 -5.449 
-20.6634 -14.5802 -15.9042 -7.881001 -9.732 -9.824501 -7.377501 -7.9075 -8.2755 -9.967001 -6.111001 -6.369 -14.3544 -18.1412 -14.0995 
-22.4726 -18.7282 -17.8812 -10.485 -11.3364 -12.1473 -9.3725 -9.927 -11.3164 -10.707 -7.282001 -16.5113 -20.0604 -18.1412 
-26.6206 -20.7052 -20.4852 -12.0894 -13.6592 -14.1423 -11.657 -13.0501 -12.0564 -11.878 -17.4963 -22.2173 -20.0604 
-3.034 -4.2815 -2.356 -1.4985 -2.8965 -4.791 -3.8125 -1.7565 -7.335001 0 -7.641 -2.229 -4.818 -2.186 -1.4985 -3.2825 
-5.568 -4.868001 -3.1615 -3.928 -7.339 -7.581501 -5.167 -8.8005 -7.335001 -7.641 -9.778 -6.8275 -6.939 -3.339 -3.712 
-6.111001 -5.4905 -5.451 -8.873 -9.814501 -8.597501 -13.1246 -8.8005 -15.6364 -9.778 -14.7199 -8.092 -8.455501 -4.8425 
-6.6025 -7.205501 -9.953001 -11.4319 -10.8305 -16.8383 -13.1246 -17.2571 -17.7734 -14.7199 -15.9844 -9.490001 -10.228 
-8.160501 -11.9729 -12.6379 -12.4479 -19.0713 -16.8383 -21.5812 -19.3941 -22.7153 -15.9844 -17.3824 -11.3983 
-7.641 -2.229 -4.0435 -4.1215 -2.186 -1.4985 -6.483 -4.9895 -3.2825 -3.729 -3.034 -4.1205 -2.356 -2.8965 -5.449 
-9.778 -6.5775 -8.3535 -6.118 -3.339 -7.096001 -10.411 -8.901501 -7.441501 -6.7905 -6.771 -6.7215 -4.4085 -7.6655 
-14.4699 -11.2385 -9.644001 -7.364 -9.856501 -10.702 -14.323 -13.1885 -11.0852 -10.733 -8.022 -8.2775 -9.4545 
-19.1309 -12.529 -11.0618 -14.2617 -13.5967 -14.614 -18.61 -16.8322 -15.0277 -11.984 -8.838501 -13.7661 
-20.4214 -13.9468 -17.9595 -18.0019 -17.5087 -18.901 -22.2537 -20.7747 -16.2787 -12.8005 -14.4725 
