-4.759 
n/a 
n/a 
n/a 
n/a 
-4.759 
n/a 
n/a 
n/a 
n/a 
-4.759 
n/a 
n/a 
n/a 
n/a 
-4.759 
n/a 
n/a 
n/a 
n/a 
-3.5455 -3.676 -2.229 -3.511 -4.138 -1.934 -8.863001 
-4.521501 -4.593 -5.825 -8.8985 -6.69 -11.8034 
-6.145 -9.212001 -11.9611 -11.7695 -16.9426 
-11.6238 -15.6829 -14.8321 -22.0221 
-18.0947 -18.5539 -25.0847 
-4.386 -1.7565 -8.1485 -2.4945 -3.8245 -1.934 -3.5455 -3.676 
-4.539 -9.760501 -11.046 -5.751 -4.7245 -4.8495 -4.521501 
-13.319 -12.658 -14.3025 -6.158 -7.336 -5.2535 
-16.2165 -15.9145 -14.7095 -9.268001 -8.0655 
-19.473 -16.3215 -17.8195 -9.830001 
-1.934 -3.5455 -3.676 -3.135 -4.4345 -1.7565 -5.1845 -3.1385 -3.511 0 
-4.8495 -4.521501 -7.153501 -7.267 -4.719 -6.580501 -7.4095 -5.979 -3.511 
-5.2535 -7.908501 -11.6659 -7.3975 -10.3345 -8.684001 -9.967001 -5.979 
-8.278501 -12.4963 -11.7964 -13.3822 -12.438 -11.2957 -9.967001 
-12.9071 -12.6268 -17.7811 -15.4857 -15.0497 -11.2957 
-3.8825 -9.9305 -2.4945 -4.657 -1.934 -3.5455 -3.676 
-16.4829 -13.1354 -7.751 -5.156 -4.8495 -4.521501 
-18.3934 -19.0407 -8.294001 -7.6355 -5.2535 
-24.2987 -19.5837 -11.0741 -8.4725 
-24.8417 -22.3638 -11.9111 
