-4.759 
n/a 
n/a 
n/a 
n/a 
-4.759 
n/a 
n/a 
n/a 
n/a 
-4.759 
n/a 
n/a 
n/a 
n/a 
-4.759 
n/a 
n/a 
n/a 
n/a 
-2.5045 -6.844 0 -2.7455 -3.7925 -3.277 -1.7565 -6.864 -2.229 -4.1 -2.674 -3.1125 -4.226 0 
-9.832001 -6.844 -2.7455 -6.002501 -5.9965 -4.296 -8.661 -8.205501 -6.1495 -7.262001 -3.6315 -5.0245 -4.226 
-9.832001 -10.6215 -6.002501 -7.8145 -6.7555 -12.1341 -10.2807 -13.0082 -9.186501 -7.719001 -5.7695 -5.0245 
-14.3613 -13.8785 -7.8145 -8.975 -15.1246 -13.7538 -15.0834 -16.0452 -9.719001 -10.103 -5.7695 
-17.6183 -15.6905 -8.975 -17.5757 -16.7443 -18.5565 -18.1204 -16.5777 -12.103 -10.103 
-4.122 -3.2615 -3.7925 -3.277 -4.9345 -9.196501 -4.6825 -1.934 -10.2505 
-7.218 -7.4145 -5.9965 -8.699 -15.028 -10.932 -6.343501 -11.0145 
-11.6408 -7.860001 -11.7393 -19.0261 -16.7635 -12.593 -16.0832 
-12.0863 -13.8668 -22.0664 -20.7616 -18.4245 -22.3327 
-18.0931 -24.1939 -23.8019 -22.4226 -28.1642 
-1.4985 -6.864 -5.2875 -2.9705 -5.1605 -4.743 -2.0935 -4.067 -3.7925 -3.277 -2.7415 -6.248 0 
-7.8675 -8.533 -7.5915 -7.283 -10.31 -7.322001 -5.467 -6.806001 -5.9965 -6.0695 -7.294001 -6.248 
-8.806001 -10.2235 -8.469501 -12.8373 -12.889 -9.736 -7.896501 -7.743001 -8.672501 -10.81 -7.294001 
-10.2865 -10.606 -14.5254 -15.4163 -15.303 -12.5501 -8.2745 -10.597 -13.4566 -10.81 
-10.6435 -16.6619 -17.1044 -17.8303 -18.1171 -12.9281 -10.733 -15.3811 -13.4566 
-1.934 -6.844 0 -4.347 -1.934 -3.7925 -3.277 -1.4985 -5.362 -1.7565 -6.864 -2.7415 -4.226 0 
-9.1885 -6.844 -4.347 -7.1505 -6.4065 -5.9965 -4.839 -6.038501 -5.843 -8.661 -9.5625 -5.661 -4.226 
-9.1885 -12.1296 -7.1505 -10.702 -7.584001 -7.4385 -9.431 -6.073501 -10.6875 -11.6377 -12.5166 -5.661 
-14.6565 -14.9331 -10.702 -11.8795 -8.718 -12.1885 -9.461 -10.717 -13.6642 -14.5918 -12.5166 
-17.46 -18.4846 -11.8795 -13.0135 -13.5478 -12.2185 -14.2359 -13.6937 -16.6183 -14.5918 
