-4.759 
n/a 
n/a 
n/a 
n/a 
-4.759 
n/a 
n/a 
n/a 
n/a 
-4.759 
n/a 
n/a 
n/a 
n/a 
-4.759 
n/a 
n/a 
n/a 
n/a 
-2.872 -2.925 -3.2345 -2.645 -3.931 -1.7695 -1.4985 -4.9785 -4.348 
-4.5305 -5.2865 -5.506001 -7.3905 -5.494 -2.7955 -5.967 -6.599 
-7.014 -7.351 -10.749 -9.222 -6.077 -7.211 -7.907001 
-9.08 -12.8352 -12.5805 -9.7985 -10.7335 -9.1835 
-14.7464 -14.6667 -13.157 -14.5594 -12.706 
-3.6705 -2.925 -3.8755 -2.645 -4.285 -1.7695 -4.559 -2.229 -4.9785 -3.9665 0 
-5.527 -6.298 -6.653501 -6.3745 -5.118001 -6.2435 -5.3525 -6.226 -7.232501 -3.9665 
-9.507001 -8.750501 -9.797501 -7.0315 -9.025001 -6.942 -8.709001 -8.7675 -7.232501 
-12.0825 -11.8719 -10.536 -9.977501 -9.203001 -10.2085 -11.6547 -8.7675 
-15.2039 -12.6104 -13.482 -10.4385 -12.6503 -13.2238 -11.6547 
-3.5725 0 -2.925 -3.251 -3.8755 -4.318 -3.931 -3.1575 -2.9325 -2.925 -3.251 -3.966 0 
-3.5725 -2.925 -4.617 -6.347 -8.8405 -7.5115 -7.0775 -5.3915 -4.4605 -4.617 -5.8865 -3.966 
-6.486 -4.617 -7.515501 -11.7014 -12.2392 -11.2418 -9.5415 -6.5435 -6.1595 -7.018 -5.8865 
-8.217501 -7.515501 -12.9477 -15.1001 -15.9695 -13.7058 -10.7873 -7.914501 -8.549001 -7.018 
-11.365 -12.9477 -16.3464 -18.8304 -18.4335 -14.9516 -12.1583 -10.632 -8.549001 
-2.872 -2.4265 -2.186 -6.259 -2.645 -5.123 -1.934 -7.572001 0 
-4.062 -3.292 -8.752001 -8.263 -8.819501 -6.958 -9.5915 -7.572001 
-4.7985 -10.411 -10.4765 -14.5437 -10.0925 -15.1433 -9.5915 
-12.2593 -12.1355 -16.7572 -15.8167 -18.352 -15.1433 
-13.9838 -18.4162 -18.0302 -24.0762 -18.352 
