-4.759 
n/a 
n/a 
n/a 
n/a 
-4.759 
n/a 
n/a 
n/a 
n/a 
-4.759 
n/a 
n/a 
n/a 
n/a 
-4.759 
n/a 
n/a 
n/a 
n/a 
-1.7695 -4.1545 -1.4985 -5.319 -2.3335 -3.0785 -2.0935 -4.921 0 -2.3615 -3.193 -2.186 -3.4625 -5.1805 -1.934 -6.3215 -3.571 -4.372 -4.281 0 -9.667001 -9.2845 -12.16972 0 -2.186 -3.074 -3.4625 -4.3895 0 
-5.7055 -5.526 -6.3415 -7.0695 -5.337 -5.116 -6.7315 -4.921 -2.3615 -5.0835 -5.2605 -4.4835 -7.206 -6.3385 -7.453 -10.5535 -7.8785 -8.942 -4.281 -9.667001 -19.0019 -21.76582 -12.16972 -2.186 -4.156 -5.8805 -6.507 -4.3895 
-6.201 -10.4945 -8.147 -10.361 -8.352 -10.2755 -6.7315 -7.4625 -5.0835 -6.8245 -7.673 -7.5825 -8.028501 -10.4675 -12.1302 -14.861 -12.8201 -8.942 -14.2646 -19.0019 -31.48322 -21.76582 -14.35572 -4.156 -6.364 -8.8915 -6.507 
-11.5569 -12.3 -11.5885 -13.376 -13.7973 -10.2755 -8.942 -10.66 -6.8245 -9.21 -8.614 -8.4195 -12.3097 -15.1447 -16.4377 -19.8026 -12.8201 -19.1784 -23.5995 -31.48322 -31.48322 -23.95182 -16.32572 -6.364 -9.181001 -8.8915 
-13.3624 -15.7415 -14.6035 -18.8213 -13.7973 -12.486 -12.2201 -12.401 -9.21 -9.672001 -9.5765 -12.7813 -16.9869 -19.4522 -21.3793 -19.8026 -23.0565 -28.5133 -36.08082 -31.48322 -33.66922 -25.92182 -18.53372 -9.181001 -9.181001 
-2.3615 -2.186 -1.4985 -3.193 -1.7695 -3.9725 -1.4985 -4.991 0 -5.319 -1.756 -5.1025 0 -2.9705 -4.2705 -1.934 -6.322 -6.3215 -3.0365 -2.186 -1.8085 -4.77 -1.7565 -5.757 -1.4985 -3.4715 -1.756 -4.3855 -1.4985 -3.4425 -1.7565 -1.4985 -4.37 -3.86 -1.7695 -3.277 
-3.5005 -3.339 -4.136 -4.8505 -5.0425 -5.629 -6.171 -4.991 -5.319 -6.391 -7.191 -5.1025 -2.9705 -5.831 -6.190001 -7.477 -11.5745 -9.589001 -3.66 -3.164 -5.969501 -5.429 -7.323 -7.048501 -4.574 -4.7575 -5.8455 -6.006001 -4.4545 -4.5535 -2.4195 -5.6625 -7.98 -5.465 -4.619 
-4.3105 -6.225 -5.659 -8.358 -5.8985 -10.9719 -6.171 -8.179501 -6.391 -7.9545 -7.191 -8.022 -5.831 -7.412001 -12.2934 -13.5628 -15.1033 -10.266 -4.218 -6.9555 -6.3665 -10.27 -8.459001 -9.0205 -5.805 -8.2375 -7.2005 -8.17 -5.141 -5.259 -6.900001 -9.5415 -9.661 -8.866501 
-6.916 -7.4405 -9.416 -9.326 -11.2892 -10.9719 -10.1945 -9.3195 -7.9545 -7.9545 -9.76 -11.1811 -7.412001 -13.615 -18.7964 -16.558 -15.8171 -10.671 -7.5385 -7.7095 -11.5653 -11.406 -10.6215 -10.718 -9.364501 -9.5165 -9.312 -9.332001 -5.919 -10.1425 -10.5035 -11.2759 -13.2685 
-8.346001 -9.913 -10.0965 -14.8065 -11.2892 -14.9954 -10.6955 -9.8975 -7.9545 -10.292 -13.0189 -12.7621 -13.615 -20.118 -21.5664 -17.2718 -16.2221 -13.9915 -7.97 -13.0007 -12.7013 -13.5685 -12.319 -14.2775 -10.0755 -11.6516 -10.26 -9.901501 -10.381 -14.1718 -12.2379 -14.8834 
-3.1435 -5.0375 -2.0935 -4.7135 -3.7935 -1.7695 -4.1205 -3.9035 -6.3215 0 -3.5015 0 -4.9225 -2.4945 -3.5725 -4.448 -4.759 -3.115 -4.8525 -5.4005 0 -2.5195 -5.057 0 -2.9905 -1.934 -1.4985 -7.190001 0 -5.4455 -4.536 -2.356 -4.2485 -4.5605 0 
-8.631001 -8.0565 -6.424 -9.0895 -4.559 -6.16 -8.370001 -11.1466 -6.3215 -3.5015 -3.5015 -4.9225 -6.9525 -4.6825 -7.1355 -8.948501 -8.071501 -7.974 -10.688 -5.4005 -2.5195 -7.212501 -5.057 -2.9905 -4.5445 -2.6125 -8.786501 -7.190001 -5.4455 -8.788501 -6.5655 -5.7655 -7.012001 -4.5605 
-12.2388 -12.8146 -10.7025 -9.843 -8.269501 -10.347 -16.2071 -11.1466 -10.8215 -3.5015 -9.131001 -6.9525 -8.89 -7.847001 -12.2898 -13.0112 -13.4135 -13.9441 -10.688 -8.113501 -7.212501 -7.212501 -8.1955 -4.5445 -5.048 -10.513 -8.786501 -13.4463 -8.788501 -10.1385 -8.5315 -8.384501 -7.012001 
-16.9969 -17.0931 -11.456 -13.6475 -12.6175 -18.4967 -16.2071 -15.6466 -10.8215 -9.131001 -11.4618 -8.89 -12.1239 -13.2541 -16.3525 -18.3532 -19.3836 -13.9441 -13.401 -13.1515 -7.212501 -11.231 -9.72 -5.048 -13.3733 -10.513 -15.322 -16.7893 -10.1385 -10.6945 -10.66 -8.384501 
-21.2754 -17.8466 -15.2605 -17.9955 -20.7672 -18.4967 -20.7071 -15.6466 -16.451 -11.4618 -13.3993 -12.1239 -17.531 -17.3168 -21.6945 -24.3233 -19.3836 -16.6571 -18.439 -13.1515 -11.231 -12.7555 -9.913 -13.3733 -13.3733 -17.0485 -18.665 -18.1393 -10.6945 -10.7185 -10.66 
-1.934 -2.3615 -3.193 -4.606 -1.7695 -2.489 -5.3085 -2.0935 -1.4985 -6.4425 -6.3215 -8.341001 -4.3895 -1.4985 -3.4715 -4.139 -7.1305 -2.186 -4.3895 
-3.539 -5.0835 -8.1435 -7.127001 -3.1405 -7.2005 -6.915 -2.9725 -9.154 -13.4585 -15.5509 -13.6011 -6.125 -4.574 -5.973001 -12.3219 -9.911 -5.817 
-6.2505 -10.3675 -10.7495 -8.495001 -7.649 -7.544 -7.998 -10.8925 -15.3824 -23.4425 -20.811 -15.3366 -9.345501 -7.7805 -14.9969 -15.1024 -13.6046 
-12.8765 -12.9735 -12.1175 -13.4473 -7.9845 -8.513 -16.5296 -17.1371 -25.1632 -28.7026 -22.5465 -18.5571 -12.611 -17.2114 -17.7774 -18.796 
-15.4825 -14.3415 -17.0698 -13.7828 -8.8605 -17.1626 -22.4642 -26.8117 -30.4233 -30.4381 -25.767 -21.8226 -22.0419 -19.9919 -21.471 
