-4.759 
n/a 
n/a 
n/a 
n/a 
-4.759 
n/a 
n/a 
n/a 
n/a 
-4.759 
n/a 
n/a 
n/a 
n/a 
-4.759 
n/a 
n/a 
n/a 
n/a 
-1.934 -4.1855 0 -4.63 -4.326 -3.8935 -4.347 -4.8445 -1.7695 -5.129 0 0 
-5.408 -4.1855 -4.63 -5.88 -6.580501 -8.226 -11.0145 -6.1875 -6.363501 -4.221 0 
-5.408 -8.691 -5.88 -8.1045 -10.6735 -14.9441 -12.3575 -10.192 -6.4265 -4.221 
-10.0575 -9.904 -8.1045 -12.0725 -17.3916 -16.2871 -15.9635 -9.7935 -6.4265 
-11.2705 -11.8147 -12.0725 -18.7906 -18.7346 -19.8931 -15.9635 -9.7935 
-1.4985 -4.9825 -3.6395 -2.186 -4.347 -5.129 0 -1.934 -4.1855 -2.229 0 
-6.368501 -8.4505 -5.2645 -5.555 -7.5915 -4.221 -1.934 -5.408 -5.8465 -2.229 
-9.255001 -9.903 -7.591001 -8.6385 -7.4235 -6.712501 -5.408 -7.843501 -5.8465 
-10.316 -12.2295 -10.516 -8.4655 -9.0345 -9.8255 -7.843501 -7.843501 
-12.6425 -15.2365 -10.598 -10.411 -12.6763 -12.4072 -7.843501 
-3.898 -3.3825 -4.4345 -9.580501 0 -2.5045 -4.1855 
-6.525001 -8.765501 -14.8563 -9.018001 -2.5045 -7.7935 
-12.5104 -19.3835 -14.8563 -12.0226 -7.7935 
-23.1284 -19.3835 -17.8609 -17.768 
-23.1284 -22.3881 -23.6063 
-3.5085 -4.9825 -3.898 0 -4.9825 0 0 -3.5455 -4.1855 -2.229 -4.144 -5.129 0 -5.5605 -3.898 0 
-7.2215 -6.0105 -3.898 -4.9825 -4.9825 0 -3.5455 -7.2705 -5.8465 -6.532 -8.01 -4.221 -5.5605 -9.1955 -3.898 
-8.783 -6.0105 -7.672 -4.9825 -4.9825 -3.5455 -7.2705 -8.9665 -10.6767 -11.91 -8.637501 -11.2416 -9.1955 -9.1955 
-8.783 -8.2015 -7.672 -4.9825 -7.7665 -7.2705 -8.9665 -13.8341 -16.1049 -11.9602 -15.8555 -14.8878 -9.1955 
-11.0298 -8.2015 -7.672 -7.7665 -9.81 -8.9665 -13.8341 -19.2623 -16.1049 -19.1782 -19.5017 -14.8878 
