-4.759 
n/a 
n/a 
n/a 
n/a 
-4.759 
n/a 
n/a 
n/a 
n/a 
-4.759 
n/a 
n/a 
n/a 
n/a 
-4.759 
n/a 
n/a 
n/a 
n/a 
-3.234 -3.717 -9.342501 -1.934 -5.2835 -4.2395 0 
-4.4335 -12.1846 -9.866501 -7.8525 -10.2235 -4.2395 
-14.8261 -15.5001 -15.9365 -13.1027 -10.2235 
-18.1416 -20.9331 -21.1867 -13.1027 
-23.5746 -26.1833 -21.1867 
-1.934 -5.2835 -2.911 -3.974 -3.319 -9.342501 
-7.8525 -8.257 -4.4735 -6.397 -11.416 
-9.792001 -10.5975 -8.128501 -15.2796 
-12.7881 -14.2525 -17.6971 
-16.4431 -23.8211 
-3.319 -9.342501 -1.934 -9.875 -2.911 -3.974 
-11.416 -9.866501 -12.8154 -13.0178 -4.4735 
-14.7315 -21.9069 -15.9582 -14.5803 
-26.1349 -25.0497 -17.5207 
-29.2777 -26.6122 
-3.319 -9.342501 -1.934 -5.2835 -2.911 0 
-11.416 -9.866501 -7.8525 -8.257 -2.911 
-14.7315 -15.9365 -9.792001 -8.257 
-20.1645 -17.876 -9.792001 
-22.104 -17.876 
