-4.759 
n/a 
n/a 
n/a 
n/a 
-4.759 
n/a 
n/a 
n/a 
n/a 
-4.759 
n/a 
n/a 
n/a 
n/a 
-4.759 
n/a 
n/a 
n/a 
n/a 
-9.187 -3.8955 -8.161 
-13.3649 -13.8265 
-23.4181 
n/a 
n/a 
-7.703001 -8.5885 -8.141001 
-17.1921 -17.8346 
-26.4382 
n/a 
n/a 
-7.107 -7.7 -3.2875 -2.3345 -5.198 -1.934 -3.842 
-15.3544 -11.6109 -5.8675 -9.208501 -6.5115 -5.18 
-19.2653 -14.1909 -13.4029 -10.7422 -9.975 
-21.8453 -21.7263 -14.9366 -14.2057 
-29.3807 -23.26 -18.4001 
-9.800501 -4.958 -12.16972 -1.934 0 -3.842 
-15.2273 -17.30652 -14.10372 -1.934 -3.842 
-27.57582 -19.24052 -14.10372 -5.18 
-29.50982 -19.24052 -17.34972 
-29.50982 -22.48652 
