-4.759 
n/a 
n/a 
n/a 
n/a 
-4.759 
n/a 
n/a 
n/a 
n/a 
-4.759 
n/a 
n/a 
n/a 
n/a 
-4.759 
n/a 
n/a 
n/a 
n/a 
-5.707 -3.955 -1.756 -3.801 -3.152 -4.705 -5.1845 -5.9175 -4.5625 -6.9805 
-9.061501 -5.6625 -5.425 -7.7535 -7.203 -10.4035 -9.022501 -8.383501 -12.6594 
-10.6345 -8.611 -8.448501 -11.9647 -13.1543 -14.2415 -11.9111 -18.6808 
-13.583 -12.1273 -12.7411 -17.916 -16.9923 -17.1301 -22.2084 
-17.0993 -16.4199 -18.6924 -21.754 -19.8809 -27.4274 
-6.2095 -1.7565 -8.4385 -3.645 -1.934 -3.672 -4.1745 -4.4495 -1.756 -2.985 -4.4495 -1.934 -3.801 -4.4495 -2.7765 -2.489 -3.962 -1.934 -5.156 
-7.311 -10.592 -11.042 -5.122 -5.443501 -7.5955 -6.632 -5.75 -4.2025 -7.5385 -6.3885 -6.1505 -6.742001 -6.8485 -3.495 -4.8355 -4.8165 -6.296 
-15.3185 -12.6805 -12.4195 -8.479501 -9.5675 -8.491 -7.4815 -7.7695 -9.097 -9.535001 -8.8315 -8.56 -9.179001 -7.0665 -5.233 -5.603 -8.731501 
-17.771 -13.895 -16.0652 -13.2161 -10.704 -9.508 -10.04 -13.046 -11.1641 -12.0714 -12.0218 -11.828 -9.274501 -9.161 -5.836 -9.1245 
-18.9855 -17.5407 -20.8018 -14.3526 -11.721 -12.1823 -15.3165 -15.1131 -13.7005 -15.2617 -15.2898 -11.9235 -11.5586 -9.8345 -9.3865 
-4.4715 -4.6695 -3.4635 -3.324 -5.404 -2.4945 -5.508 -4.273 -1.934 -1.4985 -3.672 -4.1745 -4.4495 -1.756 -1.934 -1.4985 -3.801 
-10.2485 -7.8525 -7.055 -8.5895 -8.384001 -8.72 -9.310501 -5.922501 -2.6125 -4.936 -7.5955 -6.632 -5.75 -4.0205 -2.6125 -5.1485 
-13.4315 -12.0666 -12.8605 -10.304 -14.7261 -12.8589 -11.1122 -6.649 -5.806 -8.674001 -8.491 -7.4815 -7.8645 -4.6845 -6.6845 
-17.6456 -17.8721 -14.575 -16.6461 -18.865 -14.6606 -11.8387 -10.6095 -10.328 -9.568501 -9.508 -9.5755 -8.6155 -8.852501 
-23.4511 -19.5866 -20.9171 -20.785 -20.6667 -15.3871 -15.7992 -15.1315 -11.2225 -10.6755 -11.7178 -10.404 -12.8907 
-3.3715 -3.8195 -3.402 -3.645 -2.7765 -2.489 -3.962 -6.466 -1.934 -3.672 -4.1745 -4.4495 -1.756 -5.2375 0 
-7.455501 -6.573 -6.182 -6.009 -3.495 -4.8355 -10.862 -7.6565 -5.443501 -7.5955 -6.632 -5.75 -7.107 -5.2375 
-10.0675 -9.611 -8.3 -6.460001 -5.233 -12.3227 -12.0525 -11.5374 -9.5675 -8.491 -7.4815 -9.538 -7.107 
-13.2269 -12.1758 -8.838 -8.757501 -13.0412 -13.5132 -15.9334 -15.6614 -10.704 -9.508 -10.5125 -9.538 
-15.7917 -12.7138 -11.3193 -16.8991 -14.2317 -17.3941 -20.0574 -16.7979 -11.721 -12.6548 -10.5125 
