-4.759 
n/a 
n/a 
n/a 
n/a 
-4.759 
n/a 
n/a 
n/a 
n/a 
-4.759 
n/a 
n/a 
n/a 
n/a 
-4.759 
n/a 
n/a 
n/a 
n/a 
-2.3615 -2.186 -1.4985 -3.0835 -2.95 -1.8085 -4.675 -5.674 -2.186 -3.6515 -1.7695 -3.7345 0 
-3.5005 -3.339 -3.535 -4.3945 -5.119 -6.5 -8.861 -7.900001 -4.575 -3.9135 -5.992001 -3.7345 
-4.3105 -4.8925 -4.569 -6.16 -9.200001 -10.298 -10.7175 -9.874001 -4.729 -7.993001 -5.992001 
-5.43 -5.8125 -6.232501 -9.3535 -13.2466 -12.1545 -12.6915 -9.9095 -9.3435 -7.993001 
-5.903 -7.294 -9.622001 -13.5087 -15.1031 -14.1285 -12.727 -14.589 -9.3435 
-2.3615 -1.4985 -3.0835 -2.95 -2.0935 -1.8085 -4.675 -1.7695 -3.5285 -3.7345 0 
-4.913 -3.535 -4.3945 -4.4955 -3.385 -6.5 -7.255 -5.1355 -7.4665 -3.7345 
-6.576 -4.569 -6.63 -5.5665 -8.104 -9.184 -11.488 -8.854 -7.4665 
-7.2095 -6.7895 -7.744 -10.085 -9.935501 -13.2598 -15.2065 -8.854 
-9.528 -7.8075 -10.31 -11.9165 -14.0113 -16.9783 -15.2065 
-2.3615 -2.186 -1.4985 -3.0835 -2.95 -1.8085 -4.675 -5.674 -4.5345 -1.4985 -3.7345 0 
-3.5005 -3.339 -3.535 -4.3945 -5.119 -6.5 -8.861 -8.8585 -5.9595 -4.9965 -3.7345 
-4.3105 -4.8925 -4.569 -6.16 -9.200001 -10.298 -12.3865 -10.209 -9.389501 -4.9965 
-5.43 -5.8125 -6.232501 -9.3535 -13.2466 -13.8235 -13.737 -14.0078 -9.389501 
-5.903 -7.294 -9.622001 -13.5087 -16.7721 -15.174 -17.5358 -14.0078 
-2.3615 -2.186 -1.4985 -3.0835 -2.95 -1.8085 -4.675 -5.674 -3.6515 -1.7695 -3.7345 0 
-3.5005 -3.339 -3.535 -4.3945 -5.119 -6.5 -8.861 -9.526501 -3.9135 -5.992001 -3.7345 
-4.3105 -4.8925 -4.569 -6.16 -9.200001 -10.298 -13.0545 -9.9475 -7.993001 -5.992001 
-5.43 -5.8125 -6.232501 -9.3535 -13.2466 -14.4915 -13.4755 -10.4095 -7.993001 
-5.903 -7.294 -9.622001 -13.5087 -17.4401 -14.9125 -13.9375 -10.4095 
