-4.759 
n/a 
n/a 
n/a 
n/a 
-4.759 
n/a 
n/a 
n/a 
n/a 
-4.759 
n/a 
n/a 
n/a 
n/a 
-4.759 
n/a 
n/a 
n/a 
n/a 
-6.8035 -2.3615 -3.3035 -2.6165 -5.067 -2.7455 -1.4985 -3.264 -1.7565 -4.161 -3.2955 0 -2.4265 -2.186 -4.3765 -1.934 -3.225 0 -2.3335 -2.7455 -6.599 -3.897 -4.161 -2.4945 -3.2955 0 
-8.499001 -5.2995 -6.4545 -6.1625 -7.878 -3.637 -4.0935 -3.6125 -5.6765 -7.096001 -3.2955 -2.4265 -3.292 -5.313 -6.3985 -4.879 -3.225 -2.3335 -5.7925 -6.932 -9.716001 -7.4265 -6.052 -4.6305 -3.2955 
-11.772 -8.2875 -9.606501 -8.472 -8.552501 -6.466001 -4.178 -6.8885 -8.3415 -7.096001 -5.4355 -3.292 -5.903 -7.488 -8.587 -4.879 -6.3995 -5.7925 -8.8325 -11.623 -11.454 -9.1785 -7.487 -4.6305 
-14.76 -11.8545 -12.0018 -9.4175 -11.5477 -6.5425 -7.455 -9.076501 -8.3415 -10.078 -6.497 -5.903 -8.637 -10.054 -8.587 -7.001501 -9.6945 -8.467 -13.8448 -13.9441 -13.437 -10.7739 -7.487 
-18.327 -14.2498 -12.9473 -12.8377 -11.6242 -9.741501 -9.3645 -9.076501 -11.8477 -11.2281 -9.185 -8.637 -11.3164 -10.054 -8.995001 -10.0345 -12.369 -14.0292 -15.9465 -15.8353 -15.0324 -10.7739 
-2.5045 -3.158 -1.7565 -3.225 -2.871 -3.8645 -3.897 -4.3765 -1.7695 -2.489 -3.9605 -3.3255 -4.161 -3.034 -2.3615 -3.9235 -2.7415 -2.6165 -4.446 -1.7565 -3.893 -1.7565 -4.161 0 
-6.1925 -4.71 -5.4535 -6.7045 -7.626 -9.0535 -10.2645 -5.572 -3.1405 -6.4875 -7.188001 -7.603001 -7.0985 -5.0455 -5.7745 -6.377501 -4.266 -5.7205 -4.7305 -6.5165 -4.1785 -5.6765 -4.161 
-8.715 -7.4465 -8.337501 -11.8735 -13.246 -16.7462 -11.46 -5.857 -7.0445 -9.122 -11.7347 -10.6215 -9.151001 -8.8915 -7.5795 -7.923501 -6.5045 -5.8345 -10.1425 -6.962 -8.391 -5.6765 
-11.7325 -10.4185 -13.7309 -17.4935 -20.9387 -17.9417 -11.745 -9.196 -9.7045 -13.7343 -14.7532 -12.674 -13.5416 -9.505501 -9.322001 -9.915001 -6.7 -10.7495 -10.25 -11.5639 -8.391 
-14.7045 -15.8119 -19.3509 -25.1862 -22.1342 -18.2267 -15.084 -12.3486 -14.3476 -16.7528 -16.8057 -17.0646 -14.1556 -11.3292 -11.3421 -10.0285 -11.7512 -10.7855 -14.8519 -11.5639 
-2.3615 -4.5675 -2.8645 -2.6165 -5.067 -2.9995 -1.7565 -1.4985 -3.509 -4.154 -1.4985 -2.847 -1.7565 -4.161 -4.077 -1.934 -4.0715 -2.872 -1.8085 -4.0305 -4.0875 -1.934 -3.225 -4.8985 -2.3335 -2.4265 -4.9265 -2.356 -6.599 -3.897 -4.161 0 
-6.74 -6.527 -4.475 -6.1625 -7.7795 -4.1995 -2.4195 -4.917 -6.289001 -4.6685 -5.125 -5.1435 -5.6765 -8.309 -4.43 -5.5995 -6.606501 -4.716001 -5.2355 -7.800501 -6.2065 -4.879 -8.491 -5.773001 -3.913 -6.112 -6.488 -6.9815 -9.716001 -7.4265 -4.161 
-7.974 -8.2305 -7.764 -8.493 -9.0705 -4.5455 -6.178 -7.577001 -6.7415 -8.264001 -7.284 -8.752001 -9.382501 -8.691001 -7.9665 -7.8455 -8.279501 -8.116501 -9.8585 -9.788501 -9.132501 -9.423 -8.818001 -7.324501 -7.330501 -7.806 -10.8425 -11.9295 -11.454 -7.4265 
-8.8235 -11.6825 -8.727501 -9.528001 -9.382001 -7.3885 -8.502501 -7.930501 -10.609 -10.426 -11.0161 -12.6696 -9.8725 -12.5511 -10.4989 -9.686001 -11.9316 -13.2291 -11.9751 -12.7145 -13.8233 -9.718 -10.718 -11.055 -8.913501 -12.3925 -16.3061 -14.301 -11.5458 
-13.4451 -12.646 -9.634501 -9.673 -12.4498 -9.935 -8.891001 -11.9034 -12.771 -14.1581 -14.9337 -13.1596 -13.6158 -15.0835 -12.3394 -13.4383 -17.0442 -15.3457 -14.9011 -17.4053 -14.1183 -11.6756 -14.4485 -12.638 -13.5464 -17.8207 -18.2234 -14.301 
-3.929 -2.3615 -3.3035 -3.4405 -2.6165 -3.6785 -4.011 -4.154 -1.4985 -3.264 -1.7565 -4.161 0 -2.4265 -2.7415 -4.3765 -1.934 -3.225 -2.3335 -2.4265 -2.7415 -3.958 -2.264 -6.599 -3.897 -4.161 0 
-5.6945 -5.2995 -6.0035 -3.7415 -5.6575 -5.6725 -7.271 -4.6685 -4.0935 -3.6125 -5.6765 -4.161 -2.4265 -3.681 -5.951 -6.3985 -4.879 -6.3995 -3.913 -3.681 -5.8215 -5.2625 -7.45 -9.716001 -7.4265 -4.161 
-8.983 -7.3025 -6.1205 -6.476501 -6.884 -8.7915 -7.897501 -7.042 -4.178 -6.8885 -5.6765 -6.4515 -3.681 -6.78 -7.5455 -8.587 -7.001501 -7.954 -4.9035 -7.0305 -7.2005 -9.861501 -12.4375 -11.454 -7.4265 
-10.7335 -7.3885 -9.621 -7.5715 -9.6905 -9.3915 -10.5635 -7.0915 -7.455 -6.8885 -7.9015 -7.9655 -6.78 -8.361501 -9.39 -8.995001 -8.603001 -8.6955 -8.198501 -8.105 -12.1112 -15.7609 -14.862 -11.5458 
-10.8195 -11.9758 -10.2885 -10.107 -10.202 -12.0751 -10.6515 -10.171 -7.455 -9.129001 -9.034 -10.3675 -8.361501 -9.9195 -9.9495 -10.734 -9.2895 -12.0787 -9.250501 -13.0661 -17.5924 -17.6782 -14.862 
