-4.759 
n/a 
n/a 
n/a 
n/a 
-4.759 
n/a 
n/a 
n/a 
n/a 
-4.759 
n/a 
n/a 
n/a 
n/a 
-4.759 
n/a 
n/a 
n/a 
n/a 
-4.1475 -1.7565 -3.043 -1.4985 -4.161 -2.4945 -5.1035 
-5.8915 -4.6315 -4.41 -5.9785 -6.052 -6.817501 
-8.651 -5.555501 -8.698501 -7.2805 -9.529 
-9.6885 -9.8985 -9.357501 -10.5325 
-14.0315 -10.601 -12.9343 
-3.7075 -1.7565 -3.6705 -1.7565 -4.161 0 
-4.51 -5.253 -6.299001 -5.6765 -4.161 
-7.417 -8.02 -9.838501 -5.6765 
-9.3295 -11.5985 -9.838501 
-13.1432 -11.5985 
-5.3965 -3.86 
-7.3985 
n/a 
n/a 
n/a 
-5.1035 -1.7565 -4.161 
-5.786 -5.6765 
-9.43 
n/a 
n/a 
