-4.759 
n/a 
n/a 
n/a 
n/a 
-4.759 
n/a 
n/a 
n/a 
n/a 
-4.759 
n/a 
n/a 
n/a 
n/a 
-4.759 
n/a 
n/a 
n/a 
n/a 
-4.004 -3.736 -4.675 0 -3.5385 -4.371 0 -6.519001 0 -5.1915 -2.356 -3.091 -4.522 0 -6.5995 -3.2 0 -4.7475 0 -9.0695 0 -3.8245 -2.5045 -4.9175 0 -4.677 -9.8135 -2.4945 -1.4985 -3.2895 -2.4945 -3.9595 -2.5195 -3.277 0 
-7.487 -7.318 -4.675 -3.5385 -7.704 -4.371 -6.519001 -6.519001 -5.1915 -7.679 -4.513 -7.6645 -4.522 -6.5995 -10.6679 -3.2 -4.7475 -4.7475 -9.0695 -9.0695 -3.8245 -6.1895 -6.987 -4.9175 -4.677 -15.3949 -12.4296 -3.9315 -4.862 -5.4165 -5.425 -5.087 -5.3095 -3.277 
-11.7154 -7.318 -8.2635 -7.704 -7.704 -8.559 -6.519001 -12.5253 -7.679 -9.872001 -8.5105 -7.6645 -10.3165 -10.6679 -10.6679 -8.983001 -4.7475 -15.1136 -9.0695 -13.2064 -6.1895 -10.702 -6.987 -10.451 -15.3949 -18.011 -13.8666 -7.4255 -7.282001 -8.3 -6.1685 -7.1585 -5.3095 
-11.7154 -10.2485 -12.6382 -7.704 -12.4264 -8.559 -12.5253 -15.0128 -9.872001 -13.9593 -8.5105 -13.6522 -14.5743 -10.6679 -16.4509 -8.983001 -15.1136 -15.1136 -13.2064 -15.5714 -10.702 -10.702 -13.2487 -21.1689 -18.011 -19.448 -17.3606 -10.4417 -10.1635 -9.5725 -8.684501 -7.1585 
-14.6459 -14.6232 -12.6382 -12.4264 -12.4264 -14.7891 -15.0128 -17.2058 -13.9593 -13.9593 -14.7052 -17.91 -14.5743 -16.4509 -16.4509 -19.6771 -15.1136 -19.2505 -15.5714 -20.0839 -10.702 -16.9637 -23.9666 -23.785 -19.448 -22.942 -20.3768 -13.3232 -11.482 -10.577 -8.684501 
-4.1285 -3.736 -4.77 0 -4.3105 -4.371 0 -8.008 0 -3.7015 -6.5995 0 -3.7015 -4.7475 0 -3.7015 -4.221 -3.2895 0 -5.309 0 -2.5045 -3.8315 -4.1645 -1.934 -4.677 -1.756 -2.3345 -3.0415 -3.3715 -3.2895 -3.152 -6.249 -1.7695 -3.277 0 
-7.107 -7.9025 -4.77 -4.3105 -9.013 -4.371 -8.008 -8.008 -3.7015 -9.221001 -6.5995 -3.7015 -8.246 -4.7475 -3.7015 -8.057 -6.037 -3.2895 -5.309 -5.309 -2.5045 -6.665 -6.1785 -5.422 -6.809 -6.0955 -4.614 -6.0435 -4.5985 -7.394 -6.492001 -8.335501 -8.6975 -4.619 -3.277 
-11.6841 -7.9025 -9.7995 -9.013 -9.013 -11.0145 -8.008 -11.08 -9.221001 -9.221001 -10.622 -8.246 -8.246 -8.485001 -8.057 -8.609501 -6.037 -9.406 -5.309 -7.2235 -6.665 -7.92 -7.156001 -11.0202 -8.5015 -8.9575 -7.3875 -6.579 -8.643001 -9.859 -12.3835 -10.411 -11.7662 -4.619 
-11.6841 -13.1544 -14.5566 -9.013 -15.9651 -11.0145 -11.08 -16.5995 -9.221001 -13.4727 -15.1665 -8.246 -10.586 -13.2283 -8.609501 -8.609501 -13.3937 -9.406 -7.2235 -11.798 -7.92 -9.092501 -13.2214 -12.7127 -11.5217 -11.92 -8.771501 -10.8809 -11.2642 -15.7505 -14.459 -13.4797 -11.7662 
-16.936 -17.9115 -14.5566 -15.9651 -15.9651 -14.0865 -16.5995 -16.5995 -13.4727 -18.0172 -15.1665 -10.586 -15.3293 -13.7808 -8.609501 -16.3858 -13.3937 -10.6485 -11.798 -13.053 -9.092501 -15.2969 -14.9139 -15.7329 -14.4842 -13.304 -13.2368 -13.5021 -17.1557 -17.826 -17.5277 -13.4797 
-3.135 -1.7565 -1.4985 -3.8225 -3.6835 -3.2895 -3.152 -3.7015 -1.4985 -3.5485 -3.115 -3.736 -4.675 -1.7565 -4.1105 0 -3.736 -4.371 0 -6.519001 0 -3.766 -4.675 -2.7835 -3.091 -4.522 -2.186 -4.19 0 -5.3695 -1.7695 -6.5995 0 -5.3695 -1.7695 -4.7475 0 -4.287 -3.277 -2.5045 -5.309 -2.0935 -5.585 0 -7.062 0 0 
-3.9195 -2.4195 -4.887 -7.155001 -4.478 -6.492001 -6.661 -4.3435 -5.0185 -6.4125 -7.192501 -7.318 -5.6675 -6.102 -4.1105 -3.736 -7.106 -4.371 -6.519001 -6.519001 -3.766 -8.092501 -7.278501 -5.818 -7.6645 -5.974501 -5.4405 -4.19 -5.3695 -5.686 -8.3135 -6.5995 -5.3695 -5.686 -6.349501 -4.7475 -4.287 -7.018001 -4.9585 -6.8205 -7.191 -8.097 -5.585 -7.062 -7.062 0 
-4.168 -5.6495 -8.1195 -8.8575 -7.593 -10.688 -7.2145 -7.8525 -8.219001 -10.533 -10.426 -9.696 -8.5625 -6.102 -7.187 -7.106 -7.106 -8.559 -6.519001 -10.784 -8.092501 -10.4855 -9.772 -10.3885 -9.153501 -8.139501 -5.4405 -10.4855 -5.686 -13.5208 -8.3135 -12.8374 -5.686 -9.863 -6.349501 -8.895 -7.018001 -8.710501 -8.134501 -8.3285 -13.7453 -8.097 -13.587 -7.062 -7.062 
-6.795001 -8.836 -10.2035 -12.2267 -11.9932 -11.2415 -11.0651 -11.3566 -12.5331 -14.0949 -12.804 -12.763 -8.5625 -9.2405 -10.3475 -7.106 -9.440001 -8.559 -10.784 -15.1105 -10.4855 -12.979 -14.3425 -11.8775 -11.6207 -8.139501 -12.2806 -10.689 -13.5208 -13.5208 -14.8452 -13.1539 -9.863 -9.863 -10.733 -12.1214 -8.710501 -12.2171 -9.364 -15.1622 -13.7453 -16.3984 -13.587 -7.062 
-10.4855 -10.7595 -13.5727 -16.6269 -12.5467 -15.0921 -14.5692 -15.6707 -16.095 -16.4729 -15.871 -12.763 -12.3486 -12.6214 -10.3475 -9.440001 -9.440001 -13.0478 -15.1105 -17.5035 -12.979 -17.5495 -15.8315 -14.3447 -11.6207 -15.4072 -12.4841 -18.5238 -13.5208 -20.0525 -15.1617 -17.3309 -9.863 -14.3937 -13.9594 -13.8139 -12.2171 -13.4466 -16.4515 -15.1622 -22.0467 -16.3984 -13.587 
-6.6695 -1.7565 -4.1285 -4.743 0 -3.736 -4.371 0 -6.519001 0 -6.7255 0 -1.4985 -4.284 -3.8255 -4.79 -5.173 -1.7695 -3.956 -1.934 -1.4985 -4.784 -6.686501 -1.7565 -3.332 -4.522 0 0 -1.756 -4.8565 -1.7695 -6.5995 0 -4.7475 -1.756 -3.401 -1.7695 -3.635 0 -3.4625 -3.43 -5.487 -4.263 -2.4285 -8.282001 -2.4945 -1.4985 -3.6065 -4.029 -1.934 -2.9705 -12.16972 -3.6835 -3.2895 -2.4945 -3.4625 -4.7975 0 
-8.575001 -5.772501 -8.1355 -4.743 -3.736 -7.106 -4.371 -6.519001 -6.519001 -6.7255 -6.7255 -1.4985 -5.6495 -7.717 -7.663 -9.874001 -6.469 -5.199 -5.3455 -2.6125 -5.7665 -7.404 -8.012001 -4.4865 -5.084001 -4.522 0 -1.756 -6.4985 -5.432 -8.3135 -6.5995 -4.7475 -6.061 -5.315001 -4.275 -5.733 -3.635 -3.4625 -5.4075 -9.5175 -7.700001 -6.5175 -10.2485 -9.6365 -3.9315 -4.8665 -5.372 -5.382 -4.051 -16.44502 -15.85322 -4.478 -5.4165 -4.7105 -6.538 -4.7975 
-9.8205 -9.021001 -8.1355 -7.5885 -7.106 -7.106 -8.559 -6.519001 -9.930501 -6.7255 -8.52 -5.6495 -9.444 -10.275 -13.4972 -11.331 -7.2875 -6.222 -6.028 -7.261001 -7.849 -8.559501 -8.993501 -6.2635 -5.084001 -4.522 -1.756 -6.4985 -7.199 -10.7025 -8.3135 -8.8785 -6.061 -10.27 -6.613 -7.422 -5.733 -6.805 -5.4075 -12.0472 -12.0975 -8.911 -15.1357 -11.603 -11.1811 -6.539001 -6.511001 -6.6745 -5.493001 -17.83852 -20.12852 -16.64772 -6.6765 -7.201 -7.3005 -6.538 
-10.198 -9.021001 -11.3204 -12.1883 -7.106 -9.440001 -8.559 -9.930501 -9.930501 -8.52 -10.0815 -9.444 -11.9602 -16.7798 -14.9542 -12.1495 -7.951 -7.0435 -10.3885 -9.529001 -8.67 -9.106501 -9.295501 -6.2635 -5.084001 -5.3685 -6.4985 -7.199 -12.6249 -10.7025 -10.8863 -9.2945 -10.27 -11.8136 -9.475 -7.422 -8.823501 -9.2985 -12.0472 -14.6272 -13.3085 -18.2066 -16.4902 -13.1476 -13.7886 -7.749001 -7.265 -6.9645 -19.53692 -21.52202 -20.92302 -18.84622 -8.031501 -8.731501 -7.3005 
-10.198 -12.3077 -15.9202 -12.1883 -9.440001 -9.440001 -12.1943 -9.930501 -11.9952 -10.0815 -14.9408 -11.9602 -18.465 -18.2368 -15.7727 -12.813 -8.767 -10.733 -12.6565 -10.002 -9.1265 -9.3915 -9.295501 -6.2635 -6.1695 -11.527 -7.199 -12.6249 -12.6249 -13.2753 -11.3023 -14.4055 -11.8136 -14.6756 -9.475 -10.2425 -9.799001 -16.3392 -14.6272 -15.8382 -22.6041 -19.5611 -18.0348 -15.7551 -14.9986 -8.782001 -7.269501 -21.11582 -23.22042 -22.31652 -23.12152 -20.20122 -9.732 -8.731501 
