-4.759 
n/a 
n/a 
n/a 
n/a 
-4.759 
n/a 
n/a 
n/a 
n/a 
-4.759 
n/a 
n/a 
n/a 
n/a 
-4.759 
n/a 
n/a 
n/a 
n/a 
-2.264 -4.5925 -1.7565 -1.4985 -4.455 0 -1.4985 -4.445 -3.3785 -2.742 -4.37 
-4.7155 -4.707 -2.4195 -5.262 -4.455 -1.4985 -5.0495 -6.0245 -6.493501 -5.9205 
-4.7185 -5.097 -6.328001 -5.262 -6.35 -5.0495 -6.434 -8.426001 -9.492001 
-5.107 -8.64 -6.328001 -6.836 -9.2995 -6.434 -8.511001 -11.9787 
-8.654 -8.64 -8.142501 -9.318001 -9.390501 -8.511001 -12.1131 
-4.445 -3.3785 -2.742 -3.429 -3.5015 -2.264 -4.5925 -1.7565 -1.4985 -4.455 0 
-6.0245 -6.493501 -4.5865 -4.918 -5.1645 -4.7155 -4.707 -2.4195 -5.262 -4.455 
-8.426001 -8.684501 -5.353 -5.861 -8.429001 -4.7185 -5.097 -6.328001 -5.262 
-9.986 -9.7635 -6.0775 -9.545 -8.432 -5.107 -8.64 -6.328001 
-11.4188 -10.5968 -10.2695 -9.547501 -8.9525 -8.654 -8.64 
-1.4985 -3.7745 -4.445 -4.508 -1.4985 -4.455 0 
-4.753 -8.405001 -9.08 -5.0065 -5.262 -4.455 
-9.2985 -13.6396 -9.405001 -9.092501 -5.262 
-14.7461 -13.9646 -10.2715 -9.092501 
-15.0711 -14.8311 -10.2715 
-1.4985 -4.455 -4.621 -2.3345 -1.4985 -7.823501 
-5.262 -9.148001 -5.109 -3.233 -6.629 
-9.330501 -9.3915 -5.7 -7.303 
-9.437 -9.503 -9.949 
-9.5165 -9.859001 
