-4.759 
n/a 
n/a 
n/a 
n/a 
-4.759 
n/a 
n/a 
n/a 
n/a 
-4.759 
n/a 
n/a 
n/a 
n/a 
-4.759 
n/a 
n/a 
n/a 
n/a 
-3.535 -3.522 0 -8.643001 -5.1785 -3.999 
-5.913 -3.522 -8.643001 -14.0365 -9.2685 
-5.913 -12.9284 -14.0365 -18.1265 
-15.511 -18.3219 -18.1265 
-20.9045 -22.4119 
-3.0835 -4.584 0 -4.628 -6.739501 -3.307 -3.9755 
-7.693501 -4.584 -4.628 -10.6215 -10.6925 -7.667 
-7.693501 -9.9725 -10.6215 -14.5745 -15.0525 
-13.4456 -15.5298 -14.5745 -18.9345 
-19.0029 -19.4828 -18.9345 
-3.0835 -3.522 0 -4.628 -4.743 -3.307 -4.415 
-6.3975 -3.522 -4.628 -4.7515 -9.4565 -7.338 
-6.3975 -8.1315 -4.7515 -9.546 -13.6599 
-11.7028 -8.279 -9.546 -13.8106 
-11.8503 -13.5857 -13.8106 
-3.0835 -3.522 0 -4.628 -4.743 -2.229 -5.391 -5.451 0 
-6.3975 -3.522 -4.628 -4.7515 -6.5015 -7.5905 -10.5535 -5.451 
-6.3975 -8.1315 -4.7515 -6.5135 -12.7054 -13.0966 -10.5535 
-11.7028 -8.279 -6.5135 -12.7538 -18.2115 -13.0966 
-11.8503 -9.6665 -12.7538 -18.2599 -18.2115 
