-4.759 
n/a 
n/a 
n/a 
n/a 
-4.759 
n/a 
n/a 
n/a 
n/a 
-4.759 
n/a 
n/a 
n/a 
n/a 
-4.759 
n/a 
n/a 
n/a 
n/a 
-4.6845 -2.4945 -5.4465 -1.934 -3.849 -4.088 -1.7695 -3.922 -1.4985 -3.5025 -3.976 -3.3425 -5.8715 -1.756 -5.312 -3.433 0 
-5.995 -6.6395 -7.791 -5.1105 -6.419001 -4.9205 -4.5985 -4.7665 -4.16 -6.1415 -7.2305 -9.684501 -7.605 -6.8305 -8.1565 -3.433 
-10.8956 -8.894501 -11.6419 -6.6955 -7.693501 -8.935501 -5.177001 -8.808001 -8.054501 -9.536501 -13.9077 -11.5022 -10.419 -9.42 -8.1565 
-13.1506 -12.6194 -13.2269 -8.17 -11.6561 -9.525001 -9.150001 -9.7845 -10.6595 -16.3595 -15.7254 -14.3162 -13.4575 -9.42 
-16.8755 -14.2044 -14.7014 -12.4954 -12.2456 -13.557 -10.004 -12.4311 -17.4825 -18.1772 -18.5394 -17.3547 -13.4575 
-2.3345 -3.3425 -4.853 -1.756 -5.312 -3.433 -1.4985 -3.976 -1.7565 -1.4985 -3.5025 -2.7765 -2.489 -4.157 0 -3.2775 -4.128 -2.4945 -3.6515 -2.264 -5.41 
-4.554 -9.0045 -6.5475 -6.8305 -8.1565 -5.3125 -5.192 -5.224 -2.4195 -4.16 -6.406 -3.495 -5.669 -4.157 -3.2775 -7.019 -6.382 -4.7215 -4.7115 -7.3005 
-10.248 -9.8055 -12.2336 -9.42 -9.814501 -8.863501 -5.558001 -5.92 -5.2215 -6.47 -6.8195 -6.459001 -5.669 -7.921 -7.019 -8.151501 -8.281501 -6.462 -8.052501 
-11.049 -15.9526 -14.8231 -11.6684 -13.8439 -9.238 -6.158501 -7.872 -7.901 -6.8605 -10.598 -6.459001 -8.7025 -11.9717 -8.151501 -10.3815 -8.466001 -9.587501 
-17.1961 -18.5421 -17.0715 -15.6978 -14.2184 -10.045 -7.981501 -10.223 -8.326 -10.7428 -10.598 -9.531501 -13.0138 -13.1042 -10.3815 -10.438 -11.798 
-5.9155 -2.4945 -5.705 -1.7695 -3.922 -1.4985 -3.976 -1.7565 -4.7135 -1.934 -6.0575 -1.934 -3.2015 -1.7565 -5.914001 -1.756 -5.312 -4.2695 0 
-7.779 -8.882 -8.3675 -4.5985 -4.7665 -5.192 -5.224 -6.844501 -6.775 -8.934501 -7.744 -5.024 -4.706 -7.715001 -7.685501 -6.8305 -8.3475 -4.2695 
-14.4995 -9.9785 -11.3499 -5.177001 -6.8765 -5.558001 -8.599501 -8.522 -14.5071 -10.6656 -11.7446 -5.101501 -11.2295 -9.35 -13.172 -9.3645 -8.3475 
-15.596 -12.9609 -11.9284 -7.280001 -7.1645 -8.689501 -10.5035 -16.5493 -16.2382 -14.6662 -11.8221 -12.0234 -12.8645 -14.9597 -15.706 -9.3645 
-18.5784 -13.5394 -14.0314 -7.5625 -10.253 -10.7025 -18.8722 -18.2804 -20.2388 -14.7437 -18.744 -13.6584 -18.4742 -17.4937 -15.706 
-5.8715 -1.756 -5.312 -3.433 -2.186 -5.7045 -1.7695 -3.922 -1.4985 -3.976 -1.7565 -3.5025 0 
-7.605 -6.8305 -8.1565 -5.308 -7.259501 -8.031 -4.5985 -4.7665 -5.192 -5.224 -5.2375 -3.5025 
-10.419 -9.42 -9.504001 -11.1273 -9.2655 -10.6875 -5.177001 -6.8765 -5.558001 -8.046 -5.2375 
-13.4575 -11.3579 -15.9213 -13.1333 -12.1274 -11.266 -7.280001 -7.1645 -8.418501 -8.046 
-15.3954 -17.7752 -17.9273 -15.9952 -12.7059 -13.369 -7.5625 -9.568001 -8.418501 
