-4.759 
n/a 
n/a 
n/a 
n/a 
-4.759 
n/a 
n/a 
n/a 
n/a 
-4.759 
n/a 
n/a 
n/a 
n/a 
-4.759 
n/a 
n/a 
n/a 
n/a 
-3.402 -3.893 -1.4985 -5.1845 -4.278 -2.7295 -4.794 -1.4985 -4.8925 
-4.995 -4.573 -6.5205 -9.206501 -7.705501 -7.436501 -6.5245 -5.535501 
-5.502 -9.555 -10.304 -12.8524 -12.7999 -8.049001 -10.7731 
-10.9814 -13.5111 -13.9499 -17.9468 -13.4124 -12.3722 
-14.9375 -17.157 -19.0443 -18.5593 -17.7356 
-2.4265 -2.186 -3.644 -1.7695 -3.2345 -1.4985 -3.8405 -4.0395 0 -3.013 -2.9645 -5.1845 -4.278 0 
-3.292 -5.006001 -5.207 -3.713 -4.328 -4.7545 -8.6025 -4.0395 -3.013 -6.1225 -8.705501 -9.206501 -4.278 
-5.773 -5.930501 -7.074501 -4.717 -8.692 -9.835501 -8.6025 -7.5775 -6.1225 -12.2183 -13.2543 -9.206501 
-5.962 -7.880001 -7.9245 -9.014001 -13.9842 -9.835501 -12.2031 -11.1998 -12.2183 -16.7671 -13.2543 
-7.909501 -8.7725 -12.3527 -14.408 -13.9842 -13.5137 -15.8254 -17.2956 -16.7671 -16.7671 
-2.9645 -5.1845 -4.278 0 
-8.705501 -9.206501 -4.278 
-13.2543 -9.206501 
-13.2543 
n/a 
-1.4985 -7.195 -3.333 -1.934 -1.4985 -5.1845 -4.278 -2.7765 -2.489 -3.9595 -1.934 -3.435 -1.7695 -4.0545 -1.4985 -2.95 -3.8405 
-8.432501 -10.382 -4.374 -2.6125 -6.5205 -9.206501 -7.777501 -3.495 -4.74 -5.166 -6.117 -5.1365 -4.4685 -5.291 -3.9285 -5.133 
-11.9289 -11.423 -5.0355 -7.672 -10.304 -12.9244 -8.274501 -5.8285 -5.9415 -7.799 -8.5845 -8.918 -5.575 -8.901501 -5.974 
-12.9699 -12.0845 -10.3345 -11.7193 -14.0219 -13.4214 -10.3605 -7.037001 -8.221001 -9.385 -12.5918 -9.89 -9.1005 -11.121 
-13.6314 -17.3835 -14.3818 -15.4372 -14.5189 -15.5074 -11.7804 -9.8275 -9.750501 -13.5579 -13.5638 -13.4155 -11.3916 
