-4.759 
n/a 
n/a 
n/a 
n/a 
-4.759 
n/a 
n/a 
n/a 
n/a 
-4.759 
n/a 
n/a 
n/a 
n/a 
-4.759 
n/a 
n/a 
n/a 
n/a 
-5.889 -5.2545 -3.098 -2.7415 -3.6955 -2.5195 -4.5735 -5.511 0 
-6.272 -9.35 -5.572001 -6.877501 -4.843 -6.318501 -8.360001 -5.511 
-9.7925 -12.11 -10.361 -8.5415 -8.5415 -10.7462 -8.360001 
-13.1045 -16.899 -12.025 -12.6532 -13.0638 -10.7462 
-17.8935 -18.563 -16.1367 -17.1755 -13.0638 
-1.4985 -3.098 -5.889 -4.0555 -2.5195 -3.5905 -3.7515 -5.511 0 
-4.3095 -8.8275 -9.890001 -5.0775 -5.891 -5.483 -9.894501 -5.511 
-9.285 -12.8319 -11.1816 -8.394501 -7.757 -12.1672 -9.894501 
-13.4194 -14.1235 -14.4986 -10.6475 -14.4748 -12.1672 
-14.711 -17.4405 -16.7516 -17.3653 -14.4748 
-1.4985 -3.098 -5.889 0 -2.7415 -4.6365 -2.5195 -4.5735 -5.511 
-4.3095 -8.8275 -5.889 -2.7415 -6.2405 -4.8875 -6.318501 -8.360001 
-9.285 -8.8275 -8.5325 -6.2405 -6.4375 -8.1105 -10.7462 
-9.285 -11.4744 -12.1883 -6.4375 -9.646 -12.63 
-12.0619 -15.1302 -12.3853 -9.646 -14.1777 
-5.889 -4.0555 -2.5195 -3.5905 -6.434 0 
-9.890001 -5.0775 -5.891 -9.8265 -6.434 
-11.1816 -8.394501 -12.6612 -9.8265 
-14.4986 -15.2831 -12.6612 
-21.3872 -15.2831 
