-4.759 
n/a 
n/a 
n/a 
n/a 
-4.759 
n/a 
n/a 
n/a 
n/a 
-4.759 
n/a 
n/a 
n/a 
n/a 
-4.759 
n/a 
n/a 
n/a 
n/a 
-2.5045 -3.8675 -3.458 -4.2815 -4.489 -4.3195 -5.1005 0 -4.2815 -2.7415 -6.4725 -1.7565 -6.3205 
-7.627501 -5.3915 -6.761001 -7.857 -8.559 -8.603001 -5.1005 -4.2815 -6.744 -7.641001 -6.6775 -8.0245 
-9.1615 -8.424 -9.6125 -12.7022 -13.1979 -8.603001 -11.0145 -6.744 -11.9407 -7.884 -13.7521 
-12.2408 -11.3629 -15.1125 -17.3411 -13.1979 -15.0202 -13.477 -11.9407 -12.1837 -15.1286 
-15.1797 -16.8629 -19.7514 -17.3411 -19.6151 -17.4827 -18.6737 -12.1837 -19.4283 
-4.264 -1.7565 -3.8675 -3.458 -4.2815 -1.756 -4.489 0 -2.3345 -3.1495 -1.4985 -3.5015 -1.7565 -7.120501 -5.072 -2.7415 -3.7895 -1.756 -4.6835 -2.3345 -4.2815 0 
-5.238501 -5.789001 -5.3915 -6.761001 -5.558001 -6.4755 -4.489 -2.3345 -5.217 -5.949 -4.737 -4.783 -9.3785 -12.8249 -7.5675 -7.554 -5.179 -6.5605 -6.5205 -6.783501 -4.2815 
-9.505501 -6.934501 -8.424 -6.804 -8.106001 -6.4755 -7.452001 -5.217 -8.485001 -9.5415 -5.5595 -13.1024 -15.3897 -15.3204 -12.6472 -8.9875 -11.0333 -8.108 -11.9091 -6.783501 
-10.173 -10.564 -8.4715 -9.224501 -8.106001 -8.772 -10.6427 -8.485001 -12.1335 -10.4525 -13.9705 -19.1136 -17.8852 -20.4001 -14.0807 -15.012 -12.5808 -14.0348 -11.9091 
-13.8509 -10.593 -11.1028 -9.224501 -10.7025 -12.1173 -13.9107 -12.1335 -13.0445 -18.8635 -19.9817 -21.6091 -22.9649 -21.8336 -20.1052 -16.5595 -18.5076 -14.0348 
-3.2615 -4.6395 -8.7705 -3.8675 0 -2.4945 -1.4985 -4.2895 -2.0935 -2.4265 
-7.718 -12.551 -12.741 -3.8675 -2.4945 -3.9315 -5.106 -5.047 -4.488 
-16.7151 -18.9586 -13.5162 -6.2765 -3.9315 -6.753 -5.613 -7.009 
-22.3743 -18.9586 -16.3968 -7.919 -6.753 -7.3415 -7.2795 
-22.3743 -21.8392 -18.0393 -10.9841 -7.3415 -9.209001 
-1.4985 -4.353 -8.7705 -3.8675 -1.756 -1.4985 -8.709001 -5.2955 -1.7565 -4.2815 -3.2295 -1.4985 -4.69 -1.934 -7.120501 -3.8195 -3.152 -3.074 -3.962 -2.5045 -4.2895 -2.0935 -2.3615 
-5.9835 -12.792 -12.741 -5.0145 -3.0405 -7.4575 -11.5385 -6.388 -5.607 -7.455501 -3.844 -6.024 -6.2215 -9.711 -11.5724 -6.2215 -5.0635 -5.9985 -5.124 -7.004001 -5.047 -3.854 
-14.9797 -18.65 -15.1348 -6.103 -9.2375 -12.8375 -13.336 -10.4345 -8.840501 -7.896501 -8.670501 -7.4585 -14.7507 -14.4789 -13.9744 -7.8915 -7.3095 -7.032001 -9.368501 -7.261001 -5.996 
-20.6389 -20.2686 -16.2233 -12.5349 -14.5904 -14.2264 -17.6757 -13.668 -9.256001 -13.1848 -10.019 -16.2875 -19.5186 -16.8809 -15.6444 -10.0995 -8.0955 -10.76 -9.727 -8.887501 
-22.2575 -21.3571 -22.6552 -18.5749 -15.8965 -18.5661 -20.9092 -14.0835 -14.5745 -14.5333 -18.9714 -21.0554 -21.9206 -18.5509 -17.8524 -10.5385 -11.8311 -11.1185 -11.4025 
