-4.759 
n/a 
n/a 
n/a 
n/a 
-4.759 
n/a 
n/a 
n/a 
n/a 
-4.759 
n/a 
n/a 
n/a 
n/a 
-4.759 
n/a 
n/a 
n/a 
n/a 
-3.485 -4.481 -3.5125 0 
-8.4215 -7.2545 -3.5125 
-11.5294 -7.2545 
-11.5294 
n/a 
-7.1915 -3.5125 -1.7565 -5.4525 0 
-11.3206 -4.312 -6.924 -5.4525 
-12.1201 -8.711 -6.924 
-16.5191 -8.711 
-16.5191 
-3.5125 -1.7565 -3.6205 -5.4525 0 
-4.312 -6.414001 -9.019001 -5.4525 
-9.8785 -12.1379 -9.019001 
-15.6024 -12.1379 
-15.6024 
-7.739 -3.557 -1.4985 -3.5125 -1.7565 -5.4525 
-11.92 -4.757 -4.7015 -4.312 -6.924 
-13.12 -8.582001 -4.846 -8.711 
-16.945 -8.865001 -9.582 
-17.228 -13.6882 
