-4.759 
n/a 
n/a 
n/a 
n/a 
-4.759 
n/a 
n/a 
n/a 
n/a 
-4.759 
n/a 
n/a 
n/a 
n/a 
-4.759 
n/a 
n/a 
n/a 
n/a 
-4.3435 -11.6775 -3.1385 -4.8845 -1.8085 -3.5645 -4.9295 -3.6885 -2.5045 -2.985 -4.121 -5.0485 0 
-13.7325 -13.1545 -8.523001 -6.9365 -4.554 -8.6885 -9.279501 -6.077001 -5.065001 -6.031 -6.243001 -5.0485 
-19.3857 -20.0322 -10.172 -8.84 -9.5 -13.4369 -12.0044 -8.05 -7.568501 -7.172501 -6.243001 
-25.244 -21.6812 -12.2525 -14.7284 -14.5048 -16.1618 -13.9774 -8.779 -7.9125 -7.172501 
-26.893 -23.7617 -18.1409 -19.7332 -17.2297 -18.1348 -14.7064 -8.799001 -7.9125 
-3.1385 -2.8705 -4.121 -8.325001 -3.6885 -2.8965 -3.6885 -2.5045 -11.6775 
-6.106501 -6.469501 -9.8995 -12.3609 -6.3165 -6.119 -6.077001 -13.279 
-10.1855 -12.658 -13.9354 -14.9889 -8.3935 -8.5 -19.0068 
-16.374 -16.6939 -16.5634 -17.0659 -11.5317 -21.6504 
-20.4099 -19.3219 -18.6404 -20.2041 -24.6821 
-1.8085 -3.6885 -3.929 -2.6165 -1.8085 -3.5435 -3.6885 -2.186 -3.8825 -2.5045 -4.121 -5.0485 -2.0935 -3.6215 -11.6775 -3.1385 0 
-5.393 -7.522 -5.616 -4.0345 -5.2635 -7.04 -5.4995 -5.3085 -6.1575 -6.727 -6.243001 -7.1995 -5.936 -13.256 -13.1545 -3.1385 
-9.216001 -9.033501 -6.955 -7.095 -9.940001 -10.1265 -8.886001 -7.191501 -10.6735 -7.946001 -8.285001 -10.7335 -16.4524 -18.5528 -14.1739 
-10.76 -10.533 -10.025 -12.3493 -13.3259 -13.513 -10.925 -12.0025 -11.8925 -10.4035 -12.0828 -21.9851 -20.935 -18.5528 
-12.2595 -13.603 -15.4227 -15.7352 -16.7124 -15.552 -15.736 -13.2215 -14.35 -14.2013 -23.3344 -25.7325 -20.935 

n/a 
n/a 
n/a 
n/a 
