-4.759 
n/a 
n/a 
n/a 
n/a 
-4.759 
n/a 
n/a 
n/a 
n/a 
-4.759 
n/a 
n/a 
n/a 
n/a 
-4.759 
n/a 
n/a 
n/a 
n/a 
-4.2085 -3.9675 -3.074 -4.7715 -3.115 -1.8085 -4.02 -3.9675 0 
-6.4285 -7.188001 -7.9635 -7.154 -4.2095 -6.0155 -6.4735 -3.9675 
-10.647 -12.4897 -10.757 -7.876 -8.173 -8.401001 -6.4735 
-15.9487 -15.2832 -11.479 -11.9535 -10.7155 -8.401001 
-18.7422 -16.0052 -15.5565 -14.496 -10.7155 
-1.934 -3.9005 -3.691 -3.9675 -2.186 -3.486 -1.4985 -3.9675 
-5.9395 -8.675001 -7.9175 -5.881001 -6.475 -5.857 -5.356501 
-11.33 -13.7975 -10.0925 -10.389 -8.736 -9.6815 
-16.4525 -15.9725 -14.8213 -12.65 -12.6237 
-18.6275 -20.7013 -17.0823 -16.5377 
-4.7715 -1.4985 -3.9675 -1.7565 -3.691 -2.186 -4.02 0 
-5.8055 -5.356501 -5.258 -4.930501 -5.832 -6.335501 -4.02 
-9.8465 -5.832 -8.348001 -6.787001 -10.2325 -6.335501 
-10.3855 -9.3695 -10.553 -11.6571 -10.2325 
-14.1018 -11.3335 -15.4231 -11.6571 
-4.7715 -5.2845 -3.9675 -2.186 -4.02 -3.9675 -3.098 
-10.3965 -9.7955 -5.881001 -6.335501 -6.4735 -7.714001 
-14.9075 -12.0092 -9.969501 -9.047001 -9.641001 
-17.1212 -16.0977 -10.6515 -12.3955 
-21.2097 -16.7797 -14 
