-4.759 
n/a 
n/a 
n/a 
n/a 
-4.759 
n/a 
n/a 
n/a 
n/a 
-4.759 
n/a 
n/a 
n/a 
n/a 
-4.759 
n/a 
n/a 
n/a 
n/a 
-3.254 -1.7565 -3.468 -1.934 -4.628 -4.743 0 
-4.0065 -5.649 -5.1985 -5.9605 -4.7515 -4.743 
-7.0655 -6.8995 -9.727501 -5.9845 -4.7515 
-8.395 -11.7569 -9.754001 -5.9845 
-13.775 -11.7834 -9.754001 
-3.254 -1.7565 -5.204 -1.934 -4.628 -4.743 
-4.0065 -7.014 -6.5435 -5.9605 -4.7515 
-8.404 -8.2225 -9.435501 -5.9845 
-9.922501 -11.3631 -9.438001 
-13.1815 -11.3656 
-3.254 -1.7565 -6.899 -3.468 
-4.0065 -8.5275 -11.3774 
-11.5953 -13.1955 
-16.2633 
n/a 
-4.628 -4.743 -9.3905 -3.254 
-4.7515 -15.3763 -12.8417 
-15.4796 -18.8275 
-18.9308 
n/a 
