-4.759 
n/a 
n/a 
n/a 
n/a 
-4.759 
n/a 
n/a 
n/a 
n/a 
-4.759 
n/a 
n/a 
n/a 
n/a 
-4.759 
n/a 
n/a 
n/a 
n/a 
-5.201 -5.0415 -8.021 -4.0385 -7.1845 
-7.543 -10.9315 -12.4509 -12.381 
-15.4104 -15.3614 -20.7934 
-19.8403 -23.7039 
-28.1828 
-13.868 -1.4985 -5.201 0 -5.0415 -4.496 0 -4.5175 -4.5925 
-16.6065 -6.0845 -5.201 -5.0415 -5.6875 -4.496 -4.5175 -6.385 
-18.8384 -6.0845 -7.543 -5.6875 -5.6875 -9.015 -6.385 
-18.8384 -7.9175 -7.549 -5.6875 -9.211 -9.0965 
-20.822 -7.920001 -7.549 -9.211 -9.218 
-13.868 0 -5.0415 -4.496 0 -4.0385 -4.5925 
-13.8295 -5.0415 -5.6875 -4.496 -4.0385 -7.982501 
-16.4589 -5.6875 -5.6875 -8.594501 -7.982501 
-16.4649 -5.6875 -9.874001 -13.3213 
-16.4649 -9.874001 -15.0784 
-13.868 0 -4.0385 -4.5925 0 -5.0415 -7.1795 0 
-13.8295 -4.0385 -7.982501 -4.5925 -5.0415 -13.0706 -7.1795 
-19.4589 -7.982501 -7.982501 -8.736 -13.0706 -13.0706 
-23.4029 -7.982501 -12.7286 -18.4671 -13.0706 
-23.4029 -12.7286 -22.4597 -18.4671 
