-4.759 
n/a 
n/a 
n/a 
n/a 
-4.759 
n/a 
n/a 
n/a 
n/a 
-4.759 
n/a 
n/a 
n/a 
n/a 
-4.759 
n/a 
n/a 
n/a 
n/a 
-3.5065 -5.0805 -2.8645 -3.9535 -3.948 -4.86 0 -3.5005 -4.1145 -5.276 -3.2875 0 -2.4265 -2.8645 -3.7905 -1.4985 -4.1035 -1.7565 -3.5015 -2.9705 -4.6805 -1.7565 -3.046 -3.6645 -3.8975 -1.756 -3.926 -3.4605 -2.0935 -1.4985 -3.486 0 
-9.953501 -8.349 -5.669 -8.559501 -7.2615 -4.86 -3.5005 -7.346001 -10.001 -9.3955 -3.2875 -2.4265 -4.1435 -4.816 -4.969 -5.0955 -5.0635 -4.97 -6.2245 -5.998 -4.722 -5 -6.893001 -6.38 -4.9005 -5.4905 -7.3055 -5.0435 -2.9725 -3.5655 -3.486 
-13.173 -11.7585 -9.505 -10.523 -7.2615 -7.223001 -7.346001 -14.9015 -14.2029 -9.3955 -6.0635 -4.1435 -5.785 -5.6965 -9.6555 -5.2255 -9.712501 -8.190001 -9.4135 -6.055501 -8.4025 -7.908501 -8.8435 -7.489 -8.285001 -9.3905 -8.8985 -5.9525 -5.1745 -3.5655 
-16.5825 -15.5945 -11.5129 -10.523 -9.111501 -11.3127 -14.9015 -19.1034 -14.2029 -12.3827 -7.4175 -5.785 -6.897501 -10.522 -10.283 -10.586 -13.6319 -11.45 -9.4665 -9.556001 -11.5232 -9.882501 -9.765501 -11.2551 -12.8188 -11.4227 -10.068 -8.574 -5.1745 
-20.4185 -17.6024 -11.5129 -12.373 -13.2718 -18.8682 -19.1034 -19.1034 -17.1901 -13.7367 -8.8975 -6.897501 -11.8556 -10.676 -15.6435 -14.5054 -16.8919 -11.503 -12.984 -12.7775 -13.4972 -11.1627 -13.98 -15.7889 -14.851 -12.5922 -12.8155 -8.574 
-2.5045 -5.0805 -3.9535 -3.948 -3.9115 -3.5005 -6.599 0 -3.6205 -1.7695 -3.8755 -3.046 -3.781 -8.880501 -1.756 -3.074 -3.781 -4.0675 -3.3255 -3.5025 0 
-8.740001 -10.9315 -8.559501 -7.2995 -6.559501 -9.987 -6.599 -3.6205 -4.683 -7.095001 -7.87 -7.0175 -11.5265 -10.2365 -4.566 -7.0385 -8.119 -6.2245 -6.589001 -3.5025 
-14.3372 -15.5375 -12.0752 -9.0965 -13.5994 -9.987 -11.046 -4.683 -10.0815 -11.2227 -12.2431 -15.6242 -13.4462 -13.0125 -8.292 -12.0901 -9.889501 -9.296 -6.589001 
-18.9432 -19.0532 -13.8722 -16.5734 -13.5994 -15.1468 -12.1085 -10.0815 -14.6324 -15.5958 -20.8498 -16.8057 -16.5998 -16.9257 -13.4578 -13.8606 -13.03 -9.296 
-22.4589 -20.8502 -21.3491 -16.5734 -18.7592 -16.2093 -17.507 -14.6324 -19.0055 -24.2025 -22.0313 -19.9593 -20.3854 -22.0915 -15.2283 -17.0011 -13.03 
-2.5045 -5.0805 -3.9535 -3.948 -3.9115 -3.5005 -6.599 0 -2.4265 -2.8645 -3.7905 -1.8085 -3.5015 -2.0935 -3.046 -3.781 -3.871 -3.737 -3.6205 -1.756 -3.1065 -3.5025 -3.781 -3.2 0 
-8.740001 -10.9315 -8.559501 -7.2995 -6.559501 -9.987 -6.599 -2.4265 -4.1435 -4.816 -4.255 -4.642 -4.7905 -4.281 -7.0175 -6.8805 -7.505 -7.955001 -4.9985 -5.0055 -5.851501 -7.4375 -6.188 -3.2 
-14.3372 -15.5375 -12.0752 -9.0965 -13.5994 -9.987 -9.316001 -4.1435 -5.785 -5.3875 -7.298501 -5.241 -7.5375 -8.327 -9.455 -10.3285 -12.2994 -9.366001 -9.182 -8.3335 -9.481501 -9.863001 -6.188 
-18.9432 -19.0532 -13.8722 -16.5734 -13.5994 -13.4168 -10.305 -5.785 -6.464 -7.7765 -8.013 -8.5235 -12.0977 -10.76 -13.1262 -15.1229 -13.7104 -13.7149 -12.6144 -12.5261 -12.5906 -9.863001 
-22.4589 -20.8502 -21.3491 -16.5734 -17.0292 -14.4058 -12.3785 -6.464 -8.6 -8.463 -11.1387 -13.4457 -14.5307 -14.4312 -17.9206 -16.5339 -18.0593 -17.1473 -16.807 -15.6352 -12.5906 
-3.0415 -4.278 -2.8645 -4.129 -3.6065 -4.397 0 -2.4265 -2.8645 -4.3195 -3.046 -3.781 -4.3245 -4.397 -1.756 -4.0675 -3.1065 -3.781 0 
-8.526001 -6.751 -8.188 -9.043501 -7.8395 -4.397 -2.4265 -4.1435 -7.3835 -7.5965 -7.0175 -9.035501 -8.940001 -5.834001 -6.1095 -7.047501 -5.5645 -3.781 
-9.779501 -12.8513 -13.0515 -13.4541 -7.8395 -6.677001 -4.1435 -8.2995 -10.5745 -12.279 -13.0884 -13.746 -10.2235 -9.998 -9.626501 -10.3725 -5.5645 
-15.9134 -17.7148 -17.4621 -13.4541 -10.0815 -8.114 -8.2995 -11.5755 -15.257 -18.3499 -17.7989 -15.0295 -14.3875 -13.6994 -13.0329 -10.3725 
-20.7769 -22.1254 -17.4621 -15.6961 -11.4927 -12.4348 -11.5755 -16.258 -21.3279 -23.0604 -19.0824 -19.1935 -18.0889 -17.1058 -13.0329 
