-4.759 
n/a 
n/a 
n/a 
n/a 
-4.759 
n/a 
n/a 
n/a 
n/a 
-4.759 
n/a 
n/a 
n/a 
n/a 
-4.759 
n/a 
n/a 
n/a 
n/a 
-4.348 -2.186 -1.8085 -3.59 -2.9705 -4.3535 -3.3715 -5.2835 
-6.642 -3.164 -4.973001 -6.172 -6.331 -7.8725 -7.0965 
-7.4565 -6.4275 -6.882501 -9.6285 -9.512501 -11.8409 
-9.328501 -8.039001 -9.994501 -12.8884 -13.7265 
-10.7185 -11.2714 -13.3506 -17.1024 
-4.348 -2.186 -1.8085 -4.0725 -4.2655 -3.59 
-6.642 -3.164 -5.054 -8.786 -8.239 
-7.4565 -5.964 -9.651 -10.0575 
-9.347 -10.354 -10.5345 
-14.5064 -10.7135 
-4.348 -3.59 -2.186 -1.8085 -3.0415 -3.3715 -5.2835 -3.7875 -4.179 
-7.8195 -5.4475 -3.164 -5.8105 -4.5985 -7.0965 -8.901 -8.633 
-10.4595 -6.7365 -7.104001 -8.273001 -7.9695 -11.2338 -13.7811 
-10.5275 -10.6735 -10.096 -11.7684 -12.5168 -16.1139 
-15.8965 -13.6655 -13.7064 -16.3157 -17.3969 
-4.348 -2.8645 -3.0415 -3.3715 -4.3705 0 
-7.0035 -5.7805 -4.5985 -6.993001 -4.3705 
-9.8245 -6.4865 -8.2355 -6.993001 
-10.4545 -10.126 -8.2355 
-14.094 -10.126 
