-4.759 
n/a 
n/a 
n/a 
n/a 
-4.759 
n/a 
n/a 
n/a 
n/a 
-4.759 
n/a 
n/a 
n/a 
n/a 
-4.759 
n/a 
n/a 
n/a 
n/a 
-3.9725 -12.16972 -5.032 -7.299 -2.186 -3.9515 -2.9805 -4.098 -3.3715 -5.4765 0 
-17.08522 -17.20172 -13.3754 -9.395 -7.0105 -7.0795 -5.505 -7.644 -7.694 -5.4765 
-22.11722 -25.54512 -15.4714 -14.4105 -9.9865 -10.172 -8.727 -12.3777 -7.694 
-30.46062 -27.64112 -20.4869 -17.3865 -13.1796 -13.522 -13.7055 -12.3777 
-32.55662 -32.65662 -23.4629 -20.5796 -16.5296 -18.5005 -13.7055 
-10.318 -4.8855 -6.999001 -2.5045 -3.091 -3.9515 
-15.3009 -12.6121 -9.970001 -5.2025 -6.9945 
-23.0275 -15.5831 -12.7064 -8.394501 
-25.9985 -18.3195 -15.8984 
-28.7349 -21.5115 
-12.16972 -3.917 -7.299 -2.5045 -3.091 -3.9515 -3.2875 -1.756 -3.7555 -3.264 -1.7565 -5.4765 0 
-16.08672 -12.357 -10.0445 -5.2025 -6.9945 -5.783 -4.9375 -5.2875 -7.925 -3.6125 -7.076001 -5.4765 
-24.52672 -15.1025 -12.7921 -8.394501 -8.486 -7.2625 -8.339001 -9.687 -9.278001 -8.1885 -7.076001 
-27.27222 -17.8501 -15.9841 -9.759001 -9.437 -10.939 -12.9553 -10.762 -13.9166 -8.1885 
-30.01982 -21.0421 -17.3486 -10.65 -13.1397 -15.5553 -14.0303 -15.4006 -13.9166 
-12.16972 -4.8855 -9.9095 -2.5045 -3.091 -3.6115 -3.9515 0 -3.43 -3.3715 -5.4765 0 
-17.05522 -15.5226 -12.4324 -5.2025 -5.5775 -7.9115 -3.9515 -3.43 -6.2845 -7.694 -5.4765 
-27.69232 -18.0455 -15.1304 -7.612 -9.7275 -7.9115 -8.0235 -6.2845 -11.0884 -7.694 
-30.21522 -20.7435 -17.5399 -12.167 -9.7275 -12.4733 -10.0125 -11.0884 -11.0884 
-32.91322 -23.153 -22.0949 -12.167 -14.4125 -14.4623 -15.8418 -11.0884 
