-4.759 
n/a 
n/a 
n/a 
n/a 
-4.759 
n/a 
n/a 
n/a 
n/a 
-4.759 
n/a 
n/a 
n/a 
n/a 
-4.759 
n/a 
n/a 
n/a 
n/a 
-4.2485 -4.85 -1.7695 -3.535 -3.4905 -4.811 -2.674 -6.3855 -1.7695 -4.2485 -3.6615 0 
-8.996 -7.31 -5.5315 -5.8865 -9.7995 -7.352 -9.057 -8.4515 -6.549 -6.466001 -3.6615 
-11.5938 -11.803 -7.8725 -12.7847 -12.3405 -14.421 -11.3926 -13.563 -7.667 -6.466001 
-16.0868 -14.144 -15.0009 -15.3257 -19.4095 -16.7566 -16.5041 -14.681 -7.667 
-18.4278 -21.2724 -17.5419 -22.3947 -21.7451 -21.8681 -17.6221 -14.681 
-2.3345 -4.766 -4.2485 -3.518 -2.7835 -3.0365 -2.186 -1.8085 -3.535 -4.811 -3.851 -1.7695 -1.4985 -4.4345 -1.7565 -4.142 -2.4265 -3.837 -3.17 -1.7565 -1.4985 -3.6615 -1.934 -4.113 0 
-6.1105 -7.528 -7.502501 -6.173 -4.4665 -3.66 -3.164 -4.294 -7.625501 -8.1215 -4.0015 -2.7955 -5.1515 -4.719 -6.5655 -7.072001 -5.396 -6.38 -4.179 -2.4195 -4.9455 -4.437 -6.106 -4.113 
-9.009001 -11.2432 -10.0315 -7.8595 -4.811501 -4.218 -5.4485 -10.434 -10.7495 -8.1385 -4.5775 -6.7205 -5.274 -9.6815 -8.8935 -10.0315 -8.6225 -7.7755 -4.497 -5.914001 -5.731 -6.995501 -6.106 
-12.934 -13.7722 -11.9108 -8.138 -5.3205 -6.276 -11.8551 -13.558 -10.785 -8.933001 -8.979 -6.901 -10.322 -12.0453 -11.9338 -13.2776 -8.989 -8.027 -7.3095 -6.6585 -8.396501 -6.995501 
-15.463 -15.6515 -12.1893 -8.704 -8.078 -12.9814 -14.9791 -13.5935 -11.5795 -13.5213 -9.092 -12.175 -12.6858 -15.0856 -15.1799 -13.6441 -9.1525 -10.7025 -8.2025 -9.462001 -8.396501 
-1.4985 -4.258 -5.046 -3.4985 -4.486 -1.7565 -4.2485 -4.8675 -1.4985 -4.889 -1.7565 -4.2485 -3.6615 -3.9345 -1.7695 -4.614 -1.934 -1.8085 -5.718 -4.412 0 
-5.875 -7.5915 -7.465 -8.5255 -5.308 -5.969 -7.814001 -5.4845 -5.533501 -5.4455 -5.969 -6.466001 -7.145 -3.94 -7.232501 -6.549 -3.2685 -6.431001 -8.925001 -4.412 
-9.026001 -9.340501 -12.9406 -9.147 -7.8405 -10.1225 -8.212501 -8.622001 -5.803 -8.744501 -8.0045 -9.525501 -7.152501 -10.194 -8.672001 -8.129001 -7.853001 -9.181001 -8.925001 
-10.4855 -15.1783 -13.5621 -11.7141 -12.3382 -10.433 -11.5706 -8.6835 -9.313001 -10.702 -11.3822 -9.532001 -13.6395 -11.6335 -11.076 -12.8647 -9.318001 -9.181001 
-16.6295 -15.7998 -16.1292 -16.2118 -12.6487 -13.7911 -11.6321 -12.3093 -11.4023 -14.0797 -11.3887 -16.104 -15.079 -14.0375 -15.8117 -14.3297 -9.318001 
-4.4515 -3.7575 -3.074 -4.593 -3.115 -7.626 -1.756 -4.224 
-8.526501 -7.056 -8.257501 -8.817 -10.5035 -9.061001 -5.701 
-12.2672 -12.5325 -13.0223 -16.3687 -11.9385 -13.1446 
-17.7437 -17.2973 -20.574 -17.8037 -16.0221 
-22.5085 -24.849 -22.009 -21.8873 
