-4.759 
n/a 
n/a 
n/a 
n/a 
-4.759 
n/a 
n/a 
n/a 
n/a 
-4.759 
n/a 
n/a 
n/a 
n/a 
-4.759 
n/a 
n/a 
n/a 
n/a 
-12.16972 -3.5795 -1.4985 -9.839001 0 -6.9445 
-15.74922 -4.5845 -12.4313 -9.839001 -6.9445 
-16.75422 -15.7781 -12.4313 -16.8213 
-27.94782 -15.7781 -19.4136 
-27.94782 -22.7604 
-5.8395 -1.756 -5.4965 -1.934 -1.4985 -3.1385 -4.4615 -1.4985 -5.366 -2.871 0 
-6.926001 -6.7125 -7.314001 -2.6125 -4.2575 -8.565001 -5.238 -6.1955 -8.024 -2.871 
-7.218 -8.424 -8.141001 -6.285501 -9.654 -9.597 -9.824 -9.0435 -8.024 
-8.806001 -9.1855 -12.0826 -12.199 -10.9002 -14.2232 -12.787 -9.0435 
-9.495001 -13.2595 -17.9961 -13.4452 -15.5264 -17.1862 -12.787 
-4.426 -1.7565 -1.4985 -3.0835 -4.7285 -4.1555 -3.147 -5.1845 -4.953 -2.186 -3.4155 -3.6885 -2.186 -1.4985 -3.535 -3.5825 0 
-5.47 -2.4195 -3.535 -6.042 -8.4455 -5.77 -8.439 -8.975 -6.739 -5.0125 -7.640501 -5.4995 -3.339 -4.255 -6.589 -3.5825 
-5.9535 -4.6785 -6.335501 -9.523001 -9.541501 -10.75 -12.9399 -10.382 -9.903501 -9.589001 -9.946001 -6.8715 -5.657 -7.023001 -6.589 
-8.021 -7.476501 -10.0095 -10.7035 -14.5215 -15.2509 -14.3469 -13.5465 -14.48 -12.1137 -11.318 -8.858001 -8.111501 -7.023001 
-9.983001 -11.3061 -11.3 -15.6835 -19.0224 -16.6579 -17.5114 -18.123 -17.0047 -13.4857 -13.3045 -11.5287 -8.111501 
-3.93 -6.1945 -3.7965 -5.8395 0 -5.4965 -1.756 -3.7285 -3.188 -4.3955 
-11.4149 -10.7665 -9.894501 -5.8395 -5.4965 -6.756501 -5.737 -7.566501 -7.8425 
-15.9869 -16.8645 -9.894501 -7.251501 -6.756501 -9.507501 -9.998 -12.6748 
-22.0849 -16.8645 -11.4809 -8.010501 -9.507501 -15.2897 -15.3595 
-22.0849 -18.4509 -12.2399 -11.7673 -15.2897 -20.6512 
