-4.759 
n/a 
n/a 
n/a 
n/a 
-4.759 
n/a 
n/a 
n/a 
n/a 
-4.759 
n/a 
n/a 
n/a 
n/a 
-4.759 
n/a 
n/a 
n/a 
n/a 
-4.1465 -1.7565 -4.6745 0 -8.254001 -8.616 0 
-6.0475 -5.822001 -4.6745 -8.254001 -10.802 -8.616 
-8.045501 -5.822001 -13.7113 -10.802 -10.802 
-8.045501 -15.3272 -16.2593 -10.802 
-17.7111 -17.8752 -16.2593 
-9.443501 -8.616 
-18.3165 
n/a 
n/a 
n/a 
-7.027 -8.616 
-16.7212 
n/a 
n/a 
n/a 
-4.065 -4.1465 0 -1.8085 -4.1465 -2.356 -1.4985 -6.25 -1.7565 -4.2285 0 0 
-7.089 -4.1465 -1.8085 -5.891 -5.9325 -3.1615 -7.660001 -7.958001 -5.948501 -4.2285 0 
-7.089 -6.5125 -5.891 -7.4195 -6.792 -9.097 -8.494 -8.172501 -5.948501 -4.2285 
-9.328501 -8.371 -7.4195 -8.2425 -13.2831 -9.657001 -8.809001 -8.172501 -5.948501 
-11.507 -9.722501 -8.2425 -14.9458 -13.8431 -9.8765 -8.809001 -8.172501 
