-4.759 
n/a 
n/a 
n/a 
n/a 
-4.759 
n/a 
n/a 
n/a 
n/a 
-4.759 
n/a 
n/a 
n/a 
n/a 
-4.759 
n/a 
n/a 
n/a 
n/a 
-3.9605 -4.0465 0 -8.739 0 -3.587 -3.462 0 -3.9165 
-8.056 -4.0465 -8.739 -8.739 -3.587 -4.7775 -3.462 -3.9165 
-8.056 -13.5205 -8.739 -12.631 -4.7775 -4.7775 -5.812 
-17.9266 -13.5205 -12.631 -13.8215 -4.7775 -7.2995 
-17.9266 -17.4125 -13.8215 -13.8215 -7.2995 
-3.9605 -3.2 0 -8.342501 0 -3.587 -3.462 0 -3.9165 
-4.664001 -3.2 -8.874001 -8.874001 -3.587 -4.7775 -3.462 -3.9165 
-4.664001 -13.3278 -8.874001 -12.1788 -4.7775 -4.7775 -5.812 
-15.1448 -13.3278 -12.1788 -13.2123 -4.7775 -7.2995 
-15.1448 -16.6326 -13.2123 -13.2123 -7.2995 
-3.331 0 -3.897 0 -3.587 -3.462 0 -5.6865 
-3.331 -3.897 -3.897 -3.587 -4.7775 -3.462 -5.6865 
-6.613 -3.897 -6.605 -4.7775 -4.7775 -9.125 
-6.613 -6.605 -7.6385 -4.7775 -11.5343 
-9.0555 -7.6385 -7.6385 -11.5343 
-3.307 -3.5015 
-8.1845 
n/a 
n/a 
n/a 
