-4.759 
n/a 
n/a 
n/a 
n/a 
-4.759 
n/a 
n/a 
n/a 
n/a 
-4.759 
n/a 
n/a 
n/a 
n/a 
-4.759 
n/a 
n/a 
n/a 
n/a 
-4.311 -9.073501 -4.7325 -2.8645 -2.6165 -4.0925 -1.4985 -7.4445 -2.229 -10.9935 0 -6.8035 -2.9805 -2.186 -3.4625 -3.849 -2.5045 -6.816 -2.3345 -1.4985 -5.1845 -4.169 0 
-14.6905 -9.911 -7.2125 -4.475 -6.145 -5.5505 -10.459 -8.910501 -13.8175 -10.9935 -6.8035 -8.127 -4.1635 -4.4835 -5.9165 -6.305 -9.733001 -10.1075 -3.233 -6.5205 -10.0345 -4.169 
-15.528 -12.391 -9.48 -7.29 -7.567 -14.9218 -11.925 -20.7338 -13.8175 -17.797 -8.127 -9.044001 -6.5015 -6.784 -7.985001 -13.6371 -13.2261 -11.006 -7.917 -12.0859 -10.0345 
-18.008 -14.6585 -12.3022 -8.1735 -17.1827 -16.3878 -23.7483 -20.7338 -20.621 -19.1205 -9.044001 -11.5024 -8.663501 -8.7755 -15.6841 -17.1302 -14.1246 -15.69 -13.8662 -12.0859 
-20.2755 -17.4807 -13.1857 -17.949 -18.6487 -28.2111 -23.7483 -27.5373 -21.9445 -20.0375 -11.5024 -13.6644 -10.553 -16.7784 -19.1772 -18.0287 -18.8086 -21.6392 -13.8662 
-1.4985 -4.9435 -4.96 -2.3345 -8.382501 -2.5045 -1.4985 -4.311 -5.629 -4.7325 -2.6165 -3.7925 -4.0925 0 -3.4765 -3.929 -2.9805 -2.186 -3.849 -2.5045 0 -5.5095 0 -2.3345 -1.4985 -5.1845 -5.9175 -4.169 0 
-6.424001 -8.442 -5.912 -9.5205 -11.2684 -3.1915 -4.9505 -6.754001 -6.0285 -8.1285 -4.5805 -6.7635 -4.0925 -3.4765 -4.589 -5.378 -4.1635 -4.8565 -6.305 -2.5045 -5.5095 -5.5095 -2.3345 -3.233 -6.5205 -9.022501 -9.508 -4.169 
-10.328 -8.732 -13.7082 -12.528 -11.9554 -6.009 -7.320001 -6.869501 -9.938001 -10.0065 -6.7995 -6.7635 -7.624001 -4.589 -5.891 -6.535 -6.91 -7.104 -6.305 -8.267501 -5.5095 -7.8755 -3.233 -7.917 -10.2755 -13.0356 -9.508 
-10.618 -16.9948 -16.7157 -13.215 -14.7729 -9.646 -7.6235 -10.7595 -11.8808 -12.4895 -6.7995 -10.435 -8.191 -5.891 -6.927001 -9.55 -9.0845 -7.104 -12.1716 -8.267501 -7.8755 -9.778 -7.917 -12.0558 -14.2886 -13.0356 
-18.8808 -20.0023 -17.4027 -16.0325 -18.4099 -10.2665 -11.7887 -12.7023 -14.3638 -12.4895 -10.6095 -11.002 -9.803 -6.927001 -10.1805 -11.8037 -9.0845 -13.1004 -12.1716 -10.404 -9.778 -14.7178 -12.0558 -16.0689 -14.2886 
-4.311 -5.629 -9.7495 0 -2.186 -2.6165 -4.0925 -1.4985 -4.9435 -3.3195 -2.3335 -2.7415 -3.8755 -2.3345 -8.382501 0 -2.872 -2.9805 -2.186 -3.849 -2.5045 -1.8085 -5.5095 -2.3345 -1.4985 -5.1845 -1.934 -3.655 -3.1385 0 
-6.754001 -16.6581 -9.7495 -2.186 -3.5105 -6.145 -5.5505 -6.424001 -7.6065 -5.71 -4.2725 -5.065001 -4.4955 -9.5205 -8.382501 -2.872 -4.6545 -4.1635 -4.8565 -6.305 -3.3625 -7.6295 -7.8755 -3.233 -6.5205 -7.9875 -5.7665 -6.857 -3.1385 
-18.9567 -16.6581 -12.0553 -3.5105 -7.141 -7.567 -10.6605 -9.1455 -10.007 -7.129 -6.435 -5.7145 -12.2259 -9.5205 -11.117 -4.6545 -5.818 -6.91 -7.104 -6.9375 -9.047001 -9.964001 -9.778 -7.917 -9.767 -12.1202 -9.4315 -6.857 
-18.9567 -18.9639 -13.3798 -7.141 -8.8785 -12.9214 -13.382 -11.8778 -11.5372 -8.977 -7.132 -14.0441 -12.2259 -12.3766 -12.8995 -5.818 -8.913 -9.0845 -7.7625 -13.3064 -10.5865 -11.9655 -14.7178 -11.5473 -14.0031 -15.7852 -9.4315 
-21.2625 -20.2884 -17.0103 -8.8785 -14.3299 -15.6429 -16.1143 -13.408 -13.3852 -9.634501 -15.8156 -14.0441 -15.082 -14.1591 -14.063 -8.913 -11.2283 -9.558001 -14.251 -14.8459 -13.2618 -16.9053 -18.3481 -15.7834 -17.6681 -15.7852 
-8.004001 -2.186 -3.849 -9.688001 -3.091 -3.3195 -4.0905 -3.013 -2.6165 -12.16972 -2.5045 -4.311 -12.16972 -12.16972 
-10.1385 -4.8565 -14.092 -13.0325 -5.8145 -6.627501 -7.215501 -3.724 -16.29702 -14.67422 -6.396501 -17.78672 -24.33944 
-12.809 -15.6209 -16.8114 -15.4525 -9.75 -10.419 -8.563001 -18.80712 -18.80152 -18.56622 -20.78382 -29.95644 
-23.5734 -18.0999 -19.2314 -19.9468 -13.7515 -11.7665 -23.88012 -21.31162 -22.69352 -32.95354 -32.95354 
-26.0524 -20.5199 -23.7257 -23.9483 -15.099 -27.08362 -26.38462 -25.20362 -37.08084 -45.12326 
