-4.759 
n/a 
n/a 
n/a 
n/a 
-4.759 
n/a 
n/a 
n/a 
n/a 
-4.759 
n/a 
n/a 
n/a 
n/a 
-4.759 
n/a 
n/a 
n/a 
n/a 
-3.1495 -2.871 -2.95 -4.4695 
-6.672 -4.919 -8.028501 
-7.9325 -10.209 
-13.6513 
n/a 
-2.3615 -2.186 -2.871 -4.359 -1.7565 -4.9375 
-3.5005 -4.247 -6.7705 -5.4865 -6.199501 
-5.2435 -8.5065 -7.3805 -9.107 
-9.320001 -9.085 -10.1805 
-10.168 -12.2136 
-2.3615 -2.186 -1.8085 -4.3685 -3.681 0 
-3.5005 -3.164 -5.298 -6.2725 -3.681 
-4.179 -6.7 -7.355 -6.2725 
-7.912001 -8.6625 -7.355 
-9.585501 -8.6625 
-8.166 -6.388 -12.16972 -8.2095 
-9.910501 -18.92492 -20.37922 
-22.44742 -27.13442 
-30.65692 
n/a 
