-4.759 
n/a 
n/a 
n/a 
n/a 
-4.759 
n/a 
n/a 
n/a 
n/a 
-4.759 
n/a 
n/a 
n/a 
n/a 
-4.759 
n/a 
n/a 
n/a 
n/a 
-2.5045 -3.543 -1.4985 -6.318 -4.4655 -1.934 -1.4985 -3.158 -7.281 0 -1.7565 -1.4985 -4.3665 -2.674 -4.8165 -2.3335 0 -4.2655 -4.303 -1.8085 -3.699 -3.9825 -1.934 -2.985 -3.3435 -1.756 -2.3615 -2.186 -4.1925 -3.6395 -3.034 -4.2815 -1.7695 -1.4985 -2.8965 -5.4875 -3.59 -1.934 -1.4985 -3.188 -2.5045 -3.543 -1.4985 -6.318 -4.4655 -1.934 -3.0105 0 -1.4985 -5.0275 -1.934 -3.676 0 -6.6355 0 -1.7565 -3.5085 -4.357 -4.3215 -4.2315 -2.5045 -5.003 -1.756 -2.3615 -3.6395 -2.8645 -8.729501 -3.034 -4.2815 -1.7695 -1.4985 -4.1855 -4.9595 -1.7565 -6.147 -2.9705 -2.7415 -6.653 0 0 
-5.323 -5.62 -7.476001 -12.1093 -5.350501 -2.6125 -4.178 -9.234 -7.0145 -1.7565 -2.4195 -5.585 -5.9145 -6.5175 -5.8995 -2.3335 -4.2655 -8.088 -5.363 -6.9425 -5.406 -4.624 -4.111 -5.5965 -4.576 -4.4615 -3.5005 -6.559 -6.4505 -6.4845 -5.568 -4.4915 -2.7955 -3.928 -9.6745 -7.4005 -5.272 -2.6125 -3.619 -5.509 -5.323 -5.62 -7.476001 -12.1093 -5.350501 -4.827 -3.0105 -1.4985 -7.1335 -6.366 -4.7985 -3.676 -6.004 -6.004 -1.7565 -5.016 -7.6135 -8.4585 -6.886001 -5.5285 -6.56 -6.091001 -4.4615 -6.0165 -6.2545 -13.197 -12.0249 -5.568 -4.4915 -2.7955 -5.8465 -9.4235 -6.591001 -7.448 -8.773001 -4.512 -8.996 -5.988 0 
-5.8685 -12.1057 -13.7811 -12.9943 -6.1055 -5.265 -10.8405 -9.889501 -9.474 -2.4195 -6.532001 -7.1895 -9.701501 -7.2665 -5.8995 -6.500501 -8.088 -8.437 -9.263 -8.228001 -5.6055 -6.7255 -6.3295 -6.6765 -7.001 -5.0895 -8.8855 -9.8265 -9.4135 -8.0255 -5.7335 -5.0185 -5.194 -9.975 -11.7257 -7.6205 -5.747 -4.377 -5.6785 -8.7095 -5.8685 -12.1057 -13.7811 -12.9943 -7.655001 -4.827 -4.7935 -7.1335 -8.8715 -7.943501 -4.7985 -9.742001 -6.004 -8.2995 -5.016 -8.8605 -12.1934 -9.157001 -7.012001 -8.0765 -7.7995 -8.7025 -8.053 -7.9655 -17.6342 -16.4924 -14.5589 -5.7335 -5.0185 -7.148001 -11.9573 -11.2088 -12.7823 -9.6945 -9.923 -11.037 -8.8645 -5.988 
-12.567 -18.4108 -14.6661 -13.7493 -8.586 -11.2905 -10.7025 -12.349 -10.1235 -6.532001 -9.106001 -10.2915 -10.636 -7.2665 -9.408501 -8.829 -8.437 -12.9876 -9.3985 -8.391001 -7.746 -8.749001 -7.331501 -8.8925 -7.587 -10.3035 -12.1506 -13.1499 -10.7505 -8.2075 -6.2175 -6.64 -11.3856 -12.0262 -11.9457 -7.681 -6.1975 -6.4525 -8.813001 -9.1455 -12.567 -18.4108 -14.6661 -15.2988 -7.655001 -5.863 -10.7597 -8.8715 -10.6056 -7.943501 -11.0424 -9.742001 -8.2995 -10.078 -8.8605 -13.9232 -12.8919 -9.162001 -8.892501 -9.112 -10.27 -12.376 -9.287001 -19.6768 -20.9296 -19.0264 -14.7244 -6.2175 -8.490001 -13.4934 -13.7426 -17.4001 -15.0288 -10.9291 -16.6106 -11.1996 -8.8645 
-18.8721 -19.2958 -15.4211 -16.2298 -14.1008 -11.4893 -13.162 -12.9985 -14.6814 -9.106001 -12.3444 -11.226 -10.636 -11.0979 -12.0068 -9.149501 -12.9876 -13.1231 -9.4825 -10.7449 -9.5295 -9.757 -9.296 -9.3435 -13.0338 -13.6698 -15.474 -14.4869 -10.9325 -8.710501 -7.6875 -12.9592 -13.4368 -12.2462 -12.0062 -7.7165 -8.223001 -9.085001 -9.234501 -15.9182 -18.8721 -19.2958 -16.9706 -15.2988 -8.818501 -12.1052 -12.4977 -10.6056 -10.6056 -14.4966 -11.0424 -12.1679 -10.078 -13.436 -13.9232 -14.6217 -12.8969 -9.361 -10.204 -11.6487 -13.9959 -13.61 -21.1041 -22.9722 -23.4636 -19.1919 -15.2084 -9.753 -15.2468 -15.2787 -19.9339 -19.6466 -16.2634 -17.6167 -16.6106 -11.1996 
-4.0305 -4.005 -1.934 -3.522 -3.468 -3.759 0 -4.3665 -5.2315 -4.2655 -4.4605 -3.699 -3.9825 -1.934 -2.985 -3.3435 -2.3615 -2.186 -3.4915 -3.93 -3.1575 -2.9995 -4.09 -3.59 -6.6355 0 -1.7565 -4.357 -5.438 -1.4985 -4.2635 -3.277 -2.5045 -5.003 0 -6.147 -3.251 -6.653 0 -4.5205 -2.5195 -4.1855 
-8.27 -4.808 -5.0285 -7.746 -7.789001 -3.759 -4.3665 -10.31 -9.384001 -7.7325 -7.6285 -5.406 -4.624 -4.111 -5.5965 -5.7605 -3.5005 -4.979 -5.5535 -4.9745 -5.08 -7.8035 -6.6095 -10.3665 -6.004 -1.7565 -5.658 -9.890001 -6.9645 -7.0635 -6.568501 -4.9585 -6.56 -5.003 -6.147 -8.315001 -9.9735 -5.988 -4.5205 -7.0005 -6.1845 
-8.819 -7.8345 -8.918 -12.5794 -7.789001 -9.297501 -10.31 -14.4625 -13.0224 -10.76 -8.040001 -5.6055 -6.7255 -6.3295 -7.7155 -6.248 -6.486 -6.4475 -6.1855 -7.02 -9.296 -8.3035 -14.4056 -10.7575 -8.2995 -5.658 -11.824 -11.5655 -12.7703 -9.980101 -7.4215 -8.6215 -6.56 -9.079 -8.315001 -15.5846 -10.468 -11.1863 -7.0005 -11.0755 
-10.368 -11.8948 -13.7586 -12.5794 -13.5909 -15.3198 -14.4625 -18.1009 -16.0499 -11.1715 -8.1475 -7.746 -8.749001 -8.187 -8.203501 -9.4835 -8.2045 -6.7745 -8.116 -11.437 -9.688001 -16.4358 -14.4056 -13.053 -10.1595 -11.824 -13.4995 -17.3713 -15.6869 -10.8331 -10.523 -8.6215 -11.0922 -11.5146 -15.5846 -15.5846 -15.6663 -14.1178 -11.0755 
-14.4283 -16.7354 -13.7586 -18.3813 -19.6132 -19.4723 -18.1009 -21.1284 -16.4614 -11.279 -10.38 -9.5295 -10.586 -8.805 -11.3702 -11.3102 -8.2735 -8.705001 -12.5766 -11.829 -17.9403 -16.4358 -16.7011 -14.913 -17.8421 -13.4995 -19.3053 -20.2879 -16.5399 -13.9346 -10.523 -13.3025 -13.5278 -18.7842 -15.5846 -20.7829 -18.5978 -18.358 
-2.264 -3.522 -3.326 -3.777 -2.871 0 -4.2655 0 -1.934 -2.985 -3.3435 -2.871 -3.699 -3.9825 -2.186 -1.7695 -4.2635 0 -3.759 0 -4.3665 -3.264 0 -2.3615 -2.186 -3.135 -3.89 -4.263 -3.59 0 -2.3615 -2.8965 -3.1575 -2.8965 -4.263 -3.59 -1.934 -3.676 -5.137 -3.0105 -4.46 -6.6355 0 -3.1385 -4.3215 -3.277 -2.5045 -5.003 -2.264 -4.1855 -2.925 -2.4945 -6.653 0 -2.4265 -2.8645 -3.1125 -7.916 0 
-6.5395 -7.087 -7.757 -6.9215 -2.871 -4.2655 -4.2655 -1.934 -4.111 -5.5965 -6.304501 -6.001 -5.406 -5.782 -3.8745 -4.6145 -4.2635 -3.759 -3.759 -4.3665 -7.210001 -3.264 -2.3615 -3.5005 -5.2115 -6.427 -8.477 -7.0485 -3.59 -2.3615 -6.0575 -4.4055 -5.4505 -7.198 -7.0485 -5.272 -4.7985 -9.653 -8.9025 -7.179001 -11.0035 -6.004 -3.1385 -7.413001 -7.449501 -4.9585 -6.56 -7.1425 -7.276501 -7.3595 -3.7675 -9.642501 -5.988 -2.4265 -4.1435 -3.5345 -10.127 -7.916 
-10.586 -12.0526 -11.0577 -6.9215 -6.994 -4.2655 -5.8575 -4.111 -6.3295 -8.406 -9.1975 -8.5535 -7.827 -6.2375 -6.1445 -4.6145 -9.830501 -3.759 -9.297501 -7.210001 -7.210001 -5.213 -3.5005 -6.3955 -7.708 -10.688 -11.5319 -7.0485 -6.0655 -6.0575 -7.16 -8.01 -9.183001 -9.019501 -8.5265 -8.3365 -10.31 -13.5475 -13.2222 -14.7253 -11.1769 -10.19 -7.413001 -10.204 -7.746001 -8.6215 -9.2025 -12.8842 -11.0477 -8.457001 -11.6495 -10.0475 -9.867001 -4.1435 -4.755 -10.2185 -10.127 
-15.5516 -15.3533 -11.0577 -11.4841 -6.994 -5.8575 -7.9325 -6.3295 -8.863501 -11.494 -11.851 -9.6945 -8.5255 -8.351001 -6.1445 -10.1465 -9.830501 -9.297501 -12.2198 -7.210001 -9.859001 -5.8145 -6.3955 -8.569 -12.306 -14.4323 -11.5319 -9.478001 -10.31 -7.16 -10.264 -12.0969 -11.5879 -10.177 -11.7614 -14.2426 -14.2045 -17.8672 -20.7685 -14.7253 -15.3629 -14.9145 -10.204 -10.5005 -10.757 -11.4128 -14.9508 -16.6554 -12.1452 -16.5888 -11.7925 -13.9265 -11.4226 -4.755 -11.7586 -10.2185 
-18.8523 -15.3533 -15.6203 -11.4841 -8.4645 -7.9325 -9.724501 -8.863501 -12.0417 -14.1475 -12.992 -10.2355 -10.6465 -8.351001 -12.0087 -10.1465 -15.4296 -12.2198 -12.2198 -9.859001 -10.517 -8.7145 -8.569 -13.601 -16.0503 -14.4323 -13.9614 -13.7889 -11.4125 -10.264 -14.7655 -14.5018 -12.7454 -14.1199 -17.6675 -18.1371 -18.5242 -25.4135 -20.7685 -18.9113 -20.0874 -17.7055 -10.5005 -13.5115 -13.5483 -17.1611 -18.722 -17.7529 -20.277 -16.5888 -15.6715 -15.4821 -11.8536 -11.7586 -11.7586 
-1.934 -3.522 -3.158 -3.326 -1.7695 -4.2655 -1.7565 -2.8705 -4.4525 -1.7565 -4.116 -1.7695 -3.759 0 -3.676 -2.229 -4.752 -3.676 -2.229 -5.003 -1.7695 -3.922 -1.4985 -6.6355 0 -1.756 -6.653 0 
-5.0285 -6.593 -6.704 -5.483 -6.415501 -6.026 -3.8505 -8.238501 -4.6715 -5.674 -5.911 -5.943 -3.759 -3.676 -4.593 -7.7315 -8.530001 -4.593 -7.4595 -6.448 -4.5985 -4.7665 -8.655001 -6.004 -1.756 -8.493 -5.988 
-8.3455 -10.9716 -9.647501 -11.0842 -8.748501 -8.276501 -9.062501 -9.998 -8.029 -7.4325 -10.8297 -5.943 -8.312 -4.593 -11.4699 -11.8959 -9.134501 -8.781 -8.9075 -9.992001 -5.177001 -13.316 -9.386001 -8.815001 -8.633 -8.633 
-12.8745 -13.9151 -15.3153 -13.4172 -11.2774 -14.1025 -10.7575 -13.3555 -10.054 -12.6606 -10.8297 -11.4384 -9.065001 -11.4699 -15.6343 -12.5004 -13.8505 -10.468 -12.6669 -10.7469 -13.8129 -13.316 -12.4904 -11.928 -8.633 
-15.818 -19.5829 -17.6483 -15.9461 -17.1034 -15.7975 -14.115 -15.3805 -15.2821 -12.6606 -16.3251 -12.1914 -16.3641 -15.6343 -16.2388 -17.2164 -15.5375 -14.2274 -13.4218 -19.3828 -13.8129 -16.4204 -15.6034 -11.928 
