-4.759 
n/a 
n/a 
n/a 
n/a 
-4.759 
n/a 
n/a 
n/a 
n/a 
-4.759 
n/a 
n/a 
n/a 
n/a 
-4.759 
n/a 
n/a 
n/a 
n/a 
-2.5195 -1.4985 -4.193 -1.7565 -4.602 -4.153 0 -3.4975 -3.8195 -3.0435 -2.7415 -4.4715 -4.06 -1.934 -4.3685 0 -3.7765 0 
-3.1695 -4.594501 -4.7225 -6.552001 -5.112 -4.153 -3.4975 -6.193 -6.975 -6.0595 -6.1835 -7.6105 -4.483 -5.572001 -4.3685 -3.7765 -3.7765 
-5.4985 -4.7895 -8.221001 -6.637001 -5.112 -6.423 -6.193 -9.633 -9.2755 -9.3905 -9.4515 -7.795001 -8.058001 -5.572001 -6.442 -3.7765 
-6.04 -8.319501 -8.338 -6.637001 -6.9815 -9.755501 -9.633 -12.1047 -12.7169 -12.6641 -9.763 -11.6168 -8.058001 -7.052501 -6.442 
-9.5515 -8.444 -8.338 -8.024 -10.078 -13.2385 -12.1047 -15.5461 -15.9905 -12.9756 -13.735 -11.6168 -8.98 -7.052501 
-2.5195 -2.9965 -4.153 -3.4975 -4.3685 -3.8195 -3.655 -2.7415 -4.4715 -3.6215 -1.4985 -3.7765 
-5.654 -7.677501 -6.423 -7.972501 -6.638 -5.969501 -6.1545 -6.1835 -7.4665 -4.094 -5.1305 
-10.1995 -9.84 -11.6822 -9.750001 -8.134001 -8.179001 -9.43 -9.249001 -7.9845 -8.538501 
-12.362 -15.1526 -13.4597 -11.574 -9.953 -11.5165 -12.5343 -9.941001 -12.3408 
-17.6746 -16.9301 -15.2837 -13.393 -13.5421 -14.6208 -13.2263 -14.2973 
-1.934 -1.4985 -4.193 -1.7565 -4.602 -4.153 -3.4975 -3.7805 -4.4715 -6.477 -3.6215 -3.7765 0 -1.756 -4.3685 
-2.6125 -4.594501 -4.7225 -6.552001 -5.112 -6.423 -6.7095 -8.05 -8.885 -6.6035 -7.6025 -3.7765 -1.756 -6.3705 
-5.558001 -4.7895 -8.221001 -6.637001 -6.9815 -10.5865 -10.757 -12.8315 -8.894501 -10.8611 -7.6025 -5.473001 -6.3705 
-6.0865 -8.319501 -8.338 -8.024 -10.733 -14.634 -15.5385 -12.841 -13.1277 -10.8611 -8.5205 -9.606501 
-8.946501 -8.444 -10.0298 -12.1003 -14.7805 -19.4155 -15.548 -17.0742 -13.1277 -11.7791 -12.9502 
-2.5195 -1.4985 -4.193 -1.7565 -1.4985 -4.602 -4.153 0 -3.4975 -5.708 -3.6445 -2.7415 -5.08 -4.07 -4.3685 -1.934 -3.7765 0 
-3.1695 -4.594501 -4.7225 -2.4195 -5.3995 -5.112 -4.153 -3.4975 -8.5165 -9.5935 -6.292 -6.9655 -8.544001 -9.319 -6.682 -4.9945 -3.7765 
-5.4985 -4.7895 -5.081 -5.785501 -5.5865 -5.112 -6.423 -8.5165 -12.8564 -12.266 -9.940001 -10.2485 -14.198 -11.7547 -9.142 -4.9945 
-6.04 -5.1135 -6.959001 -5.842 -5.5865 -6.9815 -12.2262 -12.8564 -15.5289 -15.914 -13.4942 -15.8847 -16.6337 -14.2147 -9.142 
-6.29 -6.985001 -6.988501 -5.842 -8.1735 -13.1961 -16.5661 -15.5289 -19.1769 -19.4682 -19.1304 -18.3204 -19.0937 -14.2147 
