-4.759 
n/a 
n/a 
n/a 
n/a 
-4.759 
n/a 
n/a 
n/a 
n/a 
-4.759 
n/a 
n/a 
n/a 
n/a 
-4.759 
n/a 
n/a 
n/a 
n/a 
-4.304 -1.7695 -3.539 -3.0105 -6.3825 0 
-5.489 -5.9905 -4.7395 -10.0715 -6.3825 
-10.8074 -7.625 -12.5225 -10.0715 
-12.4419 -15.437 -12.5225 
-20.2539 -15.437 
-2.0935 -2.645 -3.539 -3.0105 -5.009 
-3.883 -6.563001 -4.7395 -8.699 
-8.630501 -8.338501 -11.15 
-10.348 -14.9808 
-16.9903 
-3.818 -3.539 -3.0105 -5.494 
-8.955 -4.7395 -8.9025 
-10.3505 -10.013 
-15.624 
n/a 
-2.0935 -2.645 -3.539 -3.0105 -2.9195 
-3.883 -6.563001 -4.7395 -6.028501 
-8.630501 -8.338501 -7.846001 
-10.348 -11.6768 
-13.6863 
