-4.759 
n/a 
n/a 
n/a 
n/a 
-4.759 
n/a 
n/a 
n/a 
n/a 
-4.759 
n/a 
n/a 
n/a 
n/a 
-4.759 
n/a 
n/a 
n/a 
n/a 
-1.934 -2.3615 -3.4865 -2.229 -5.3385 -4.899 -3.7015 -1.4985 -3.2275 -1.7565 -4.042 -4.653 -4.2905 -2.229 -3.8275 -3.7015 -4.2945 0 -1.756 -1.4985 -4.4525 -1.7565 -3.4975 -5.4345 
-3.539 -5.546 -7.185 -7.604001 -11.117 -8.7355 -4.3435 -4.925 -5.2895 -5.6925 -7.126 -7.233001 -5.3455 -5.697001 -5.687 -6.488 -4.2945 -1.756 -3.0405 -4.731 -4.6715 -4.91 -7.7465 
-6.3825 -9.672001 -13.0396 -13.7695 -14.9535 -9.553 -7.6455 -5.918 -8.653 -8.532001 -7.6355 -8.780001 -6.966001 -7.1045 -6.9695 -6.488 -5.465 -3.0405 -6.0445 -4.7575 -8.4305 -9.030001 
-11.1943 -15.6266 -19.2051 -17.606 -15.771 -12.883 -8.105 -9.42 -12.5795 -8.788 -9.27 -10.5417 -8.6695 -8.441501 -6.9695 -7.599501 -6.4405 -6.0445 -6.0695 -8.526 -12.7807 
-17.1489 -21.7921 -23.0416 -18.4235 -19.101 -13.3425 -11.7128 -13.3991 -12.8355 -10.2595 -11.0349 -12.2452 -9.2275 -8.441501 -8.089001 -8.4335 -9.441501 -6.0695 -9.9145 -12.9048 
-2.3615 -3.4155 -5.305 -7.438 -4.297 -3.307 -3.8275 -4.0745 -4.452 -4.3465 -1.4985 -4.4525 
-5.395 -9.0515 -13.677 -12.4834 -7.694 -8.4865 -8.7275 -9.515501 -9.301001 -5.372001 -4.731 
-11.6158 -17.7173 -18.7224 -15.8804 -13.5357 -13.8971 -14.5583 -14.4283 -10.282 -10.123 
-20.2816 -22.7627 -22.1194 -21.7221 -18.9463 -19.7279 -19.4711 -15.4093 -15.033 
-25.327 -26.1597 -27.9611 -27.1327 -24.7771 -24.6407 -20.4521 -20.1603 
-3.5455 -3.091 -3.4865 -4.3285 0 -2.9805 -6.1825 -4.2905 -3.9555 -2.264 -4.2945 -3.8275 -1.756 -3.6845 -4.4525 -1.7695 -1.4985 -3.676 -4.744 -3.3435 0 
-5.242001 -6.5305 -8.186001 -4.3285 -2.9805 -7.5295 -8.133 -5.3725 -6.265 -5.9305 -5.5525 -5.1855 -5.0105 -7.916501 -5.610001 -2.7955 -6.125 -8.6555 -8.201 -3.3435 
-9.125 -10.233 -8.186001 -6.574 -7.5295 -9.647 -9.0675 -7.4965 -8.745501 -7.48 -6.785 -8.637501 -9.216001 -7.979501 -6.120501 -7.397501 -10.4675 -12.3771 -8.201 
-13.0639 -10.233 -10.7609 -10.553 -9.647 -10.8945 -10.0255 -8.998 -10.5325 -9.0205 -10.381 -12.9718 -9.274 -8.561501 -11.2483 -12.0414 -14.1891 -12.3771 
-13.0639 -13.1619 -14.7399 -12.6705 -10.8945 -11.8525 -10.3035 -10.6345 -12.073 -12.8997 -14.7153 -13.0298 -9.939 -13.7835 -15.8922 -15.763 -14.1891 
-1.934 -2.3615 -3.4865 -4.3285 -4.042 -4.653 -6.02 -1.4985 -4.2905 -6.1845 -4.002 -4.494 -1.7695 -4.2945 -3.8275 -1.756 -5.4965 -1.4985 -4.4525 -1.7565 -1.4985 -2.791 -4.7095 -4.348 
-3.539 -5.546 -8.186001 -8.244 -7.126 -10.164 -6.8255 -5.2005 -6.8745 -9.1035 -6.910001 -4.520501 -5.815001 -5.5525 -5.1855 -6.844 -6.317501 -4.731 -4.6715 -2.4195 -4.3645 -6.769 -5.061501 
-6.3825 -10.6605 -12.4309 -11.8542 -13.2002 -10.5205 -9.6555 -6.3345 -8.1785 -9.9945 -6.915501 -8.363001 -7.8455 -6.785 -10.4675 -7.4735 -6.818501 -4.7575 -5.560501 -5.416501 -7.319 -6.8015 
-12.1828 -14.9054 -16.0411 -17.9284 -13.5567 -13.3505 -10.563 -7.961 -10.8135 -10.286 -10.702 -10.374 -9.499001 -12.454 -10.764 -7.890501 -6.834501 -5.6675 -8.5165 -7.7465 -7.363 
-16.4277 -18.5156 -22.1153 -18.2849 -16.3867 -13.881 -11.889 -10.776 -10.772 -14.298 -12.713 -12.3571 -15.3172 -12.7505 -11.181 -7.909 -7.841501 -8.650001 -11.1521 -7.7795 
