-4.759 
n/a 
n/a 
n/a 
n/a 
-4.759 
n/a 
n/a 
n/a 
n/a 
-4.759 
n/a 
n/a 
n/a 
n/a 
-4.759 
n/a 
n/a 
n/a 
n/a 
-3.5715 0 -8.8105 -3.3365 -4.4515 -3.193 
-3.5715 -8.8105 -9.8265 -5.861 -7.463 
-11.0145 -9.8265 -9.8295 -7.817 
-12.0305 -9.8295 -12.9627 
-12.0335 -12.9627 
-3.5715 -8.8105 -3.3365 -4.4515 -3.193 0 0 
-11.0145 -9.8265 -5.861 -7.463 -3.193 0 
-12.0305 -9.8295 -7.817 -7.463 -3.193 
-12.0335 -12.9627 -7.817 -7.463 
-15.1667 -12.9627 -7.817 
-3.5715 0 -8.8105 -10.5895 -3.193 
-3.5715 -8.8105 -19.9038 -13.7825 
-11.0145 -19.9038 -23.0968 
-22.1078 -23.0968 
-25.3008 
-3.5715 -8.8105 -3.3365 -4.4515 -3.193 0 0 
-11.0145 -9.8265 -5.861 -7.463 -3.193 0 
-12.0305 -9.8295 -7.817 -7.463 -3.193 
-12.0335 -12.9627 -7.817 -7.463 
-15.1667 -12.9627 -7.817 
