-4.759 
n/a 
n/a 
n/a 
n/a 
-4.759 
n/a 
n/a 
n/a 
n/a 
-4.759 
n/a 
n/a 
n/a 
n/a 
-4.759 
n/a 
n/a 
n/a 
n/a 
-2.3615 -2.186 -3.43 -2.925 -1.7565 -4.6625 -1.756 -2.4265 -2.664 -4.0715 -1.7565 -4.6625 -3.8935 0 
-3.5005 -4.64 -5.0455 -4.898 -5.887001 -5.769001 -3.949 -5.4635 -5.791 -4.902 -5.887001 -8.0065 -3.8935 
-6.763 -5.649 -5.285 -8.474001 -6.671 -8.196 -8.490001 -8.9685 -6.9665 -9.5255 -9.102 -8.0065 
-7.76 -5.6955 -8.767 -9.044001 -9.1 -12.8282 -12.2288 -10.287 -12.015 -12.9705 -9.102 
-7.895 -9.302001 -9.158 -11.6996 -13.8916 -16.567 -13.5473 -15.4021 -15.46 -12.9705 
-2.3615 -2.186 -3.43 -2.925 -1.7565 -4.4925 -1.756 -2.3615 -2.186 -1.4985 -4.399 -1.7565 -4.6625 0 
-3.5005 -4.64 -5.0455 -4.898 -5.6425 -5.555501 -4.4615 -3.5005 -3.339 -5.3005 -4.831 -5.887001 -4.6625 
-6.763 -5.649 -5.285 -8.4405 -6.577 -8.522 -5.0895 -4.3105 -6.798 -5.514501 -9.6745 -5.887001 
-7.76 -5.6955 -9.489 -9.203501 -9.992001 -9.313001 -5.87 -7.771 -6.869 -9.8585 -9.6745 
-7.895 -9.906001 -10.1435 -12.7823 -10.7625 -10.177 -8.9965 -7.8215 -11.4016 -9.8585 
-2.3615 -2.186 -3.43 -1.7565 -4.4925 -1.756 -3.074 -3.5185 -5.189 
-3.5005 -4.64 -4.9095 -5.6425 -5.555501 -4.566 -6.0145 -9.744 
-6.763 -5.662001 -8.7845 -6.577 -8.448501 -7.601 -12.4812 
-8.2065 -9.597 -9.476001 -9.878 -11.5825 -14.2463 
-12.2381 -10.245 -12.889 -13.012 -18.2278 
-3.1495 -3.737 -1.7565 -4.6625 0 
-8.2985 -5.3145 -5.887001 -4.6625 
-9.658501 -9.980501 -5.887001 
-14.3595 -9.980501 
-14.3595 
