-4.759 
n/a 
n/a 
n/a 
n/a 
-4.759 
n/a 
n/a 
n/a 
n/a 
-4.759 
n/a 
n/a 
n/a 
n/a 
-4.759 
n/a 
n/a 
n/a 
n/a 
-2.5045 -3.6845 -1.4985 -3.9305 -3.401 -3.098 -2.0935 -3.8085 -3.2945 -2.186 -4.6015 -1.7695 -3.898 0 
-7.032001 -4.8155 -5.672501 -6.6385 -6.9215 -4.8475 -6.040501 -5.104 -5.353 -5.0305 -6.6625 -6.028501 -3.898 
-8.233001 -8.703501 -8.009001 -10.0575 -8.591001 -7.722 -8.323501 -7.0975 -8.356001 -7.0385 -11.7165 -6.028501 
-12.2098 -11.631 -11.9214 -12.1302 -11.6877 -9.408501 -10.7022 -10.5635 -9.772 -12.3347 -11.7165 
-15.1373 -15.5434 -13.9941 -15.2269 -13.3742 -11.9078 -14.1682 -12.3829 -15.1942 -12.3347 
-1.4985 -3.898 -1.7565 -2.3615 -2.742 -2.489 -4.4465 -2.7835 -1.4985 -3.2895 -1.7565 -1.4985 -3.845 -2.186 -3.2955 -3.098 -2.3345 -1.4985 -3.469 -3.1385 0 
-5.0465 -4.9795 -3.523 -4.486 -3.301 -5.4345 -6.6735 -3.7575 -4.862 -4.9075 -2.4195 -6.353001 -5.915 -4.348001 -5.404 -5.214 -3.233 -6.354 -8.2465 -3.1385 
-5.3325 -7.0155 -6.554501 -5.1425 -6.2145 -7.0455 -7.328 -7.547 -5.246 -5.587 -6.797501 -7.795501 -8.463501 -5.9165 -6.6105 -5.896 -8.502501 -10.1185 -8.2465 
-7.2705 -10.5918 -6.943501 -8.8655 -7.718 -7.7145 -11.3479 -8.1035 -5.761 -11.1364 -8.9355 -10.5132 -10.2368 -7.181 -7.1995 -11.4481 -12.661 -10.1185 
-10.9022 -10.9808 -10.4175 -10.66 -8.5625 -11.8218 -11.9044 -8.727 -11.664 -13.2744 -11.7412 -12.2865 -11.5013 -8.033 -13.311 -15.6066 -12.661 
-4.1685 -1.4985 -3.2895 -1.7695 -4.6045 -1.4985 -2.915 -2.0935 -1.4985 -3.664 -3.098 -2.742 -3.074 -5.755 -1.4985 -3.3825 0 
-5.337501 -4.862 -4.985001 -5.082 -5.713 -4.1675 -4.462 -2.9725 -5.285501 -5.969501 -5.9465 -4.5095 -7.817 -6.446 -4.4135 -3.3825 
-8.934001 -5.677 -8.231501 -6.065001 -7.092 -6.1595 -5.405 -6.608 -8.272501 -9.5235 -8.856501 -8.879001 -8.3685 -7.773 -4.4135 
-9.213501 -9.0085 -8.867001 -7.4785 -8.656501 -6.785501 -8.368501 -9.8485 -12.2889 -12.6649 -13.4778 -9.467 -9.4455 -7.773 
-12.7266 -9.5305 -10.8029 -9.024501 -9.065001 -9.7965 -12.0522 -13.9485 -15.4303 -17.2862 -14.0658 -10.5145 -9.4455 
-4.5095 -3.2895 -3.2645 -2.489 -3.7855 -3.098 -1.7695 -3.8085 -3.664 -2.742 -3.4985 -1.4985 -3.898 0 
-7.8205 -6.692 -3.7195 -4.789001 -6.5205 -4.6695 -6.068501 -5.2435 -5.646 -6.5085 -4.9685 -5.0465 -3.898 
-12.0386 -6.93 -5.6945 -7.1355 -7.2795 -7.175 -6.4545 -7.6875 -9.693001 -6.9835 -7.55 -5.0465 
-12.2766 -8.855 -8.012 -7.844 -10.064 -7.536 -9.964001 -12.6053 -10.1835 -9.6215 -7.55 
-14.2016 -11.2983 -8.650001 -10.403 -10.425 -11.8357 -14.896 -13.0958 -12.8215 -9.6215 
