-4.759 
n/a 
n/a 
n/a 
n/a 
-4.759 
n/a 
n/a 
n/a 
n/a 
-4.759 
n/a 
n/a 
n/a 
n/a 
-4.759 
n/a 
n/a 
n/a 
n/a 
-3.768 -3.8565 -3.974 0 -4.4915 -4.2605 -2.7765 -4.2065 -1.4985 -3.6605 -4.326 -3.8935 -2.3345 -2.1715 0 0 -1.934 -4.4915 -4.1445 -3.543 -3.6605 -4.5625 -3.543 -3.6765 -2.742 -4.2065 -1.7695 -2.9965 0 0 -2.3615 -3.522 -4.958 -1.756 -4.374 -2.4945 -4.302 -2.3345 -3.3715 -5.384 -2.872 -3.5725 -2.925 -4.4635 -1.7695 -4.707 -4.029 -1.7565 -5.2005 -3.8565 -4.7905 -1.934 -5.022 -4.378 0 -2.871 -2.7765 -4.5645 -1.4985 -3.9515 -1.7565 -3.8565 -4.3725 0 
-7.4685 -7.0425 -3.974 -4.4915 -7.670501 -6.6 -5.613501 -4.732 -4.6365 -8.193501 -6.580501 -5.927 -5.145 -2.1715 0 -1.934 -5.994 -6.801001 -8.13 -8.444 -7.462501 -6.5805 -5.0485 -5.9375 -5.714 -6.4705 -4.8865 -2.9965 0 -2.3615 -4.1595 -9.759001 -5.9805 -5.311 -6.104 -5.8815 -5.01 -5.279 -6.9195 -7.8715 -5.087501 -6.486 -6.3405 -4.8765 -6.632 -8.689 -5.1 -6.209001 -8.468 -8.751501 -6.3545 -6.5295 -8.4925 -4.378 -2.871 -4.952 -6.247001 -5.594501 -4.8235 -4.4625 -5.0215 -5.5645 -4.3725 
-9.89 -7.0425 -8.766001 -7.670501 -9.826501 -9.691501 -6.0645 -7.8145 -9.309501 -10.8498 -8.581501 -8.321501 -5.145 -2.1715 -1.934 -5.994 -9.357 -11.7503 -13.2884 -12.5422 -9.790501 -7.9205 -7.552501 -9.838 -7.8405 -9.1195 -4.8865 -2.9965 -2.3615 -4.1595 -10.411 -10.763 -9.537001 -6.664 -8.108001 -6.537 -8.356501 -8.249001 -9.5935 -10.281 -7.17 -9.915501 -6.685 -10.9982 -10.9344 -9.683001 -8.015501 -9.4175 -13.945 -10.007 -11.4786 -9.8315 -8.4925 -7.4245 -4.952 -7.3205 -7.302501 -9.297001 -4.896 -7.4075 -7.159 -5.5645 
-9.89 -12.3727 -12.325 -9.826501 -13.1216 -10.018 -9.619 -13.2139 -12.1778 -12.8508 -10.66 -8.321501 -5.145 -4.673 -5.994 -9.357 -14.3827 -16.9087 -17.3866 -14.8702 -10.5565 -10.096 -10.6875 -11.9801 -9.940001 -9.1195 -4.8865 -6.078501 -4.1595 -10.411 -11.415 -14.3195 -11.1244 -10.259 -9.816 -9.834001 -11.7139 -10.0745 -12.015 -12.3635 -10.7491 -10.4805 -12.9617 -15.3006 -11.9284 -12.8853 -11.3368 -15.0163 -15.2005 -15.2355 -14.7806 -9.8315 -11.829 -8.758 -7.3205 -8.5225 -11.1504 -9.496 -7.696001 -9.1335 -7.159 
-15.2842 -15.9317 -14.481 -13.1216 -13.4481 -13.6889 -15.2066 -16.0822 -14.1788 -14.9293 -10.66 -8.321501 -7.482 -9.3015 -9.357 -14.3827 -19.5411 -21.0069 -19.7146 -15.6362 -13.1156 -13.231 -12.8296 -14.0796 -9.940001 -9.1195 -7.8945 -8.389001 -10.411 -11.415 -14.9715 -15.9069 -14.7194 -10.656 -13.1412 -13.4324 -13.5394 -12.496 -14.0975 -15.9426 -11.3141 -16.7572 -17.2641 -16.2946 -15.1307 -16.2066 -16.9356 -16.2718 -20.429 -18.5375 -14.7806 -13.3132 -13.1625 -10.7495 -8.5225 -12.4202 -11.3494 -12.5344 -9.511001 -9.1335 
-4.426 -1.7565 -1.4985 -3.0835 -4.7285 -4.1555 -7.0815 -1.7695 -1.4985 -4.4785 -2.3345 -1.4985 -4.373 -1.7565 -3.9285 -1.756 -4.2675 -4.1645 0 -1.4985 -4.1865 -4.042 -2.8645 -3.8085 -1.8085 -2.9965 0 -1.4985 -3.898 -2.186 -4.564 -2.3345 -4.935 -3.6615 -1.7565 -1.4985 -4.194 -4.1395 -2.264 -1.4985 -3.251 -1.7565 -3.5435 -1.756 -4.022 -4.452 0 
-5.47 -2.4195 -3.535 -6.042 -8.4455 -9.771501 -7.154 -2.7955 -5.854 -6.453501 -3.233 -5.0385 -4.726 -5.668 -5.4255 -6.2955 -7.041 -4.1645 -1.4985 -5.177 -6.824 -6.0515 -6.311 -6.375501 -5.1835 -2.9965 -1.4985 -5.0465 -5.717 -5.8865 -5.2325 -7.413 -7.285501 -4.719501 -2.4195 -5.586 -6.2625 -6.64 -2.9195 -4.617001 -4.97 -4.913 -4.862 -5.371 -6.052501 -4.452 
-5.9535 -4.6785 -6.335501 -9.523001 -13.931 -10.164 -7.6585 -7.39 -8.106001 -7.3275 -6.021 -5.1985 -8.047 -6.7355 -8.312 -7.9255 -7.041 -5.954 -5.177 -7.1005 -8.229 -9.303 -7.3535 -9.225 -5.1835 -5.3215 -5.0465 -7.129 -7.8865 -6.066 -8.508 -9.425501 -8.295 -5.2545 -6.513 -6.549 -8.7585 -7.095 -5.2705 -5.087 -8.76 -5.9635 -7.9575 -7.2925 -6.052501 
-8.021 -7.476501 -10.0095 -15.093 -13.938 -10.648 -11.2205 -9.22 -8.842001 -9.359 -6.0945 -8.641001 -8.1895 -8.366501 -8.3245 -7.9255 -8.401001 -10.078 -7.1005 -8.353001 -10.5635 -9.830501 -10.2275 -9.225 -8.137501 -9.001 -7.129 -9.083 -7.976 -9.837501 -10.1725 -10.4125 -8.5895 -8.6215 -7.546 -9.082001 -9.097 -9.275001 -5.618001 -8.910001 -10.348 -8.7605 -9.396001 -7.2925 
-9.983001 -11.3061 -15.6895 -15.1 -14.5035 -14.4192 -12.7472 -9.66 -10.75 -9.396501 -9.432 -8.804001 -8.389 -8.373 -8.3245 -9.259001 -12.588 -12.0015 -8.353001 -10.659 -11.091 -12.8539 -10.2275 -12.4044 -11.8784 -10.6605 -9.083 -9.1825 -11.8787 -11.6016 -10.7255 -10.946 -10.7175 -8.9265 -9.7635 -9.437501 -11.4846 -9.304501 -9.015501 -10.5325 -13.145 -10.7495 -9.396001 
-1.4985 -3.535 -3.5535 -2.0935 -5.7525 -3.739 -4.113 -3.6615 -2.4945 -4.841 -4.008 -3.402 -2.264 -4.033 -4.385 -3.5005 -4.708 -4.6315 0 -5.9325 -1.756 -6.043 -4.0415 -4.013 -2.925 -4.467 -1.7695 -3.5795 -2.5045 -3.3715 -4.2645 -2.5045 -3.768 0 -6.744 -1.7565 -1.4985 -4.244 -4.113 -3.2 -2.4945 -5.311 -3.433 -1.7565 -1.4985 -4.852 -1.7565 -3.333 -3.5965 -3.519 -1.756 -4.7095 -1.934 -3.914 -1.7565 -1.4985 -4.113 -3.2 -2.5685 -4.127 -4.113 -4.008 -2.4945 -1.934 -3.909 -5.051 -1.7565 -4.008 -2.0935 -3.6065 -3.9035 -1.7565 -1.4985 -3.995 
-4.255 -7.2755 -4.823 -7.0375 -7.622 -6.662 -6.06 -5.3425 -7.6055 -6.3605 -6.626501 -3.793 -6.158 -7.1035 -7.183001 -7.981 -6.13 -4.6315 -5.9325 -6.872 -7.2675 -6.754 -8.034 -5.552 -6.421 -4.6455 -4.6205 -6.2955 -4.771 -7.0255 -6.275001 -4.523 -3.768 -6.744 -7.725 -2.4195 -4.685 -8.186501 -6.5165 -5.729 -6.630001 -7.644001 -4.1845 -2.4195 -5.925 -6.1305 -5.4355 -7.2725 -6.5955 -4.9065 -5.6235 -6.002 -6 -4.677 -2.4195 -5.425 -6.5165 -6.0005 -6.4375 -7.946501 -6.521001 -5.548501 -4.2645 -4.3925 -9.4705 -5.5865 -5.918 -5.394501 -5.2485 -5.818501 -4.616 -2.4195 -4.712 
-7.595 -8.119 -9.366501 -8.449 -9.0825 -8.1025 -7.982 -10.597 -8.7225 -8.518 -6.6625 -7.184 -8.6385 -9.658 -10.434 -9.197001 -6.13 -8.1525 -6.872 -9.814 -7.889501 -10.223 -9.615001 -9.5105 -6.454 -7.601 -6.8505 -7.193501 -8.528501 -8.634001 -8.486 -4.523 -8.9925 -7.725 -8.123 -5.739501 -8.6315 -9.701501 -8.516001 -9.3765 -8.662001 -8.279 -4.6515 -6.918001 -6.428 -8.4585 -8.654 -9.165501 -8.006001 -8.307 -6.839 -9 -7.299 -5.1875 -6.318501 -6.7945 -9.6005 -9.679501 -10.3225 -9.1575 -7.750001 -7.4905 -5.957 -9.666 -9.666 -8.7045 -7.112 -7.848501 -7.387501 -5.8745 -4.895 -5.2205 
-8.387001 -10.543 -10.224 -9.6885 -10.01 -9.5115 -10.634 -10.653 -10.143 -8.546 -9.273001 -8.8325 -10.5135 -10.545 -10.546 -9.197001 -8.919001 -8.8675 -9.814 -9.967001 -10.5035 -10.583 -10.577 -9.5415 -9.683001 -9.252501 -7.5145 -10.5035 -8.693501 -9.033001 -8.486 -10.361 -9.629001 -8.123 -9.878501 -9.506001 -9.722501 -10.525 -10.533 -10.523 -9.154 -8.557501 -8.1075 -7.760001 -8.526001 -10.396 -9.9425 -10.0475 -10.553 -10.0815 -9.906 -9.904 -7.884 -8.813001 -7.2805 -9.719501 -10.5055 -10.5055 -10.4295 -10.219 -9.3745 -8.955501 -9.935 -9.699 -10.625 -10.051 -9.2335 -9.691501 -7.421 -6.0165 -7.265 
-10.5425 -10.5705 -10.4355 -10.312 -10.5585 -10.6355 -10.655 -10.674 -10.1705 -10.27 -10.0165 -10.5325 -10.5595 -10.562 -10.546 -10.544 -9.184501 -10.575 -9.967001 -10.6675 -10.5905 -10.6015 -10.5955 -10.556 -10.535 -9.469501 -10.5225 -10.5195 -9.034 -9.033001 -10.564 -10.5645 -9.901501 -9.878501 -10.568 -10.1735 -10.525 -10.5615 -10.56 -10.5395 -9.3745 -10.5225 -8.528 -10.389 -10.3955 -10.5655 -10.4715 -10.559 -10.5705 -10.559 -10.3325 -10.172 -10.4425 -9.2685 -9.98 -10.506 -10.5215 -10.5215 -10.6455 -10.595 -9.914001 -10.622 -9.944 -10.6255 -10.6455 -10.6035 -10.5865 -9.719001 -7.566 -8.4565 
-3.8565 -3.8035 -1.7695 -2.489 -6.8135 -2.5685 -3.326 
-6.3995 -5.74 -3.1405 -10.368 -10.151 -6.259 
-8.491501 -6.792 -11.2225 -13.7055 -13.8415 
-9.5515 -15.7224 -14.56 -17.396 
-18.5079 -19.0599 -18.2505 
