-4.759 
n/a 
n/a 
n/a 
n/a 
-4.759 
n/a 
n/a 
n/a 
n/a 
-4.759 
n/a 
n/a 
n/a 
n/a 
-4.759 
n/a 
n/a 
n/a 
n/a 
-4.176 -2.186 -4.353 -1.7695 -1.4985 -3.8675 0 
-6.9315 -7.184 -4.7685 -2.7955 -4.976 -3.8675 
-12.2121 -8.1365 -8.186001 -6.1105 -4.976 
-13.1646 -11.9564 -11.7568 -6.1105 
-16.9845 -15.5272 -11.7568 
-3.433 -1.7565 -2.3615 -4.044 0 -3.982 -4.452 -3.1435 -4.1425 
-4.1845 -3.523 -5.501 -4.044 -3.982 -8.874001 -6.341 -7.829 
-5.5485 -6.06 -5.501 -9.179501 -8.874001 -11.2114 -10.564 
-9.2925 -6.06 -11.4931 -14.1835 -11.2114 -15.4344 
-9.2925 -12.5563 -16.4971 -16.5209 -15.4344 
-3.851 -2.3615 -3.8675 -3.982 -3.966 -3.1435 -4.1545 0 
-6.7775 -4.79 -8.881001 -8.073 -6.0375 -7.667001 -4.1545 
-9.5495 -10.328 -13.206 -9.382 -9.438 -7.667001 
-15.6957 -14.653 -14.515 -12.8887 -9.438 
-20.0207 -15.962 -18.0217 -12.8887 
-3.851 -1.7695 -2.3615 -4.92 -3.982 -3.251 -3.966 -3.1435 -3.6045 0 
-4.0015 -3.736 -6.566501 -8.774 -7.002 -5.8865 -6.0375 -6.2975 -3.6045 
-6.14 -7.606 -10.2755 -10.368 -8.912001 -7.227 -9.413 -6.2975 
-10.476 -11.6044 -11.8695 -12.5922 -10.4345 -10.6875 -9.413 
-14.4744 -13.1984 -14.0937 -14.1147 -13.895 -10.6875 
