-4.759 
n/a 
n/a 
n/a 
n/a 
-4.759 
n/a 
n/a 
n/a 
n/a 
-4.759 
n/a 
n/a 
n/a 
n/a 
-4.759 
n/a 
n/a 
n/a 
n/a 
-7.058001 -17.977 -10.8075 0 -10.914 -4.1465 0 
-25.7658 -29.1931 -10.8075 -10.914 -15.0605 -4.1465 
-36.9819 -29.1931 -21.7215 -15.0605 -15.0605 
-36.9819 -40.1071 -25.868 -15.0605 
-47.8959 -44.2536 -25.868 
-2.341 -21.83972 0 -10.914 -4.1465 0 
-24.94112 -22.33972 -10.914 -15.0605 -4.1465 
-24.94112 -33.25372 -15.0605 -15.0605 
-35.85512 -37.40022 -15.0605 
-40.00162 -37.40022 
-24.33944 0 -10.9655 -9.562 0 
-24.33944 -10.9655 -20.5275 -9.562 
-35.30494 -20.5275 -20.5275 
-44.86694 -20.5275 
-44.86694 
-9.67 
n/a 
n/a 
n/a 
n/a 
