-4.759 
n/a 
n/a 
n/a 
n/a 
-4.759 
n/a 
n/a 
n/a 
n/a 
-4.759 
n/a 
n/a 
n/a 
n/a 
-4.759 
n/a 
n/a 
n/a 
n/a 
-9.315001 -4.677 -4.3365 -9.079 -9.178 -4.8485 -12.16972 -3.0465 -4.4785 
-14.1932 -8.634501 -14.4175 -18.4282 -14.2275 -18.02562 -15.21622 -5.5975 
-18.1507 -19.2065 -23.7667 -23.4777 -27.40462 -21.07212 -17.76722 
-28.7227 -28.5557 -28.8162 -36.65482 -30.45112 -23.62312 
-38.0719 -33.6052 -41.99332 -39.70132 -33.00212 
-3.115 -2.3335 0 -2.664 -4.5585 -6.022 -1.934 -1.8085 -4.677 -1.934 -7.299 -2.8645 -3.1125 -4.4785 -2.9705 -2.8645 -3.1125 -3.7555 -2.5195 -1.8085 -5.0235 -2.5195 -3.859 -9.079 0 
-4.7415 -2.3335 -2.664 -5.806 -11.08 -8.3605 -3.2685 -6.3175 -6.2735 -8.654501 -9.507 -3.5345 -6.085 -7.8 -4.6335 -3.5345 -7.7375 -6.037 -3.8815 -6.695001 -6.965501 -5.8975 -14.2008 -9.079 
-4.7415 -4.869 -5.806 -13.0321 -13.4185 -9.6245 -7.507501 -7.457 -9.818501 -11.1177 -10.8882 -6.855 -9.59 -9.5445 -5.245501 -8.5065 -9.2325 -7.3385 -8.8995 -8.5865 -10.9249 -17.5375 -14.2008 
-8.015501 -7.894 -13.0321 -15.3706 -14.6825 -13.8635 -8.483001 -11.2516 -12.2893 -12.4989 -14.2087 -10.9974 -11.4039 -10.105 -9.903001 -9.606501 -10.5045 -12.6595 -10.959 -12.5387 -22.5649 -17.5375 
-10.381 -15.6913 -15.3706 -16.6346 -18.9215 -14.839 -12.4014 -13.7224 -13.6705 -15.8194 -18.3511 -12.8113 -11.9644 -14.9725 -11.04 -11.0895 -15.8255 -14.719 -14.9112 -24.1787 -22.5649 
-2.3335 -3.074 -9.353001 -3.8145 -1.8085 -4.677 -4.1645 -12.16972 -3.859 -1.7565 -9.079 0 
-5.496 -13.4274 -13.5881 -6.3245 -6.3175 -8.592 -17.50782 -16.02872 -5.23 -11.7847 -9.079 
-16.3762 -17.6625 -16.0981 -11.3041 -10.8823 -22.16272 -21.36682 -17.39972 -16.2864 -11.7847 
-20.6113 -20.1725 -21.0777 -15.8689 -24.45302 -26.02172 -22.73782 -28.45612 -16.2864 
-23.1213 -25.1521 -25.6425 -29.43962 -28.31202 -27.39272 -33.79422 -28.45612 
-1.934 -7.299 -4.677 -2.229 -3.859 -8.866501 -5.715 -3.837 -4.4785 -4.042 -3.0695 -2.186 -2.5195 -4.2635 -5.2325 0 
-8.654501 -9.6945 -6.725 -5.6585 -13.9883 -15.4915 -9.065001 -8.9645 -7.887001 -5.634501 -4.2675 -4.863 -6.942 -11.117 -5.2325 
-11.3052 -11.7823 -9.838 -16.3182 -20.6133 -18.8415 -14.5213 -12.788 -9.626 -6.737 -6.9665 -9.889501 -14.6331 -11.117 
-13.393 -14.8953 -20.4977 -22.9432 -23.9633 -24.2978 -18.3448 -14.527 -10.7355 -9.451 -12.421 -17.662 -14.6331 
-16.506 -25.555 -27.1227 -26.2932 -29.4196 -28.1213 -20.0838 -15.6365 -13.4495 -15.0175 -20.1935 -17.662 
