-4.759 
n/a 
n/a 
n/a 
n/a 
-4.759 
n/a 
n/a 
n/a 
n/a 
-4.759 
n/a 
n/a 
n/a 
n/a 
-4.759 
n/a 
n/a 
n/a 
n/a 
-3.9985 0 -7.601 -8.4475 0 -2.701 0 
-3.9985 -7.601 -9.494 -8.4475 -2.701 -2.701 
-10.688 -9.494 -9.494 -11.6043 -2.701 
-12.581 -9.494 -12.6952 -11.6043 
-12.581 -12.6952 -12.6952 
-3.9985 0 -12.16972 -8.4475 
-3.9985 -12.16972 -20.61722 
-16.61782 -20.61722 
-25.06532 
n/a 
-3.9985 0 -7.601 -8.4475 0 -2.701 0 
-3.9985 -7.601 -9.494 -8.4475 -2.701 -2.701 
-10.688 -9.494 -9.494 -11.6043 -2.701 
-12.581 -9.494 -12.6952 -11.6043 
-12.581 -12.6952 -12.6952 
-11.5995 -8.4475 0 -2.701 0 
-12.581 -8.4475 -2.701 -2.701 
-12.581 -11.6043 -2.701 
-15.7822 -11.6043 
-15.7822 
