-4.759 
n/a 
n/a 
n/a 
n/a 
-4.759 
n/a 
n/a 
n/a 
n/a 
-4.759 
n/a 
n/a 
n/a 
n/a 
-4.759 
n/a 
n/a 
n/a 
n/a 
-7.037 -4.121 -3.6885 
-11.9466 -7.4265 
-15.2521 
n/a 
n/a 
-4.348 -3.4075 -3.6885 -2.186 -7.1525 0 
-7.188 -6.5955 -5.4995 -10.214 -7.1525 
-11.3512 -8.1315 -14.1281 -10.214 
-12.8872 -17.0897 -14.1281 
-21.8454 -17.0897 
-7.1525 -2.186 -4.348 -3.4075 -3.6885 
-9.4055 -7.3455 -7.188 -6.5955 
-14.715 -10.8733 -11.3512 
-18.2428 -15.0365 
-22.406 
-7.1525 -2.186 -1.4985 -3.4075 -3.6885 -1.7565 -4.348 
-9.4055 -3.339 -4.118 -6.5955 -5.258 -5.8355 
-10.4775 -6.16 -7.131001 -7.73 -9.384001 
-13.2985 -8.028 -7.846001 -9.942501 
-15.1665 -8.530001 -9.974501 
