-4.759 
n/a 
n/a 
n/a 
n/a 
-4.759 
n/a 
n/a 
n/a 
n/a 
-4.759 
n/a 
n/a 
n/a 
n/a 
-4.759 
n/a 
n/a 
n/a 
n/a 
-6.649 -12.16972 -3.2785 -9.292001 0 -5.8865 0 
-19.20412 -15.44822 -10.7835 -9.292001 -5.8865 -5.8865 
-22.48262 -22.95322 -10.7835 -15.2529 -5.8865 
-29.98762 -22.95322 -16.7444 -15.2529 
-29.98762 -28.91412 -16.7444 
-5.163 -7.9285 -9.1945 0 -5.1645 0 
-8.755 -11.08 -9.1945 -5.1645 -5.1645 
-13.0491 -11.08 -14.5352 -5.1645 
-13.0491 -16.4207 -14.5352 
-18.3898 -16.4207 
-5.5765 -9.227 -9.1945 0 -5.1645 0 
-15.3143 -18.9875 -9.1945 -5.1645 -5.1645 
-25.0748 -18.9875 -14.5352 -5.1645 
-25.0748 -24.3282 -14.5352 
-30.4155 -24.3282 
-6.709 -9.227 -9.069 0 -5.1645 0 
-16.2642 -18.862 -9.069 -5.1645 -5.1645 
-25.8992 -18.862 -14.4291 -5.1645 
-25.8992 -24.2221 -14.4291 
-31.2593 -24.2221 
