-4.759 
n/a 
n/a 
n/a 
n/a 
-4.759 
n/a 
n/a 
n/a 
n/a 
-4.759 
n/a 
n/a 
n/a 
n/a 
-4.759 
n/a 
n/a 
n/a 
n/a 
-3.6705 0 -1.8085 -4.341 -5.0185 -1.7565 -1.4985 -4.466 -3.999 -4.406 -2.8645 -4.1535 -8.2775 -2.229 -3.5015 -4.466 -4.091 -4.4325 -4.2005 -4.2375 -3.251 -3.788 -4.938 -5.5515 -6.386 0 
-3.6705 -1.8085 -5.406 -6.54 -7.1695 -2.4195 -5.259501 -6.5625 -8.075001 -7.6965 -5.806 -13.5352 -10.504 -5.486 -8.6085 -5.1065 -8.055 -8.577001 -8.3605 -6.955 -5.3545 -7.239 -11.8153 -12.8471 -6.386 
-5.3795 -5.406 -7.073 -8.181 -7.633501 -6.2365 -7.768001 -9.315001 -11.7017 -10.8256 -16.0435 -15.7617 -13.761 -10.4945 -9.566501 -8.6845 -12.4339 -13.0052 -11.3188 -9.014501 -8.0245 -14.3205 -19.1109 -12.8471 
-9.0935 -7.073 -8.593 -8.5325 -12.0461 -8.703501 -10.2865 -12.9361 -14.8308 -21.0631 -18.27 -19.0187 -18.7695 -11.4525 -13.3417 -13.6184 -16.8621 -15.9635 -13.3783 -11.7521 -15.2836 -21.6161 -19.1109 
-10.368 -8.593 -9.023001 -13.2719 -14.5131 -11.3822 -13.9076 -16.0652 -25.0683 -23.2896 -21.527 -24.0272 -19.7275 -15.2277 -18.2756 -18.0466 -19.8204 -18.023 -16.1159 -19.0112 -22.5792 -21.6161 
-1.4985 -4.4145 -3.355 0 -3.5455 -4.1755 0 -2.9705 -2.186 -1.934 -4.1755 -3.8375 0 -2.186 -4.1205 -2.5045 -1.8085 -3.8145 -1.7565 -1.4985 -3.4225 -4.0965 
-4.8425 -6.948501 -3.355 -3.5455 -7.245 -4.1755 -2.9705 -3.89 -4.0835 -5.365 -7.267501 -3.8375 -2.186 -5.007 -5.3175 -3.3625 -5.7235 -4.711 -2.4195 -3.9655 -4.2 
-7.119 -6.948501 -8.258 -7.245 -7.245 -7.052001 -3.89 -5.7145 -7.722 -9.894001 -7.267501 -5.9065 -5.007 -6.317 -5.9545 -7.161 -7.138 -6.507 -4.6245 -5.179 
-7.119 -12.3309 -12.2359 -7.245 -10.66 -7.8195 -5.7145 -10.0095 -13.0088 -9.894001 -10.7009 -8.464001 -6.317 -6.883 -10.1145 -8.771501 -8.159 -8.0135 -6.037 
-12.815 -16.3088 -12.2359 -10.66 -11.4275 -9.703001 -10.0095 -15.4747 -13.0088 -13.4198 -13.2584 -9.708 -6.883 -11.1396 -11.725 -9.844001 -9.6365 -9.758 
-4.4145 -3.355 -1.7565 -10.8475 -3.8375 -2.871 -1.7565 -1.4985 -3.468 0 
-6.948501 -3.725 -13.5532 -14.685 -7.0755 -3.5385 -2.4195 -5.0815 -3.468 
-7.2155 -16.2361 -17.3907 -17.923 -7.4425 -3.7675 -5.881001 -5.0815 
-20.2614 -20.0736 -20.6287 -18.29 -7.604 -7.154 -5.881001 
-24.0989 -23.3116 -20.9957 -18.4515 -10.6735 -7.154 
-1.4985 -4.4145 -3.355 0 -1.4985 -3.502 -4.1755 -1.934 -1.4985 -4.1755 -3.59 -2.186 -2.4945 -1.4985 -3.355 -1.7565 -1.4985 -3.4225 -4.0965 0 
-4.8425 -6.948501 -3.355 -1.4985 -4.5955 -7.7285 -6.2205 -2.6125 -7.012 -7.596001 -5.4475 -6.0485 -3.9315 -4.951 -3.725 -2.4195 -3.9655 -4.2 -4.0965 
-7.119 -6.948501 -5.598001 -4.5955 -9.846001 -10.403 -6.911 -8.0595 -10.0035 -10.3497 -9.2915 -7.1075 -7.709001 -5.194 -4.0515 -4.6245 -5.179 -4.2 
-7.119 -8.800501 -9.177501 -9.846001 -12.6055 -11.0935 -12.9808 -11.3522 -12.7572 -14.1937 -10.758 -10.733 -7.8595 -5.483 -6.6305 -6.037 -5.179 
-9.0345 -12.4944 -14.5014 -12.6055 -13.296 -17.1633 -16.2735 -14.1059 -16.6012 -15.6602 -14.3835 -10.8835 -8.153001 -7.5465 -7.198 -6.037 
