-4.759 
n/a 
n/a 
n/a 
n/a 
-4.759 
n/a 
n/a 
n/a 
n/a 
-4.759 
n/a 
n/a 
n/a 
n/a 
-4.759 
n/a 
n/a 
n/a 
n/a 
-3.0365 -2.4945 -3.3715 -4.641 -2.9705 -3.7445 -2.3345 -1.4985 -4.1405 -1.7565 -1.4985 -3.5435 0 
-3.688 -4.846 -6.873 -7.113 -6.6285 -5.208 -3.233 -5.4895 -5.7315 -2.4195 -4.2755 -3.5435 
-4.8765 -8.71 -9.318501 -9.959001 -9.227501 -5.9095 -7.33 -6.38 -6.4915 -5.3025 -4.2755 
-8.7305 -10.0285 -12.1965 -12.558 -10.079 -10.6095 -8.851501 -7.0045 -9.232 -5.3025 
-10.047 -12.9903 -14.7955 -13.4095 -14.779 -12.131 -9.493 -9.76 -9.232 
-2.356 -2.3615 0 -3.0365 -2.4945 -3.3715 -3.5435 -5.368 -3.672 -3.35 
-4.2185 -2.3615 -3.0365 -3.688 -4.846 -6.789001 -7.851001 -8.7305 -6.8055 
-4.2185 -5.891 -3.688 -4.8765 -8.4565 -10.533 -9.511001 -12.4114 
-7.3475 -6.443501 -4.8765 -8.479501 -12.2579 -12.193 -13.3687 
-7.9525 -7.5735 -8.479501 -12.2963 -13.9179 -16.0507 
-3.5435 -3.762 -2.356 -4.7555 -3.3715 -3.672 -3.35 0 
-7.2145 -6.621 -8.493501 -8.528001 -6.710001 -6.8055 -3.35 
-10.543 -13.4521 -12.4438 -12.1025 -10.411 -6.8055 
-17.3741 -17.4024 -16.0183 -15.8035 -10.411 
-21.3244 -20.9769 -19.7193 -15.8035 
-3.074 -3.0365 -2.4945 -3.3715 -4.641 -2.3335 -3.213 -1.934 -6.0655 -5.272 
-5.832 -3.688 -4.846 -6.873 -6.632 -5.2935 -4.4465 -8.092501 -9.359501 
-6.449 -4.8765 -8.71 -8.7375 -9.196501 -6.231 -10.1185 -11.5941 
-7.558001 -8.7305 -9.47 -11.4046 -10.2 -12.473 -13.6201 
-11.4174 -9.4755 -12.3807 -12.4081 -16.442 -15.9746 
