-4.759 
n/a 
n/a 
n/a 
n/a 
-4.759 
n/a 
n/a 
n/a 
n/a 
-4.759 
n/a 
n/a 
n/a 
n/a 
-4.759 
n/a 
n/a 
n/a 
n/a 
-1.4985 -4.953 -1.756 -6.9735 -2.4945 -3.8825 -1.7695 -4.065 -3.6085 0 
-6.1265 -5.9905 -8.5325 -8.381001 -5.5245 -4.5575 -6.2135 -6.4865 -3.6085 
-7.297 -13.8622 -9.7755 -10.494 -5.799 -8.705 -8.5495 -6.4865 
-15.3521 -15.1052 -12.0747 -10.7685 -10.0405 -9.8625 -8.5495 
-16.5951 -17.4044 -12.3492 -15.01 -11.198 -9.8625 
-4.953 -1.756 -1.4985 -4.0245 -4.7695 -4.5185 -2.356 -1.4985 -4.559 -3.6085 0 
-5.9905 -3.0405 -5.1005 -9.0825 -9.8205 -6.578501 -3.1615 -7.208 -7.646 -3.6085 
-7.5485 -6.852 -10.6735 -14.4773 -11.9643 -7.182001 -9.014501 -10.9754 -7.646 
-11.7318 -12.7004 -16.0683 -16.6211 -12.5678 -13.3394 -12.8883 -10.9754 
-17.5802 -18.0952 -18.2121 -17.2246 -18.7252 -17.2132 -12.8883 
-4.953 -1.756 -7.535501 -1.7565 -3.9355 -1.756 -6.895 -3.9355 -2.4945 -3.486 -2.356 -4.065 -3.6085 
-5.9905 -8.8055 -9.699 -5.442 -5.2215 -8.573 -10.3675 -5.6745 -6.8595 -5.7605 -6.432 -6.4865 
-14.1352 -10.5435 -13.4353 -6.4345 -13.0565 -12.2749 -12.4871 -9.901 -8.532001 -9.4545 -8.919001 
-15.8732 -14.2798 -14.4278 -14.5477 -16.7584 -14.3945 -16.7136 -11.6441 -12.4754 -12.2849 
-19.6095 -15.2723 -22.541 -18.2496 -18.878 -18.621 -18.4567 -15.5875 -15.3058 
-4.245 0 -5.4525 -2.4945 -3.486 -2.5045 -4.559 
-4.245 -5.4525 -8.0965 -6.8595 -4.737 -6.876 
-8.5415 -8.0965 -12.7671 -7.507 -9.3135 
-11.9937 -12.7671 -13.4146 -12.2871 
-16.6643 -13.4146 -18.1947 
