-4.759 
n/a 
n/a 
n/a 
n/a 
-4.759 
n/a 
n/a 
n/a 
n/a 
-4.759 
n/a 
n/a 
n/a 
n/a 
-4.759 
n/a 
n/a 
n/a 
n/a 
-1.934 -4.913 -3.3855 -2.8645 -4.8855 -1.756 -1.934 -4.8955 -4.3195 -4.455 
-6.1735 -7.8035 -4.690001 -8.4645 -7.1085 -4.0205 -6.124 -8.804001 -7.7915 
-8.079 -9.5255 -9.910501 -10.733 -9.1315 -8.0635 -9.059 -12.6322 
-9.8255 -14.8178 -12.3146 -12.756 -13.3119 -9.599001 -13.0634 
-15.1632 -17.2219 -14.3376 -16.9364 -14.8474 -13.5722 
-1.934 -4.913 -2.9805 -4.0555 -1.7695 -3.519 0 -1.934 -4.8955 -2.9805 -5.671 
-6.1735 -7.2255 -5.4095 -4.7475 -5.3875 -3.519 -1.934 -6.124 -7.222 -8.342001 
-7.441 -9.68 -5.921 -6.5975 -5.3875 -5.3055 -6.124 -7.4445 -13.2211 
-9.786 -9.83 -7.808001 -6.5975 -6.6375 -9.222501 -7.4445 -13.5034 
-9.918 -11.6878 -7.808001 -7.0425 -9.612 -10.7495 -13.5034 
-2.9805 -4.0555 -2.5045 -4.8955 0 -5.1605 -1.934 -4.8955 
-5.4095 -6.253 -8.4215 -4.8955 -5.1605 -6.4305 -6.124 
-7.758 -13.0264 -8.4215 -10.4765 -6.4305 -10.674 
-14.811 -13.0264 -14.5155 -11.7465 -10.674 
-14.811 -19.1204 -15.7855 -15.99 
-3.3855 -3.429 -4.3395 -4.913 -1.756 -3.429 -5.433 -2.5045 -4.8955 
-7.08 -8.304 -10.564 -6.7335 -4.86 -7.64 -7.2945 -8.398001 
-12.3454 -15.0335 -12.3845 -10.688 -9.404 -8.8655 -13.6828 
-19.0749 -16.854 -16.339 -15.232 -10.469 -15.4418 
-20.8954 -20.8085 -20.883 -16.297 -17.4079 
