-4.759 
n/a 
n/a 
n/a 
n/a 
-4.759 
n/a 
n/a 
n/a 
n/a 
-4.759 
n/a 
n/a 
n/a 
n/a 
-4.759 
n/a 
n/a 
n/a 
n/a 
-9.929001 -2.7415 -3.918 -1.934 -5.1365 -2.356 -12.576 
-13.2989 -6.377501 -6.013 -6.3835 -7.909 -13.68 
-16.9349 -7.4425 -9.945001 -8.261001 -19.8358 
-17.9999 -11.6735 -11.9131 -20.313 
-22.2309 -13.6416 -23.9651 
-1.934 -5.1365 -9.110001 -2.186 -3.4905 -3.325 -1.4985 -4.091 -3.866 0 
-6.3835 -11.5065 -9.314001 -5.330501 -7.052 -3.898 -5.183001 -7.985001 -3.866 
-10.1375 -12.0265 -12.6106 -8.099001 -7.6245 -7.487 -8.686501 -7.985001 
-12.6357 -15.8424 -15.4217 -8.4045 -10.7575 -11.4729 -8.686501 
-16.281 -18.6109 -15.7272 -11.8975 -14.7434 -11.4729 
-1.934 -5.1365 -4.489 -3.918 -2.356 -4.621 
-6.3835 -9.238501 -8.525001 -6.205501 -7.552501 
-9.691 -13.6329 -10.3965 -10.5635 
-14.3802 -15.5044 -14.7545 
-16.2517 -19.8624 
-1.934 -5.1365 0 -2.4265 -2.7415 -5.247 -5.018 -2.356 -9.110001 
-6.3835 -5.1365 -2.4265 -3.681 -6.485001 -8.462501 -5.953 -9.595501 
-6.3835 -7.79 -3.681 -7.6435 -9.472501 -9.038501 -11.7245 
-8.0675 -8.202001 -7.6435 -10.4025 -9.884001 -14.9998 
-8.418 -12.4367 -10.4025 -11.1816 -15.8853 
