-4.759 
n/a 
n/a 
n/a 
n/a 
-4.759 
n/a 
n/a 
n/a 
n/a 
-4.759 
n/a 
n/a 
n/a 
n/a 
-4.759 
n/a 
n/a 
n/a 
n/a 
-1.7695 -3.9105 -1.4985 -4.7875 -4.1 0 -3.3715 -3.535 -3.959 -7.72 -3.519 -1.8085 -2.688 -3.5435 -1.7565 -7.7545 -5.6655 0 
-4.925 -5.282001 -5.610001 -7.609 -4.1 -3.3715 -6.0235 -7.038 -12.8256 -10.7495 -5.0845 -3.642 -5.966001 -4.9885 -8.559 -9.6385 -5.6655 
-5.793 -9.9505 -8.802 -7.609 -7.705501 -6.0235 -8.535501 -16.2996 -15.8551 -12.315 -6.5835 -6.602 -7.404 -13.151 -10.647 -9.6385 
-10.9685 -13.1425 -8.802 -10.434 -10.248 -8.535501 -17.9761 -19.3291 -17.4206 -13.814 -7.739 -8.55 -15.9573 -15.239 -10.647 
-14.1605 -13.1425 -11.8116 -12.9765 -12.76 -17.9761 -21.0056 -20.8946 -18.9196 -14.9695 -9.7985 -17.5079 -18.0453 -15.239 
-1.934 -2.664 -3.685 -1.7565 -5.78 0 -5.6655 -1.7565 -3.3715 -4.449 -5.709 -4.0555 -3.894 -1.756 -5.2725 -1.4985 -6.47 -3.6885 -4.6825 -1.7565 -7.6 0 
-4.0475 -5.171 -4.5825 -6.778 -5.78 -5.6655 -6.4855 -4.845 -6.6625 -8.767 -9.268001 -6.0535 -5.115 -6.772 -6.1685 -7.665 -9.486 -8.355 -6.0605 -8.364 -7.6 
-6.8665 -5.6865 -8.2395 -6.778 -12.4619 -6.4855 -9.413 -7.7885 -9.896501 -12.5312 -10.661 -7.172 -9.6085 -7.4085 -12.9028 -10.5745 -14.2769 -9.781 -9.906 -8.364 
-7.028501 -8.5575 -8.2395 -13.6685 -13.2819 -9.413 -12.6101 -11.1431 -13.7235 -13.9242 -11.7795 -12.2719 -9.982501 -14.2834 -15.8123 -15.3654 -15.7029 -13.5961 -9.906 
-9.642501 -8.5575 -15.3608 -14.4885 -16.2094 -12.6101 -15.9647 -14.9701 -15.1165 -15.0427 -16.8794 -12.6459 -16.8574 -17.1929 -20.6032 -16.7914 -19.518 -13.5961 
-1.4985 -3.17 -1.7565 -3.9725 -2.229 -4.267 -3.894 -1.7695 -3.8275 -2.356 -4.9115 0 
-3.7115 -4.179 -5.669 -5.125 -6.412 -8.138 -5.0415 -5.686 -5.674 -6.779 -4.9115 
-5.2885 -8.874001 -6.6355 -10.254 -10.7852 -9.222 -9.567 -6.7175 -7.8395 -6.779 
-10.199 -9.201 -12.2885 -14.6272 -11.8692 -14.1109 -11.0535 -10.044 -7.8395 
-10.8802 -15.0504 -16.6617 -15.7112 -16.7581 -15.5974 -14.38 -10.044 
-1.7695 -5.14 -2.264 -4.7875 -4.0415 -4.5115 -3.849 -3.535 -4.0965 -2.229 -3.4225 -1.756 -4.09 -3.4155 -7.7545 -4.0965 0 
-7.188001 -6.4065 -6.776 -8.177501 -7.5345 -8.149501 -6.4265 -8.105 -6.387001 -6.214 -6.3065 -5.5625 -7.9865 -10.419 -9.578 -4.0965 
-9.030001 -10.66 -10.7578 -12.5119 -11.6075 -10.8868 -11.3529 -10.396 -10.1225 -8.622001 -9.925 -9.174001 -15.3426 -12.5237 -9.578 
-13.3651 -15.285 -15.0922 -16.5849 -14.3448 -15.8132 -13.6439 -14.1315 -12.7629 -12.6765 -13.5365 -16.6123 -17.4473 -12.5237 
-17.9901 -19.6194 -19.1652 -19.3222 -19.2712 -18.1042 -17.3794 -16.7719 -16.8174 -16.288 -20.9748 -18.717 -17.4473 
