-4.759 
n/a 
n/a 
n/a 
n/a 
-4.759 
n/a 
n/a 
n/a 
n/a 
-4.759 
n/a 
n/a 
n/a 
n/a 
-4.759 
n/a 
n/a 
n/a 
n/a 
-4.628 -5.939 -3.5435 0 -6.4195 0 -6.144 -4.241 -3.8675 0 -3.522 
-5.9615 -7.053 -3.5435 -6.4195 -6.4195 -6.144 -8.905001 -6.448501 -3.8675 -3.522 
-7.0565 -7.053 -9.984 -6.4195 -9.790501 -8.905001 -11.9879 -6.448501 -7.842 
-7.0565 -14.1361 -9.984 -9.790501 -12.7867 -11.9879 -11.9879 -10.9652 
-14.1418 -14.1361 -13.4976 -12.7867 -15.8696 -11.9879 -16.5046 
-6.899 -3.5435 -5.3745 -4.891 -1.7565 -5.1845 -6.844 -3.8275 -4.461 -3.8675 -3.522 
-8.7615 -9.3575 -7.061501 -6.8725 -6.580501 -6.9655 -8.3745 -7.3595 -9.2925 -7.842 
-14.7625 -9.658 -7.1715 -7.181 -7.1625 -10.1385 -12.4887 -12.395 -13.9478 
-15.063 -9.6975 -7.185 -7.202001 -10.7595 -14.2527 -17.5242 -17.0503 
-15.1025 -9.7025 -7.2055 -10.7595 -14.8737 -19.2882 -22.1795 
-3.522 0 -11.0235 -6.0655 -1.756 -8.3915 -9.145 -4.222 -1.8085 -4.3705 -6.1495 -3.8675 
-3.522 -11.0235 -17.089 -7.0605 -10.181 -9.421 -13.9272 -5.479 -5.301 -8.203 -7.3085 
-15.0943 -17.089 -18.084 -16.4429 -11.3701 -14.5094 -15.1842 -9.0015 -8.409 -9.613501 
-21.1598 -18.084 -27.4664 -17.632 -16.4585 -15.7664 -18.7067 -10.0255 -9.903 
-22.1548 -27.4664 -28.6555 -22.7204 -17.7155 -19.2889 -19.7307 -10.334 

n/a 
n/a 
n/a 
n/a 
