-4.759 
n/a 
n/a 
n/a 
n/a 
-4.759 
n/a 
n/a 
n/a 
n/a 
-4.759 
n/a 
n/a 
n/a 
n/a 
-4.759 
n/a 
n/a 
n/a 
n/a 
-3.995 -3.784 -4.2485 -2.742 -4.2615 -2.5045 -6.9845 0 -2.5195 -2.3335 -3.8405 -1.7695 -3.291 -3.7825 -5.8465 -3.277 -3.995 -2.742 -2.489 -1.8085 -4.59 -3.5015 -2.0935 -3.8245 -5.164 0 
-8.8295 -6.329 -6.838 -5.956 -6.8265 -8.4125 -6.9845 -2.5195 -4.9535 -5.7085 -5.658 -5.402 -7.445001 -7.395 -9.6905 -7.896501 -6.501 -3.301 -3.799 -5.45 -7.1005 -4.7905 -5.878 -6.658 -5.164 
-9.906 -8.561001 -8.591001 -8.357 -13.3277 -8.4125 -10.0285 -4.9535 -7.211 -7.461501 -9.6675 -10.298 -11.7779 -11.4516 -14.4446 -9.696 -7.0695 -4.7705 -7.026 -7.2995 -7.6625 -8.312 -8.501 -6.658 
-12.138 -10.427 -11.4602 -15.3676 -13.3277 -11.7183 -12.4625 -7.211 -8.476 -11.7732 -14.6203 -14.6309 -15.8345 -16.2057 -16.2441 -10.179 -8.533501 -8.417 -8.8345 -7.825 -10.543 -11.2164 -8.501 
-14.004 -13.2962 -18.4708 -15.3676 -16.6335 -14.1523 -14.72 -8.476 -13.3865 -16.726 -18.9532 -18.6875 -20.5886 -18.0052 -16.7271 -11.643 -12.3962 -10.185 -9.1695 -10.6335 -13.4474 -11.2164 
-1.4985 -4.2485 -1.7565 -1.4985 -3.995 -2.742 -4.7075 -1.7695 -3.7925 -4.082 -6.651 -1.756 -2.4265 -2.186 -4.1315 -2.3335 -2.5195 -2.3335 -3.8405 -1.934 -1.4985 -3.291 -3.7825 -3.748 -3.277 -3.995 -4.522 
-5.307 -5.5065 -2.4195 -4.712 -6.501 -6.24 -6.788001 -5.5045 -7.099 -7.652 -7.7875 -3.949 -3.292 -4.8355 -5.608 -5.569 -4.9535 -5.7085 -5.3015 -2.6125 -3.9665 -7.445001 -5.872001 -5.8405 -7.896501 -8.377501 
-5.982501 -5.9265 -5.2205 -6.863 -10.3745 -7.7535 -9.500501 -8.045 -9.5205 -8.9405 -9.6 -4.7355 -5.7215 -5.8455 -8.374001 -7.556 -7.211 -7.169001 -6.1425 -4.871 -7.719001 -8.618501 -7.585501 -9.213501 -12.8896 
-6.1565 -7.552001 -7.468501 -10.6215 -11.888 -10.3215 -12.123 -10.176 -10.9182 -10.8212 -10.036 -6.9175 -5.8485 -9.0605 -10.259 -9.910001 -8.6905 -7.960501 -8.607 -8.7075 -8.744501 -10.1555 -10.6215 -14.6552 
-7.903 -9.345 -11.5072 -12.135 -14.456 -12.944 -14.254 -11.5737 -12.7989 -11.2572 -12.44 -7.1245 -9.061501 -11.1701 -13.0728 -11.4311 -9.408501 -10.4105 -12.6367 -10.3554 -10.167 -13.1915 -16.5576 
-2.645 -3.2295 -1.934 -3.995 -4.144 -4.2485 -2.186 -3.7925 -4.082 -2.802 -1.934 -3.7375 -6.318501 -2.356 -2.3615 -4.2485 -1.4985 -3.8245 -3.618 -1.934 -4.5405 -2.742 -2.489 -3.301 -4.732 -3.7825 -3.748 -3.277 0 
-6.2145 -5.5925 -6.139 -9.360001 -6.4025 -5.843 -6.479501 -7.099 -5.884501 -5.277 -6.299 -7.521 -8.5255 -4.2185 -6.834001 -6.0865 -5.1915 -6.0345 -5.285501 -7.8215 -7.991 -3.301 -5.2005 -7.4145 -8.938001 -5.872001 -5.8405 -3.277 
-8.528501 -10.4035 -12.3912 -11.7969 -8.2025 -8.429501 -9.581 -7.5295 -7.331501 -10.264 -10.2865 -9.838 -9.983001 -8.982 -7.956 -10.451 -6.852 -7.0385 -11.8182 -11.7542 -8.335501 -6.2585 -9.087 -12.3237 -11.1003 -7.585501 -5.8405 
-13.6579 -16.6557 -14.8281 -13.5969 -11.0898 -10.2035 -10.0175 -9.072001 -13.1205 -14.039 -12.359 -10.688 -14.7968 -10.3045 -12.3865 -12.1115 -7.9485 -13.9584 -15.7509 -12.0987 -11.7792 -9.873501 -14.195 -14.486 -12.8138 -7.585501 
-19.9101 -19.0926 -16.6281 -16.4842 -12.8638 -10.475 -11.7626 -14.904 -16.8955 -16.3808 -14.0142 -16.2213 -16.2069 -14.735 -14.047 -13.208 -15.067 -17.8911 -16.0954 -15.5424 -15.3942 -15.0119 -16.3573 -16.1995 -12.8138 
-3.074 -1.4985 -3.784 -4.2485 -1.7565 -1.4985 -3.995 -3.1425 -4.2615 -4.6945 -6.9845 -2.4265 -2.186 -4.1315 -2.3335 0 -2.5195 -2.3335 -3.8405 0 -2.0935 -1.4985 -3.291 -3.7825 -3.748 -3.277 -1.4985 -3.995 -3.1425 -2.489 -1.4985 -4.59 -3.5015 -2.0935 -3.8245 0 
-4.6505 -4.6165 -6.329 -5.5065 -2.4195 -4.712 -6.5265 -6.5925 -7.494501 -9.627501 -9.578001 -3.292 -4.8355 -5.608 -2.3335 -2.5195 -4.9535 -5.7085 -3.8405 -2.0935 -2.9725 -3.9665 -7.445001 -5.872001 -5.8405 -4.839 -4.712 -6.5265 -3.7875 -3.9675 -6.7325 -7.1005 -4.7905 -5.878 -3.8245 
-7.837 -6.886 -7.0885 -5.9265 -5.2205 -7.263 -9.989 -9.075 -12.5235 -11.8465 -10.37 -5.7215 -5.8455 -5.608 -5.569 -4.9535 -7.211 -5.7085 -5.434 -2.9725 -4.972 -7.719001 -8.618501 -7.585501 -7.409 -8.0045 -7.263 -7.3905 -5.153 -8.633 -8.8055 -7.6625 -8.312 -5.878 
-10.1385 -7.55 -7.621 -7.552001 -7.914001 -10.292 -12.5761 -15.0621 -15.5677 -12.7141 -12.7995 -5.8485 -5.8455 -8.374001 -7.556 -7.211 -7.211 -7.7345 -6.1805 -4.972 -8.3415 -8.744501 -10.1555 -9.149501 -8.962001 -9.8695 -7.770501 -8.820001 -9.504001 -10.2035 -9.275001 -10.543 -8.312 
-10.8025 -7.7045 -8.229 -9.091001 -11.085 -12.8791 -18.605 -17.8255 -16.3597 -15.1436 -12.9265 -5.8485 -9.0605 -10.259 -9.910001 -7.211 -9.4205 -8.3795 -8.421 -8.3415 -9.367001 -10.167 -11.7195 -10.2385 -10.6335 -10.507 -9.3885 -13.3292 -11.0745 -10.5825 -12.3979 -10.543 
