-4.759 
n/a 
n/a 
n/a 
n/a 
-4.759 
n/a 
n/a 
n/a 
n/a 
-4.759 
n/a 
n/a 
n/a 
n/a 
-4.759 
n/a 
n/a 
n/a 
n/a 
-2.688 -5.6525 -4.2485 -3.564 -1.756 -5.4075 -3.9515 -1.7695 -3.355 -1.7565 -3.1385 -5.044 -1.7565 -3.922 -1.7695 -4.2065 -1.934 -4.569 -1.7695 -4.2285 -4.2485 -1.7565 -3.8085 -1.7695 -6.1895 -1.7695 -3.469 -3.3435 -2.95 -1.7695 -4.7095 -1.7565 -3.188 -4.0005 -1.7695 -4.2485 -1.7565 -4.9595 -1.7695 -3.815 0 
-8.437 -9.195001 -9.51 -4.925 -6.1405 -8.4755 -5.9375 -5.72 -3.725 -4.388 -9.5315 -6.294 -6.2555 -5.883 -4.563 -7.022 -5.777 -6.274 -6.152501 -8.548 -5.5065 -5.900001 -5.568501 -8.9495 -7.896501 -5.617 -5.883 -5.892 -4.11 -6.726501 -5.4925 -5.13 -4.969501 -6.5015 -6.549 -5.5065 -6.5635 -6.986501 -5.9835 -3.815 
-12.5241 -14.7719 -10.7585 -7.572001 -9.22 -10.76 -10.238 -6.822001 -7.239501 -11.3426 -10.8419 -11.7208 -8.297 -8.725 -7.597001 -11.5378 -7.075 -11.6914 -11.026 -10.688 -10.7126 -9.470501 -13.9057 -10.8507 -12.2286 -7.8815 -8.0885 -7.7355 -10.1578 -7.4905 -9.795501 -6.884501 -7.3915 -11.754 -8.498 -11.3761 -8.542001 -11.8109 -5.9835 
-18.101 -16.0204 -13.4055 -9.7845 -11.7439 -15.0605 -10.412 -10.6867 -14.5313 -12.653 -16.2687 -13.7623 -11.3708 -12.0126 -12.3776 -12.8358 -12.8566 -16.5649 -13.166 -15.8941 -14.2831 -18.0197 -15.8069 -15.1828 -14.4931 -10.3742 -10.2325 -13.9723 -10.9218 -12.0475 -11.711 -10.702 -12.996 -13.703 -14.3608 -13.3546 -13.611 -11.8109 
-19.3495 -18.6674 -15.618 -12.3038 -16.0444 -15.2345 -14.6993 -17.9785 -15.8417 -18.0798 -18.3102 -16.8361 -14.6584 -16.7932 -13.6756 -18.6174 -17.7301 -18.7049 -18.3721 -19.4646 -22.8323 -19.9209 -20.139 -17.4473 -16.9858 -12.5182 -16.4693 -14.7363 -15.4788 -13.963 -15.5285 -16.3065 -14.945 -19.5658 -16.3393 -18.4236 -13.611 
-1.4985 -5.6525 -3.644 -1.4985 -3.995 -3.784 -4.237 -2.742 -2.489 -3.922 -5.3105 0 -1.756 -1.4985 -4.1115 -3.4715 -5.698 -7.448 -3.0415 -2.4265 -2.7765 -3.2345 -3.383 -4.7905 -1.934 -3.873 -3.7575 0 
-6.111 -8.068501 -4.97 -4.712 -8.8295 -7.665 -6.9695 -3.301 -7.828501 -9.205001 -5.3105 -1.756 -3.0405 -4.843 -6.271 -7.933001 -14.325 -9.935501 -4.551 -4.346 -4.7005 -6.666 -8.418 -6.3545 -5.96 -7.6635 -3.7575 
-8.4595 -9.361501 -8.1625 -9.601501 -12.9863 -11.3015 -7.607 -8.477 -13.3043 -9.205001 -6.9095 -3.0405 -6.255 -7.386001 -11.1793 -17.0358 -16.8125 -11.5008 -5.824 -6.3695 -7.907501 -12.4104 -10.3545 -10.9091 -9.7565 -7.6635 
-9.464001 -10.719 -13.7492 -13.7727 -16.6228 -11.939 -13.1978 -14.0038 -13.3043 -10.524 -8.443001 -6.255 -8.860001 -12.5463 -20.2821 -19.5233 -18.3778 -12.7738 -8.040501 -9.476501 -13.7895 -14.3469 -14.9091 -14.7056 -9.7565 
-10.8325 -16.3057 -17.9204 -17.4092 -17.2603 -17.5298 -18.7246 -14.0038 -14.6233 -12.0575 -11.8289 -8.860001 -14.1121 -21.6491 -22.7696 -21.0886 -19.6508 -14.9903 -11.3369 -15.3969 -15.726 -18.9015 -18.7056 -14.7056 
-3.868 -1.7565 -1.4985 -6.761 -2.229 -4.4145 -3.326 -3.277 -2.4265 -3.644 -2.3335 -1.4985 -4.8935 -1.7565 -4.7 -5.807 0 -5.1445 0 -1.934 -4.4935 -2.8645 -4.157 -2.9705 -5.8475 -2.356 -4.507 -1.934 -4.7 -4.1115 -4.1455 -4.8285 -1.756 -2.674 -4.4465 -4.232 -3.8195 -3.5065 -1.4985 -5.18 0 -1.4985 -3.5455 -4.4935 -1.4985 -4.3645 -3.127 -2.8645 -3.557 -1.4985 -4.7295 -1.756 -1.4985 -3.469 -2.95 -4.7295 -2.4945 -4.924 -3.0365 -2.186 -2.847 -3.908 -4.3505 -1.934 -1.4985 -5.494 -1.7565 -1.4985 -5.1445 -4.413 -2.3345 -2.3615 -3.6605 -4.7425 0 -2.5045 -4.099 0 
-4.7665 -2.4195 -7.4175 -8.948 -5.9795 -8.385 -5.493 -5.307 -5.2615 -4.989501 -3.3515 -5.717501 -5.6105 -5.911 -6.5375 -5.807 -5.1445 -5.1445 -1.934 -6.17 -7.484 -5.4365 -7.533 -7.446 -6.3655 -6.782001 -5.251 -6.251 -7.571501 -6.219501 -6.2795 -5.9385 -4.3315 -6.2925 -9.266001 -7 -6.9655 -4.358 -5.509 -5.18 -1.4985 -4.554 -5.777 -6.6505 -5.8055 -6.0635 -5.885 -5.5535 -4.757 -6.0375 -5.967 -3.0405 -4.636 -4.7535 -7.1735 -6.041 -6.7035 -7.4525 -3.66 -4.1045 -6.0105 -7.2475 -5.959 -2.6125 -6.7445 -7.027501 -2.4195 -6.5365 -8.716001 -4.6955 -4.499 -6.321 -4.8735 -4.7425 -2.5045 -5.6225 -4.099 
-5.209 -8.002501 -9.139 -10.4515 -9.920501 -9.896001 -8.553 -8.163 -6.271 -5.794001 -7.3505 -5.923501 -8.300501 -7.416 -6.5375 -8.109 -5.1445 -6.9325 -6.17 -10.476 -9.6555 -8.4505 -12.4707 -7.789001 -9.370001 -6.908 -9.1175 -8.816501 -8.210501 -6.9995 -7.681 -8.5585 -8.5355 -10.2085 -10.362 -10.019 -7.6245 -6.551001 -5.509 -6.3425 -4.554 -6.112 -7.5325 -10.6735 -7.561501 -8.665 -8.741501 -6.682 -9.658 -7.331 -7.136001 -6.206 -6.606 -9.514501 -8.4175 -9.615001 -9.1175 -8.035001 -4.256001 -6.62 -7.8245 -8.3785 -6.5145 -8.523001 -7.272 -7.282001 -7.544001 -9.368 -9.780001 -6.7245 -8.373501 -7.5225 -4.8735 -6.974 -5.6225 -5.6225 
-10.543 -10.085 -10.575 -15.4469 -11.3983 -12.956 -11.99 -8.824501 -7.005 -10.0095 -7.523 -8.73 -8.491 -7.416 -8.423 -8.109 -6.9325 -9.754001 -10.476 -12.6475 -12.8773 -13.6244 -12.8137 -10.485 -9.39 -10.264 -10.1465 -8.9195 -8.524501 -7.989 -10.6875 -13.0017 -12.4343 -11.4443 -13.381 -10.3465 -9.1645 -6.551001 -6.607 -9.380501 -6.112 -7.6635 -11.8649 -12.4295 -9.605 -10.7335 -10.19 -11.6992 -11.1053 -8.0895 -10.115 -8.166 -11.6306 -10.8079 -12.2137 -12.4604 -9.693501 -8.84 -6.626 -8.416 -8.829 -8.757001 -12.6154 -8.946 -7.420001 -13.0983 -10.5935 -10.4858 -12.3224 -9.978001 -9.9455 -7.5225 -7.061501 -9.799001 -5.6225 
-12.6255 -11.521 -15.886 -16.9247 -14.4583 -16.393 -12.6515 -9.541 -11.3631 -10.19 -10.2175 -8.899001 -8.491 -9.509501 -8.423 -10.085 -9.754001 -14.1438 -12.6475 -15.8693 -18.0512 -13.9674 -15.5097 -10.528 -12.7928 -10.494 -10.179 -9.5305 -9.706501 -11.2017 -15.1307 -16.9005 -13.6701 -14.4633 -13.7085 -10.614 -9.1645 -7.504001 -9.632 -11.0841 -7.6635 -12.1169 -13.6209 -14.473 -11.7291 -12.182 -15.2072 -13.1465 -11.8638 -11.2221 -12.405 -13.4284 -12.924 -14.6041 -15.0591 -13.0364 -10.4705 -10.3755 -8.4175 -9.219001 -9.1745 -14.9485 -13.0384 -9.309501 -13.5153 -16.1478 -11.7113 -13.0282 -15.5759 -11.6678 -9.9455 -10.085 -9.854 -9.799001 
-2.688 -5.6525 -4.4485 -3.815 -3.519 -5.0655 -1.7565 -6.0515 -9.851501 -2.4265 -3.2345 -3.6615 
-8.437 -8.121 -8.943501 -5.89 -8.971001 -5.119 -8.0835 -16.7376 -12.5984 -5.719501 -5.5705 
-11.4501 -14.2476 -11.3637 -12.0138 -9.062 -12.0692 -19.1478 -19.4845 -15.8914 -7.6085 
-17.5767 -16.6678 -17.4875 -12.1048 -16.2128 -23.1335 -21.8947 -22.7775 -17.7804 
-19.9969 -22.7916 -17.5785 -19.2556 -27.2771 -25.8804 -25.1877 -24.6665 
