-4.759 
n/a 
n/a 
n/a 
n/a 
-4.759 
n/a 
n/a 
n/a 
n/a 
-4.759 
n/a 
n/a 
n/a 
n/a 
-4.759 
n/a 
n/a 
n/a 
n/a 
-3.2615 -3.8735 -3.7555 -8.595 0 -1.4985 -3.59 -2.7415 -4.09 -1.934 -3.0435 
-7.178 -8.014501 -13.6167 -8.595 -1.4985 -4.268 -6.039001 -5.289001 -5.2875 -4.8565 
-9.6955 -18.0801 -13.6167 -10.674 -4.268 -6.347 -9.182501 -6.215 -9.203501 
-20.1495 -18.0801 -15.6957 -13.4435 -6.347 -9.4945 -10.075 -10.5624 
-20.1495 -20.1591 -18.4652 -15.5225 -9.4945 -10.544 -14.4734 
-8.27 -3.5005 -7.378 -5.7565 -1.7695 -2.8965 -3.982 -3.959 -2.5045 -3.8435 -4.2695 -3.098 -3.2615 -3.8735 -1.756 -6.6585 -3.7555 -4.712 -1.934 -4.748 0 
-12.1973 -10.6345 -13.6053 -6.202 -4.497 -6.0595 -5.6075 -5.9545 -6.4195 -6.456 -7.360001 -5.4695 -7.178 -5.3865 -8.602501 -9.6805 -8.482 -6.144001 -6.061 -4.748 
-19.3313 -16.8618 -14.0508 -8.082001 -7.342501 -6.455 -7.391 -10.1425 -8.443001 -9.995001 -9.863501 -9.3975 -8.481 -9.2065 -11.8395 -9.7305 -9.1905 -9.669001 -6.061 
-25.5586 -17.3073 -15.9308 -10.4855 -7.7025 -8.187 -11.9374 -12.3732 -12.238 -12.4985 -13.9433 -10.4865 -12.8524 -12.4643 -11.8895 -9.733 -12.9875 -9.669001 
-26.0041 -19.1873 -18.3343 -10.6755 -9.368001 -12.881 -14.1681 -16.1682 -14.7415 -16.5783 -15.0323 -14.8579 -16.1102 -12.5143 -11.892 -15.3858 -12.9875 
-2.4265 -2.186 -3.5065 -5.369 0 -3.2615 -3.8735 -1.756 -4.628 -4.743 -4.3195 -4.015 0 -2.3335 -6.4735 -4.331 -4.1655 -1.7695 -3.982 -4.39 -3.5005 -7.378 -2.5045 -4.569 -4.2695 
-3.292 -6.595 -8.2535 -5.369 -3.2615 -7.178 -5.3865 -6.51 -4.7515 -8.8605 -7.0655 -4.015 -2.3335 -8.534 -9.7005 -7.1755 -5.249 -6.080501 -6.553 -6.910001 -10.6345 -9.785 -6.976501 -8.994501 
-7.322501 -11.558 -8.2535 -7.870501 -7.178 -8.481 -7.3155 -6.654 -8.871 -9.8385 -7.0655 -7.3855 -8.534 -12.1062 -12.6458 -8.316 -9.609 -8.684501 -8.494 -14.896 -13.0415 -14.4738 -11.779 
-12.6093 -11.558 -10.9252 -12.1912 -8.481 -10.1545 -7.32 -10.028 -9.842001 -9.8385 -9.6905 -13.93 -12.1062 -15.0515 -13.7863 -12.8502 -12.3298 -10.8293 -17.0848 -17.303 -17.7303 -19.2763 
-12.6093 -14.2297 -15.2459 -13.4942 -10.1545 -10.1615 -10.3745 -11.1292 -9.842001 -12.6421 -16.239 -17.5022 -15.0515 -16.192 -18.3205 -15.571 -14.4746 -19.4201 -19.4918 -21.9918 -22.5328 
-3.2615 -4.748 -3.098 -3.034 -3.8735 -1.756 -6.6585 -3.7555 -4.248 -5.1845 -3.0435 -5.27 -4.4995 -1.7695 -12.16972 -1.756 -2.8965 -3.875 -4.167 0 
-7.467 -8.284 -5.1815 -7.377001 -5.3865 -8.602501 -9.6805 -8.1975 -10.004 -9.05 -8.7305 -10.3225 -5.863501 -14.92142 -13.92572 -3.751 -6.58 -7.9145 -4.167 
-10.111 -10.7879 -9.535001 -8.4715 -9.2065 -11.8395 -15.0859 -14.2767 -14.0585 -15.1696 -14.1082 -11.9445 -19.41222 -16.67742 -15.92072 -8.7705 -10.647 -7.9145 
-12.7457 -15.1414 -10.5655 -13.0319 -12.4643 -17.2449 -21.1651 -18.3312 -20.1781 -20.5473 -15.7302 -25.49322 -21.16822 -18.67242 -20.94022 -12.7589 -10.647 
-17.0992 -16.1719 -15.1903 -16.2897 -17.8697 -23.3241 -25.2196 -24.4508 -25.5558 -22.1693 -29.27892 -27.24922 -23.16322 -23.69192 -24.92862 -12.7589 
