-4.759 
n/a 
n/a 
n/a 
n/a 
-4.759 
n/a 
n/a 
n/a 
n/a 
-4.759 
n/a 
n/a 
n/a 
n/a 
-4.759 
n/a 
n/a 
n/a 
n/a 
-3.074 -9.758 -1.7695 -6.9965 -7.4885 -7.4885 -4.4035 -2.925 
-13.8324 -11.6353 -9.125 -15.5264 -9.995501 -12.5192 -5.495 
-15.7097 -18.9908 -17.5919 -18.0334 -15.2776 -13.6107 
-23.0652 -27.4577 -20.0989 -23.3155 -16.3691 
-31.5321 -29.9647 -25.381 -24.407 
-2.9805 -5.2725 -9.758 -1.934 -3.8275 -1.756 -4.157 -3.091 -4.6825 -3.787 0 
-6.9505 -15.7821 -11.7998 -5.911 -5.1855 -5.4425 -6.9245 -7.055 -9.188001 -3.787 
-17.7091 -17.8239 -15.7768 -6.844 -8.899 -7.937 -10.76 -12.1097 -9.188001 
-19.7509 -21.8009 -16.7098 -11.0477 -11.5965 -11.9627 -15.8147 -12.1097 
-23.7279 -22.7339 -20.9135 -13.7452 -15.6222 -17.0174 -15.8147 
-3.074 -5.2725 -9.758 -1.756 -4.38 -3.091 -4.6555 
-7.678 -15.7821 -10.674 -5.4025 -6.977 -6.7045 
-18.2948 -16.6981 -14.3205 -7.9965 -11.1985 
-19.2108 -20.3446 -16.9145 -12.4128 
-22.8573 -22.9386 -21.3308 
-2.9805 -5.0595 -10.5565 0 -3.9725 0 -1.756 -4.157 -3.091 -3.519 
-8.609501 -16.5502 -10.5565 -3.9725 -3.9725 -1.756 -5.4425 -6.9245 -6.0275 
-20.2756 -16.5502 -14.652 -3.9725 -5.5515 -5.4425 -7.937 -8.901 
-20.2756 -20.6457 -14.652 -5.5515 -10.3165 -7.937 -10.0605 
-24.3711 -20.6457 -16.231 -10.3165 -12.811 -10.0605 
