-4.759 
n/a 
n/a 
n/a 
n/a 
-4.759 
n/a 
n/a 
n/a 
n/a 
-4.759 
n/a 
n/a 
n/a 
n/a 
-4.759 
n/a 
n/a 
n/a 
n/a 
-2.998 -4.4345 -3.999 -3.1575 -3.1385 -5.6025 -3.8245 -1.934 -3.959 0 
-7.325 -8.5525 -5.164 -6.245 -8.932501 -7.936001 -4.7245 -5.7255 -3.959 
-12.119 -8.853001 -8.773001 -12.7266 -11.6008 -8.238001 -7.8635 -5.7255 
-12.4195 -12.6364 -15.615 -15.3949 -11.9028 -11.893 -7.8635 
-16.2029 -19.4784 -18.2833 -15.6969 -15.5578 -11.893 
-3.6845 -2.998 0 -1.7565 -5.6025 -3.511 -1.934 -1.4985 -5.0575 0 
-6.9055 -2.998 -1.7565 -6.755001 -8.2325 -4.582 -2.6125 -5.9575 -5.0575 
-6.9055 -5.2585 -6.755001 -8.812501 -8.586 -5.3785 -6.6905 -5.9575 
-8.6745 -9.686001 -8.812501 -8.995501 -9.5465 -8.5825 -6.6905 
-13.5334 -10.35 -8.995501 -10.1075 -12.8709 -8.5825 
-2.998 -4.4345 -3.689 -3.1575 -5.6025 -3.098 -3.511 -1.934 -5.0575 0 
-7.325 -7.842501 -4.168 -8.654501 -8.5135 -6.49 -4.582 -6.7185 -5.0575 
-11.409 -7.888 -10.249 -11.6919 -12.2365 -7.7165 -8.078 -6.7185 
-11.4545 -14.6118 -13.2864 -15.4149 -13.463 -11.4769 -8.078 
-18.1783 -17.6492 -17.0094 -16.6414 -17.2234 -11.4769 
-3.689 -3.1575 -2.998 0 -1.7565 -3.1385 -3.098 -2.4945 -3.8245 -1.934 -3.8955 0 
-4.168 -5.509501 -2.998 -1.7565 -4.388 -6.344 -5.8985 -5.751 -4.7245 -5.2425 -3.8955 
-6.078 -5.509501 -5.2585 -4.388 -7.738 -9.354501 -9.564501 -6.158 -8.066501 -5.2425 
-6.078 -6.683001 -7.907001 -7.738 -10.9569 -13.0181 -10.6895 -9.894 -8.066501 
-7.440001 -9.418 -11.7096 -10.9569 -14.6205 -14.1431 -14.4255 -9.894 
