-4.759 
n/a 
n/a 
n/a 
n/a 
-4.759 
n/a 
n/a 
n/a 
n/a 
-4.759 
n/a 
n/a 
n/a 
n/a 
-4.759 
n/a 
n/a 
n/a 
n/a 
-3.7555 -2.9195 -2.0935 -4.079 -2.0935 -2.9645 -12.16972 0 -12.16972 0 -9.696501 0 -4.278 -3.1495 -2.4945 -2.688 -3.9755 -1.7565 -4.571 
-6.288 -5.0745 -6.759 -6.4105 -4.5155 -16.22342 -12.16972 -12.16972 -12.16972 -9.696501 -9.696501 -4.278 -8.446001 -4.459 -5.5045 -6.319 -4.312 -7.238501 
-6.717 -10.389 -9.304501 -8.87 -19.00202 -16.22342 -24.33944 -12.16972 -21.86622 -9.696501 -14.3787 -8.446001 -9.145 -7.1035 -8.608001 -6.3915 -10.361 
-13.8587 -12.9345 -11.846 -23.76192 -19.00202 -28.39314 -24.33944 -21.86622 -21.86622 -14.3787 -18.5467 -9.145 -11.9781 -10.0375 -8.663501 -12.8003 
-16.4042 -15.476 -26.73792 -23.76192 -31.17174 -28.39314 -34.03594 -21.86622 -26.54842 -18.5467 -19.2457 -11.9781 -14.9121 -10.1085 -15.1333 
-3.0465 -2.915 -1.7695 -4.079 -1.756 -3.992 -2.341 0 -5.848 0 -4.278 -2.5685 -2.4945 -8.348001 0 
-5.592 -4.548 -5.6795 -6.4025 -5.193501 -6.9795 -2.341 -5.848 -5.848 -4.278 -7.461 -5.3665 -10.3415 -8.348001 
-7.49 -8.9835 -7.818501 -10.718 -8.377001 -6.9795 -8.544001 -5.848 -9.0535 -7.461 -10.4505 -13.4035 -10.3415 
-12.2643 -11.4793 -12.683 -13.9015 -8.377001 -9.787001 -8.544001 -9.0535 -13.6225 -10.4505 -18.4875 -13.4035 
-14.7601 -16.3438 -15.8665 -13.9015 -11.7343 -9.787001 -12.9165 -13.6225 -16.612 -18.4875 -18.4875 
-6.9775 0 -5.84 0 -5.848 0 -4.278 -2.4945 -4.224 -1.7565 -3.8255 -3.127 -4.236 
-6.9775 -5.84 -5.84 -5.848 -5.848 -4.278 -6.842 -5.9375 -4.7445 -5.2035 -6.9755 -7.3535 
-10.718 -5.84 -10.674 -5.848 -9.0535 -6.842 -9.953001 -6.045 -8.779 -8.168501 -12.1626 
-10.718 -10.674 -10.674 -9.0535 -13.0035 -9.953001 -10.082 -10.31 -10.575 -13.5658 
-10.7435 -10.674 -14.9611 -13.0035 -16.1145 -10.082 -14.4804 -12.106 -16.7085 
-1.4985 -5.9325 -3.115 -6.9775 0 -5.84 0 -5.848 0 -4.278 -3.6845 -2.915 -1.934 -1.8085 -5.485 -3.519 0 
-8.1785 -8.963 -10.044 -6.9775 -5.84 -5.84 -5.848 -5.848 -4.278 -9.2535 -6.475 -4.628 -3.2685 -7.93 -6.6835 -3.519 
-11.6176 -16.3584 -10.044 -10.718 -5.84 -10.674 -5.848 -9.0535 -9.2535 -12.2256 -8.1855 -5.7435 -8.942 -9.464001 -6.6835 
-19.013 -16.3584 -13.5705 -10.718 -10.674 -10.674 -9.0535 -15.415 -12.2256 -13.9361 -9.104 -12.3344 -10.0965 -9.464001 
-19.013 -19.8849 -13.5705 -10.7435 -10.674 -14.9611 -15.415 -18.3871 -13.9361 -14.8546 -15.9209 -13.4889 -10.0965 
