-4.759 
n/a 
n/a 
n/a 
n/a 
-4.759 
n/a 
n/a 
n/a 
n/a 
-4.759 
n/a 
n/a 
n/a 
n/a 
-4.759 
n/a 
n/a 
n/a 
n/a 
-9.166 -1.756 -10.017 -3.7555 -3.1435 -3.2015 
-10.575 -11.1415 -14.1205 -6.325 -6.051 
-19.9605 -15.245 -16.69 -10.1855 
-24.064 -17.8145 -20.5505 
-26.6335 -21.675 
-8.934 -1.756 -11.0905 -3.7555 -4.168 
-9.984 -13.8551 -14.846 -8.959001 
-22.1879 -17.6106 -20.0495 
-25.9434 -22.8141 
-31.1469 
-9.166 -1.756 -10.017 -2.4945 -3.7555 -4.168 0 
-10.575 -11.1415 -12.8595 -7.723001 -8.959001 -4.168 
-19.9605 -13.984 -18.088 -13.2209 -8.959001 
-22.803 -19.2125 -23.5859 -13.2209 
-28.0315 -24.7104 -23.5859 
-9.6085 -1.756 -7.7685 -3.7555 -3.2015 0 
-10.451 -9.115 -12.1026 -7.71 -3.2015 
-17.81 -13.5265 -16.0571 -7.71 
-22.2215 -17.481 -16.0571 
-26.176 -17.481 
