-4.759 
n/a 
n/a 
n/a 
n/a 
-4.759 
n/a 
n/a 
n/a 
n/a 
-4.759 
n/a 
n/a 
n/a 
n/a 
-4.759 
n/a 
n/a 
n/a 
n/a 
-3.9075 -3.301 -2.5195 -4.5995 -2.872 -3.5095 -3.869 -1.934 -4.0335 
-7.677001 -6.3695 -7.0965 -6.7475 -6.150001 -7.717501 -6.1675 -4.76 
-11.1751 -11.5213 -9.8785 -10.7175 -10.4675 -10.451 -9.729 
-16.3269 -14.3033 -14.4147 -15.035 -13.201 -14.0125 
-19.1089 -18.8395 -18.7322 -17.7685 -16.7625 
-4.088 -5.0795 -3.6975 
-10.375 -10.8215 
-16.117 
n/a 
n/a 
-5.6045 -4.933 
-10.647 
n/a 
n/a 
n/a 
-7.684 
n/a 
n/a 
n/a 
n/a 
