-4.759 
n/a 
n/a 
n/a 
n/a 
-4.759 
n/a 
n/a 
n/a 
n/a 
-4.759 
n/a 
n/a 
n/a 
n/a 
-4.759 
n/a 
n/a 
n/a 
n/a 
-5.1875 -9.6365 -2.742 -2.9645 -5.057 -6.05 -1.7695 -3.2345 -5.2915 0 
-16.0552 -12.5047 -5.02 -8.421 -7.2445 -7.624001 -3.713 -9.631001 -5.2915 
-18.9234 -14.7827 -10.328 -9.4195 -8.752 -9.514501 -10.1505 -9.631001 
-21.2014 -20.0907 -11.3265 -10.201 -10.1035 -16.0622 -10.1505 
-26.5094 -21.0892 -12.108 -11.5525 -16.7326 -16.0622 
-6.0695 -10.734 -3.737 -8.6555 -2.5195 -6.442 0 
-18.9793 -16.4624 -13.5659 -11.7292 -9.0955 -6.442 
-23.4133 -26.2913 -16.6396 -18.3052 -9.0955 
-33.2422 -29.365 -23.2156 -18.3052 
-36.3159 -35.941 -23.2156 
-5.1845 -6.102 -2.742 -2.489 -3.737 -8.768001 -1.934 -5.057 -6.05 -1.756 -4.7615 -2.4265 
-8.943001 -8.3815 -3.301 -5.6915 -13.6784 -10.9315 -7.2475 -7.2445 -7.318 -6.051 -7.1245 
-11.3731 -9.086 -6.216001 -16.2561 -15.8419 -16.245 -8.8435 -8.190001 -12.0346 -8.1595 
-12.0776 -12.1174 -16.971 -18.4196 -21.1554 -17.841 -9.871501 -13.0354 -14.1431 
-15.109 -22.8724 -19.1345 -23.7331 -22.7514 -18.869 -14.7169 -15.1439 
-5.1875 -8.27 0 -3.2345 -8.768001 -1.934 -5.057 -6.05 
-14.6887 -8.27 -3.2345 -13.3727 -10.9315 -7.2475 -7.2445 
-14.6887 -11.9313 -13.3727 -15.5362 -16.245 -8.8435 
-18.35 -22.0695 -15.5362 -20.8497 -17.841 
-28.4882 -24.233 -20.8497 -22.4457 
