-4.759 
n/a 
n/a 
n/a 
n/a 
-4.759 
n/a 
n/a 
n/a 
n/a 
-4.759 
n/a 
n/a 
n/a 
n/a 
-4.759 
n/a 
n/a 
n/a 
n/a 
-4.617 0 -10.462 0 -5.943501 0 
-4.617 -10.462 -10.462 -5.943501 -5.943501 
-15.4732 -10.462 -16.5851 -5.943501 
-15.4732 -16.5851 -16.5851 
-21.5963 -16.5851 
-4.617 0 -10.462 0 -5.943501 0 
-4.617 -10.462 -10.462 -5.943501 -5.943501 
-15.4732 -10.462 -16.5851 -5.943501 
-15.4732 -16.5851 -16.5851 
-21.5963 -16.5851 
-4.617 -10.462 0 -5.943501 0 
-15.4732 -10.462 -5.943501 -5.943501 
-15.4732 -16.5851 -5.943501 
-21.5963 -16.5851 
-21.5963 
-4.617 -12.16972 0 -5.943501 0 
-17.18092 -12.16972 -5.943501 -5.943501 
-17.18092 -18.11322 -5.943501 
-23.12442 -18.11322 
-23.12442 
