-4.759 
n/a 
n/a 
n/a 
n/a 
-4.759 
n/a 
n/a 
n/a 
n/a 
-4.759 
n/a 
n/a 
n/a 
n/a 
-4.759 
n/a 
n/a 
n/a 
n/a 
-3.757 -1.756 -7.1135 -3.757 -2.4945 -4.645 -2.3345 -7.2955 -1.756 -5.831 -7.1515 -4.0145 -2.0935 -3.6055 -3.8445 -3.277 
-4.8735 -9.224001 -10.533 -6.912001 -6.212501 -5.881001 -9.4445 -8.554001 -8.085001 -10.459 -11.917 -5.629 -4.7925 -6.1055 -4.7735 
-13.7685 -12.7229 -14.0238 -8.274 -6.748 -14.2728 -10.689 -15.0608 -13.0604 -15.2245 -13.5315 -8.178 -7.4205 -6.4385 
-17.2674 -16.2137 -15.3858 -8.821501 -15.5766 -15.5173 -17.1958 -20.0362 -17.8259 -16.839 -16.0805 -10.9656 -8.7075 
-20.7582 -17.5757 -15.9333 -18.1985 -16.8211 -22.0241 -22.1712 -24.8017 -19.4404 -19.388 -18.8681 -12.2526 
-3.757 0 -4.269 -3.757 0 -4.6 -1.756 -5.518 -2.4945 -3.917 -2.5645 -3.277 -3.098 
-3.757 -4.269 -7.9285 -3.757 -4.6 -6.574 -7.509 -8.755 -5.7075 -7.206501 -4.602 -6.482 
-7.6455 -7.9285 -7.9285 -9.1675 -6.574 -9.107 -9.413501 -12.075 -8.91 -9.832001 -7.3505 
-9.922501 -7.9285 -13.683 -10.6885 -9.107 -10.6605 -12.9439 -15.2775 -11.8453 -12.7807 
-9.922501 -13.683 -15.204 -13.2215 -10.6605 -14.1909 -16.1464 -18.2128 -14.794 
-3.757 0 -4.328 -3.757 0 -4.698 -1.756 -6.965 -6.249 -3.499 -2.4945 -4.645 -2.0935 -3.819 -1.934 -2.5645 -3.277 
-3.757 -4.328 -4.529 -3.757 -4.698 -5.804501 -8.516001 -7.0305 -8.202 -5.2055 -6.212501 -6.451001 -5.924 -5.237 -5.1975 -4.602 
-6.2815 -4.529 -4.529 -8.116 -5.804501 -13.6847 -8.54 -8.74 -9.7795 -6.9405 -7.418 -10.3285 -6.991 -8.3765 -6.54 
-6.3365 -4.529 -9.861501 -8.8315 -13.6847 -13.7087 -10.2285 -9.8915 -10.7055 -8.192 -12.0071 -11.3955 -10.7349 -8.668 
-6.3365 -9.861501 -10.6135 -17.3171 -13.7087 -15.3972 -11.38 -10.9765 -11.957 -13.2513 -13.0741 -15.1394 -11.0264 
-1.4985 -3.757 -1.756 -8.085 -2.4945 -4.645 -3.819 -1.934 -3.8445 -3.277 -2.3345 -3.499 -1.7565 -1.4985 -4.698 -1.756 -3.1715 -5.2565 
-4.5435 -4.8735 -5.609 -7.684 -6.212501 -8.149501 -5.237 -5.375 -4.7735 -5.7795 -5.5855 -4.306 -2.4195 -5.740001 -5.804501 -4.88 -7.994 
-5.6705 -7 -9.135501 -9.039001 -9.3535 -9.151001 -8.0845 -6.1955 -7.0965 -8.910501 -5.7515 -4.5175 -6.387001 -6.908 -8.397501 -8.616501 
-7.068 -8.425501 -8.595 -12.0705 -10.4275 -12.1591 -8.3295 -8.331 -10.426 -8.955501 -5.895 -7.533 -7.563 -9.197001 -9.084001 
-8.549001 -8.383 -12.3138 -13.3493 -13.4356 -12.4041 -10.3405 -11.6511 -10.447 -9.08 -9.4385 -8.572001 -9.654 -10.054 
