-4.759 
n/a 
n/a 
n/a 
n/a 
-4.759 
n/a 
n/a 
n/a 
n/a 
-4.759 
n/a 
n/a 
n/a 
n/a 
-4.759 
n/a 
n/a 
n/a 
n/a 
-7.372 -8.533501 -10.5895 -3.193 
-17.0269 -19.6694 -13.7825 
-28.1628 -22.8624 
-31.3558 
n/a 
-3.508 0 -6.278 -8.2275 -3.193 
-3.508 -6.278 -15.1269 -9.8655 
-11.6072 -15.1269 -16.7649 
-20.4561 -16.7649 
-22.0941 
-3.508 0 -8.533501 -3.3365 -4.4515 -7.6965 -3.193 
-3.508 -8.533501 -9.854501 -5.861 -8.602001 -8.467501 
-10.985 -9.854501 -9.860001 -8.604 -8.654 
-12.306 -9.860001 -9.894001 -8.6555 
-12.3115 -9.894001 -9.938001 
-3.508 -8.533501 -3.3365 -4.4515 -3.193 0 
-10.985 -9.854501 -5.861 -7.463 -3.193 
-12.306 -9.860001 -7.817 -7.463 
-12.3115 -12.9344 -7.817 
-15.3859 -12.9344 
