-4.759 
n/a 
n/a 
n/a 
n/a 
-4.759 
n/a 
n/a 
n/a 
n/a 
-4.759 
n/a 
n/a 
n/a 
n/a 
-4.759 
n/a 
n/a 
n/a 
n/a 
-2.9805 -3.074 -4.1585 -2.3335 -3.5485 -3.1425 -3.659 -1.4985 -3.8315 -3.4005 -3.2615 -1.4985 -4.371 -2.356 -1.4985 -4.28 -1.7565 -2.985 -4.522 0 
-4.8805 -6.214 -5.438 -5.639501 -6.491 -6.6755 -5.1055 -5.577001 -5.887 -6.8205 -4.032 -5.556001 -6.4645 -3.1615 -5.4615 -4.999 -3.9355 -6.9565 -4.522 
-7.006001 -7.187 -8.650001 -7.611501 -9.224 -7.8295 -8.943501 -7.713 -9.2675 -7.84 -7.400001 -7.8745 -7.383501 -6.158 -5.9005 -7.364501 -7.916501 -6.9565 
-8.993001 -10.485 -10.4425 -10.733 -10.7422 -11.7983 -12.0641 -11.7539 -10.2645 -11.4606 -9.689501 -8.559001 -10.7565 -6.193501 -7.748001 -9.705501 -7.916501 
-12.4814 -12.2775 -13.564 -12.2512 -14.711 -14.9189 -16.105 -12.7509 -13.8851 -13.7501 -10.5995 -12.0782 -10.7765 -8.166 -9.775001 -9.705501 
-2.9805 -3.644 0 -3.4765 -3.2615 -4.371 0 -3.5485 -2.7765 -3.659 -2.3615 -7.259501 -2.356 -1.4985 -4.53 -1.7565 -3.332 -4.522 
-4.889 -3.644 -3.4765 -5.382501 -6.867001 -4.371 -3.5485 -6.056 -5.365 -6.3715 -9.857 -10.1725 -3.1615 -5.503 -5.1435 -4.4865 -5.084001 
-4.889 -6.858001 -5.382501 -8.582001 -6.867001 -7.328501 -6.056 -7.54 -7.734 -14.3686 -12.8314 -10.978 -6.138 -5.739501 -8.0235 -6.2635 
-7.553 -8.710001 -8.582001 -8.582001 -9.371 -10.054 -7.54 -10.7838 -15.9957 -17.343 -13.6369 -13.9545 -6.1875 -8.177501 -8.705 
-9.422501 -11.9833 -8.582001 -10.442 -12.1011 -11.6136 -10.7838 -19.0455 -18.9701 -18.1485 -16.6134 -14.004 -8.663 -8.903001 
-3.2615 -1.4985 -4.371 -3.6245 0 -3.5485 -3.768 -3.659 -3.8315 -3.4005 -2.356 -1.4985 -4.28 -1.7565 -3.332 -4.522 0 
-4.032 -5.556001 -7.958 -3.6245 -3.5485 -7.166 -6.7735 -8.493 -5.887 -6.032001 -3.1615 -5.4615 -4.999 -4.4865 -5.084001 -4.522 
-7.400001 -9.3015 -7.958 -7.848001 -7.166 -9.9255 -12.1745 -10.001 -8.432 -6.8455 -6.158 -5.9005 -8.187 -6.2635 -5.084001 
-11.5099 -9.3015 -12.4083 -11.8167 -9.9255 -15.3689 -13.6825 -12.546 -9.4055 -10.159 -6.193501 -8.309501 -8.962501 -6.2635 
-11.5099 -13.847 -16.377 -14.5762 -15.3689 -16.8769 -16.2275 -13.5195 -12.8388 -10.179 -8.518001 -9.036501 -8.962501 
-3.4765 -3.2615 -3.8255 -4.371 -3.5485 -2.7765 -3.659 -6.0755 -10.4975 -2.356 -2.985 -4.522 -2.229 -4.28 
-5.382501 -5.910501 -8.4455 -7.328501 -6.056 -5.365 -10.139 -17.3974 -13.0525 -4.4615 -6.9565 -5.650001 -6.079 
-7.941 -10.361 -11.7632 -10.054 -7.54 -12.4072 -22.0231 -19.9524 -15.158 -8.074 -7.4215 -8.257 
-12.5183 -13.6787 -14.4887 -11.6136 -15.457 -24.2913 -24.5781 -22.0579 -18.7705 -8.750501 -8.8935 
-15.836 -16.4042 -16.0483 -19.5306 -27.3411 -26.8463 -26.6836 -25.6704 -19.447 -10.218 
