-4.759 
n/a 
n/a 
n/a 
n/a 
-4.759 
n/a 
n/a 
n/a 
n/a 
-4.759 
n/a 
n/a 
n/a 
n/a 
-4.759 
n/a 
n/a 
n/a 
n/a 
-12.2985 -2.9635 -1.7565 -4.1455 -5.4625 -3.9035 
-13.539 -4.6005 -5.837501 -7.027 -8.738501 
-14.1169 -8.4825 -8.277 -10.66 
-17.5079 -11.14 -12.4694 
-20.445 -15.3324 
-3.5515 -4.25 -6.8755 -1.7565 -4.1455 -5.4625 -4.916 0 
-6.956 -12.1223 -8.084001 -5.837501 -7.027 -8.1405 -4.916 
-15.1833 -13.3308 -12.4508 -8.277 -8.718 -8.1405 
-16.3918 -17.6976 -14.8903 -9.5515 -8.718 
-20.7586 -20.1371 -16.1648 -9.5515 
-6.041 -3.8015 -3.962 -1.7695 -12.16972 -4.3615 0 
-9.887501 -8.611 -5.7845 -14.92142 -16.53122 -4.3615 
-14.8248 -10.8543 -19.91642 -19.28292 -16.53122 
-17.0681 -24.98622 -24.27792 -19.28292 
-31.20002 -29.34772 -24.27792 
-1.4985 -3.997 -6.1865 -3.6835 -5.0295 0 
-4.921 -10.016 -9.601501 -7.895501 -5.0295 
-10.66 -13.4078 -14.0409 -7.895501 
-14.0518 -17.8472 -14.0409 
-18.4912 -17.8472 
