-4.759 
n/a 
n/a 
n/a 
n/a 
-4.759 
n/a 
n/a 
n/a 
n/a 
-4.759 
n/a 
n/a 
n/a 
n/a 
-4.759 
n/a 
n/a 
n/a 
n/a 
-4.617 -8.863001 -4.9185 -4.2105 -5.328 
-13.8742 -14.3655 -9.48 -6.91 
-19.3767 -18.927 -12.8329 
-23.9382 -22.2799 
-27.2911 
-5.5515 -1.7565 -5.1845 -5.578 -1.934 -4.617 
-6.5785 -6.580501 -10.802 -7.044 -5.804 
-10.3675 -13.041 -12.268 -11.252 
-17.0456 -14.507 -16.476 
-18.5116 -18.715 
-4.617 -8.27 -7.0375 
-13.2812 -15.7343 
-20.7455 
n/a 
n/a 
-4.617 -8.1485 -5.7875 
-13.1597 -14.2966 
-19.3078 
n/a 
n/a 
