-4.759 
n/a 
n/a 
n/a 
n/a 
-4.759 
n/a 
n/a 
n/a 
n/a 
-4.759 
n/a 
n/a 
n/a 
n/a 
-4.759 
n/a 
n/a 
n/a 
n/a 
-3.562 -1.7565 -5.674 -4.67 -3.222 -1.4985 -3.995 
-5.218 -6.977001 -10.4595 -5.8255 -3.7835 -4.712 
-9.818501 -12.7727 -11.615 -6.6015 -6.7535 
-15.6852 -13.9282 -12.391 -9.9585 
-16.8407 -14.7042 -15.748 
-3.7345 -6.943 -4.5905 -3.562 -4.634 
-10.862 -12.1031 -7.981501 -8.744501 
-16.0221 -15.4941 -13.5594 
-19.4131 -21.072 
-24.991 
-4.8135 -1.7565 -4.392 
-6.0305 -6.451001 
-10.586 
n/a 
n/a 
-3.7345 -6.425 -2.229 -4.823 -3.9025 
-11.046 -7.931 -5.649 -9.435 
-12.552 -11.8006 -12.409 
-16.4216 -18.5606 
-23.1816 
