-4.759 
n/a 
n/a 
n/a 
n/a 
-4.759 
n/a 
n/a 
n/a 
n/a 
-4.759 
n/a 
n/a 
n/a 
n/a 
-4.759 
n/a 
n/a 
n/a 
n/a 
-3.3855 -2.186 -1.4985 -4.899 -1.934 -4.156 -1.7565 -1.4985 -4.065 -4.257 -5.991 -2.5045 -3.332 -5.3915 -4.455 -2.229 -4.257 0 
-4.4785 -3.339 -5.882501 -5.8625 -5.274 -5.161 -2.4195 -4.824 -6.226501 -11.2058 -8.847 -5.6045 -5.865001 -7.165501 -5.330501 -5.2305 -4.257 
-5.690001 -7.449501 -6.558001 -5.993 -6.043 -5.796 -5.555 -6.502 -13.7153 -14.0618 -12.0246 -8.085001 -7.2075 -10.028 -8.803 -5.2305 
-9.4095 -7.835001 -6.598001 -6.6635 -6.3995 -8.252 -7.1385 -14.3892 -16.5713 -17.2394 -14.5051 -9.5425 -10.5225 -13.8413 -8.803 
-9.877001 -7.8485 -7.2405 -6.8035 -8.416 -8.814 -15.2181 -17.2452 -19.7489 -19.7199 -15.9626 -12.8801 -14.3358 -13.8413 
-4.426 -1.7565 -1.4985 -3.0835 -4.7285 -4.1555 -4.6455 -4.2245 -1.7565 -4.065 -4.257 -3.0695 -2.186 -3.849 -5.1195 -1.4985 -4.455 0 
-5.47 -2.4195 -3.535 -6.042 -8.4455 -7.503 -8.616 -5.277 -5.305501 -6.226501 -7.101 -4.2675 -4.8565 -9.226001 -6.75 -5.262 -4.455 
-5.9535 -4.6785 -6.335501 -9.523001 -10.8245 -10.8965 -9.242001 -8.9335 -8.210501 -8.6055 -8.4335 -7.152 -10.5145 -11.0263 -10.259 -5.262 
-8.021 -7.476501 -10.0095 -11.9865 -14.3575 -11.14 -13.0915 -11.9113 -10.8171 -10.0285 -11.461 -13.2944 -12.3148 -14.5353 -10.259 
-9.983001 -11.3061 -12.583 -15.5195 -15.4039 -15.618 -16.3473 -14.5179 -12.2401 -13.1912 -17.6034 -15.0947 -15.8238 -14.5353 
-5.1195 -5.0335 -3.8275 -3.515 -3.849 -1.7695 -4.065 -3.9725 
-10.348 -9.8165 -7.7805 -7.0705 -5.4415 -6.2135 -7.828 
-15.131 -13.7695 -11.766 -7.940001 -10.6095 -10.1185 
-19.084 -17.755 -12.6355 -14.2174 -15.0063 
-23.0695 -18.6245 -18.9129 -18.6142 

n/a 
n/a 
n/a 
n/a 
