-4.759 
n/a 
n/a 
n/a 
n/a 
-4.759 
n/a 
n/a 
n/a 
n/a 
-4.759 
n/a 
n/a 
n/a 
n/a 
-4.759 
n/a 
n/a 
n/a 
n/a 
-3.524 -4.1155 0 -3.766 -3.307 -5.293 -2.4945 -2.5685 -4.2755 -2.3345 -1.4985 -3.1335 -4.2485 -4.2315 -4.4715 -1.756 -3.0415 -1.7695 -4.3455 -2.4285 -1.7695 -3.5185 -3.277 0 -2.6165 -3.4915 -1.7565 -3.5965 -3.914 -2.186 -4.023 0 
-9.213501 -4.1155 -3.766 -6.1165 -8.357 -8.102 -4.6335 -7.217 -5.0745 -3.233 -4.5045 -4.9235 -7.7445 -8.208 -7.1695 -4.454 -5.3075 -4.706 -6.2895 -4.3895 -4.134 -6.479 -3.277 -2.6165 -5.27 -4.605 -5.041 -6.941 -5.6545 -4.89 -4.023 
-9.213501 -8.1475 -6.1165 -11.9275 -11.7134 -10.1265 -7.988501 -8.562 -5.6625 -6.2555 -6.641 -8.4315 -11.9258 -10.0475 -9.446001 -6.665501 -8.123 -6.603 -8.238 -6.714 -6.885 -6.479 -5.819 -5.27 -6.2375 -9.0535 -7.776 -8.014501 -7.788001 -4.89 
-13.4699 -10.634 -11.9275 -15.2839 -13.7379 -13.4815 -9.144001 -9.342001 -8.083 -7.8635 -8.8105 -12.6456 -13.7653 -12.324 -11.6525 -8.884501 -10.0605 -8.364 -10.4945 -9.254001 -6.885 -9.2805 -8.2565 -6.2375 -11.3564 -11.9585 -9.68 -9.434501 -7.788001 
-15.9564 -16.445 -15.2839 -17.3084 -17.0929 -14.637 -9.778001 -11.8001 -9.370501 -9.3475 -13.1362 -14.4851 -16.0418 -14.5305 -13.8715 -11.3828 -11.9635 -10.503 -13.0345 -9.254001 -9.601001 -11.8232 -9.4045 -11.3564 -14.2614 -13.8625 -11.2392 -9.434501 
-3.5065 -1.4985 -4.1155 -2.0935 -6.5895 0 -4.6225 -3.766 -3.864 -4.68 -1.756 -2.5685 -2.4945 -3.7855 -4.138 -2.3345 -1.4985 -3.1335 -4.2485 -3.0415 0 -3.0365 -2.186 -2.847 -4.4925 -1.7565 -3.5965 -3.914 -1.7695 -3.5185 -1.756 -4.3455 -1.8085 -3.308 0 
-4.358 -5.1265 -5.6865 -10.001 -7.095 -4.6225 -7.9405 -7.576 -9.646501 -5.892 -4.2335 -5.3665 -5.125 -7.64 -7.562 -3.233 -4.5045 -4.9235 -7.061001 -3.0415 -3.0365 -3.66 -4.1045 -6.2565 -5.5365 -5.041 -6.941 -5.556 -4.134 -5.195 -5.1205 -5.1635 -4.9475 -3.308 
-7.946501 -6.774 -14.7086 -10.7486 -13.4608 -7.9405 -12.5553 -14.1019 -11.0389 -7.943 -6.514 -8.261001 -8.761001 -11.505 -8.582001 -6.2555 -6.641 -7.561 -7.061001 -5.1375 -3.66 -4.256001 -6.48 -7.7365 -9.449 -7.776 -8.402 -6.8735 -5.5695 -6.3465 -5.8975 -7.9235 -4.9475 
-10.7595 -16.1803 -14.7086 -17.1144 -17.0658 -12.5553 -19.0812 -15.4943 -13.0899 -10.9507 -9.2395 -11.9664 -13.0564 -12.525 -11.8247 -7.8635 -9.255501 -7.561 -9.096001 -5.663 -4.256001 -6.483 -8.155001 -11.8678 -12.3048 -9.401501 -10.0505 -8.690001 -6.5595 -6.9525 -8.6525 -7.9235 
-20.1658 -16.1803 -21.0744 -20.7194 -21.6806 -19.0812 -20.4736 -17.5453 -16.0976 -13.6762 -13.0471 -16.2618 -14.0764 -15.7677 -13.4327 -9.812 -9.255501 -9.9475 -9.538001 -6.057 -6.483 -8.165501 -12.4131 -14.7236 -13.9303 -11.2286 -11.867 -9.135501 -7.1915 -9.107 -8.6525 
-3.5965 -2.9705 -2.186 -3.2955 -1.7695 -3.5025 -1.756 -2.911 -3.974 -3.074 -3.3425 -2.3345 -1.4985 -4.861 
-6.3525 -3.89 -4.348001 -3.9425 -5.664001 -5.073 -5.25 -4.4735 -7.1665 -6.257 -7.149 -3.233 -6.646501 
-7.1565 -5.7615 -4.837 -8.8735 -7.0795 -7.7235 -6.105 -7.9775 -10.5645 -10.151 -8.159 -8.3545 
-8.7275 -6.2085 -10.434 -10.4855 -9.8715 -8.4465 -9.972 -11.6707 -14.4585 -11.4722 -13.7063 
-9.1735 -12.0785 -12.046 -13.2775 -10.6505 -12.9155 -13.7298 -15.5647 -15.7797 -17.0195 
-3.1435 -2.6165 -3.642 -4.079 -2.0935 -2.8965 -3.09 
-5.3155 -5.0795 -6.2445 -5.1445 -4.726501 -5.209 
-7.0525 -7.681 -7.309501 -7.293 -6.9445 
-9.372001 -8.5185 -9.47 -9.8105 
-9.538501 -10.896 -12.4071 
