-4.759 
n/a 
n/a 
n/a 
n/a 
-4.759 
n/a 
n/a 
n/a 
n/a 
-4.759 
n/a 
n/a 
n/a 
n/a 
-4.759 
n/a 
n/a 
n/a 
n/a 
-3.0835 -4.5665 -3.59 -3.0835 -6.9985 
-7.3765 -8.633501 -6.699 -10.335 
-12.1955 -10.5235 -14.5935 
-14.0855 -18.418 
-21.98 
-3.0835 -3.8735 -3.0465 -4.712 -3.321 -4.203 -1.7695 -4.2675 -12.16972 
-7.875501 -7.01 -8.454 -7.993001 -7.614 -5.5275 -4.8665 -17.59402 
-11.5642 -10.2695 -10.368 -12.5494 -10.5035 -8.508 -18.55422 
-14.8237 -12.3755 -14.9244 -15.4389 -13.484 -22.60092 
-16.9297 -16.9319 -17.8139 -18.4194 -27.57692 
-2.9805 -2.7415 -1.4985 -3.098 -3.0835 -3.9655 -4.2245 -2.5045 -1.4985 -3.4075 -3.518 -1.934 -3.2615 -4.248 -3.8735 -1.7695 -2.489 -2.5195 -1.8085 -7.7675 -3.6825 -2.356 -3.3365 -4.4285 -4.9295 0 
-4.004 -4.063 -4.123 -6.572001 -7.162001 -6.7905 -6.5045 -3.1915 -4.118 -5.618501 -5.322001 -5.9135 -8.1685 -8.2675 -6.006001 -3.1405 -5.6005 -3.8815 -9.2745 -10.8835 -5.7545 -5.38 -8.639 -8.300501 -4.9295 
-5.390501 -5.4855 -7.7395 -11.3043 -9.2565 -9.247 -7.066 -5.415 -6.0135 -7.001501 -10.115 -10.6215 -12.3186 -11.1388 -7.463 -6.1615 -6.646501 -10.987 -10.8095 -12.397 -8.5985 -10.1265 -12.4632 -8.300501 
-6.6365 -8.856501 -13.0946 -13.3988 -12.1894 -9.5725 -8.922001 -6.125 -7.3195 -12.1853 -14.9134 -14.7716 -15.1899 -12.5958 -10.8826 -7.1955 -13.5984 -12.4724 -13.2161 -15.4794 -13.9666 -13.9507 -12.4632 
-9.927501 -14.5192 -15.1891 -16.3317 -12.5149 -11.5309 -9.481501 -7.402 -12.5237 -16.9837 -19.0635 -17.6429 -16.6469 -16.0154 -11.9166 -14.3711 -15.1116 -15.1455 -16.1019 -20.8475 -17.7908 -13.9507 
-3.2615 -3.8735 -4.3195 -3.9675 -2.0935 -1.4985 -3.0835 -2.95 -1.4985 -4.6085 -3.5645 -4.203 -7.539001 -3.6825 -4.2245 -4.82 -3.519 -2.356 -4.75 -1.756 -4.4285 0 
-7.178 -7.817 -9.0555 -6.871 -2.9725 -3.535 -4.3945 -4.514 -6.098001 -8.491 -8.285 -10.6095 -10.404 -6.442 -9.3925 -7.594501 -6.031 -6.191501 -5.7315 -6.8655 -4.4285 
-9.160501 -10.259 -12.3978 -7.6075 -4.594501 -4.569 -5.825 -9.2475 -10.0445 -13.8551 -15.4535 -14.1597 -13.1635 -12.0196 -10.478 -9.592501 -10.316 -6.97 -11.8686 -6.8655 
-12.1637 -13.7577 -13.1343 -8.684501 -4.791 -5.8435 -10.5325 -13.388 -15.5632 -21.0236 -19.0037 -16.9192 -18.7411 -13.1051 -12.476 -14.0581 -11.0945 -13.3559 -11.8686 
-15.6624 -14.4942 -14.2113 -8.812 -6.0665 -10.5975 -14.673 -18.9067 -22.7317 -24.5738 -21.7632 -22.4968 -19.8266 -15.1031 -16.9416 -14.8366 -17.4804 -13.3559 
