-4.759 
n/a 
n/a 
n/a 
n/a 
-4.759 
n/a 
n/a 
n/a 
n/a 
-4.759 
n/a 
n/a 
n/a 
n/a 
-4.759 
n/a 
n/a 
n/a 
n/a 
-3.4625 -3.1385 -3.3435 -3.6835 0 -3.59 -3.1385 -3.3435 -3.922 0 -3.4005 -1.756 -4.742 -3.922 -1.934 -8.445001 -3.8405 
-6.718 -7.031 -5.2295 -3.6835 -3.59 -6.724 -7.031 -7.809 -3.922 -3.4005 -4.503 -6.259 -9.5735 -4.558 -10.2335 -13.0173 
-9.5965 -8.823501 -5.2295 -7.335501 -6.724 -8.1095 -12.2007 -7.809 -7.681 -4.503 -7.795 -10.586 -10.3365 -13.6009 -15.0198 
-11.9856 -8.823501 -10.2325 -11.1177 -8.1095 -15.9172 -12.2007 -11.6706 -8.1775 -7.795 -12.3278 -11.349 -19.3794 -18.3872 
-11.9856 -14.3455 -14.0147 -12.5032 -15.9172 -15.9172 -16.0623 -12.1671 -12.0203 -12.3278 -13.0908 -20.3919 -24.1657 

n/a 
n/a 
n/a 
n/a 
-3.5455 -7.5605 -2.5045 -1.4985 -4.156 -4.328 0 -2.9805 -2.8645 -4.4895 -2.688 -3.9115 -4.1685 -7.9055 -1.7695 -3.59 -3.898 0 -3.3435 -4.5735 -1.7565 -1.4985 -3.1385 0 -3.4005 -1.756 -4.109 -3.898 
-11.117 -10.5755 -3.583 -4.9965 -6.2095 -4.328 -2.9805 -4.3245 -5.93 -6.6585 -6.673 -8.276501 -13.265 -9.464001 -5.8715 -7.6785 -3.898 -3.3435 -8.509001 -5.7035 -2.4195 -4.2575 -3.1385 -3.4005 -4.503 -5.2895 -6.921 
-14.132 -11.654 -6.3435 -6.746 -6.2095 -6.865 -4.3245 -7.7045 -7.469 -9.896501 -11.6202 -17.6318 -14.8235 -13.7848 -10.354 -7.6785 -7.6315 -8.509001 -10.2985 -6.134 -5.013 -4.2575 -6.784 -4.503 -8.1995 -7.784 
-15.2105 -14.4145 -8.306001 -6.746 -8.5985 -8.0835 -7.7045 -9.411501 -10.553 -14.8619 -20.9755 -19.1903 -19.1443 -18.2673 -10.354 -11.9594 -13.5014 -10.2985 -10.729 -7.218 -5.013 -8.679001 -7.476501 -8.1995 -10.634 
-17.971 -16.377 -8.306001 -8.974501 -9.793501 -11.6255 -9.411501 -12.5515 -15.9572 -24.2172 -22.534 -23.5111 -23.6268 -18.2673 -14.6349 -17.8293 -15.2909 -10.729 -11.813 -7.218 -9.411 -10.0375 -12.3546 -10.634 
-1.934 -1.4985 -3.8405 -1.7565 -12.16972 0 -2.5045 -1.8085 -4.156 -4.328 0 -3.7855 -3.699 -1.7695 -1.4985 -3.3825 -1.7565 -3.59 0 -4.64 0 -3.4005 0 -4.109 -3.898 -1.756 -3.3715 -4.86 -3.152 -4.2225 
-2.6125 -4.7545 -4.563 -14.87542 -12.16972 -2.5045 -3.3625 -6.1235 -6.2095 -4.328 -3.7855 -8.1835 -4.585 -2.7955 -4.4135 -4.3095 -5.59 -3.59 -4.64 -4.64 -3.4005 -3.4005 -4.109 -6.921 -4.9375 -4.6545 -7.648001 -7.0575 -6.1265 
-5.7585 -5.365 -18.84312 -14.87542 -14.67422 -3.3625 -7.1755 -8.2655 -6.2095 -8.1 -8.1835 -10.5535 -5.838 -5.4835 -4.563 -8.119 -5.59 -8.378 -4.64 -7.4635 -3.4005 -7.2495 -6.921 -7.869 -8.319 -9.217501 -9.301001 -9.252001 
-6.6715 -19.68832 -18.84312 -17.37992 -15.53222 -7.1755 -9.412001 -8.2655 -10.159 -13.2594 -10.5535 -11.8065 -7.508 -5.587501 -8.333501 -8.119 -9.8585 -8.378 -7.4635 -7.4635 -7.2495 -11.1047 -7.869 -11.5539 -12.783 -10.477 -11.5961 
-21.18242 -19.68832 -21.34762 -18.23792 -19.34522 -9.412001 -9.412001 -12.559 -15.604 -15.6294 -11.8065 -13.4765 -7.6005 -9.3345 -8.333501 -12.6663 -9.8585 -11.6087 -7.4635 -12.0803 -11.1047 -12.0527 -11.5539 -16.0179 -14.0425 -12.7721 
