-4.759 
n/a 
n/a 
n/a 
n/a 
-4.759 
n/a 
n/a 
n/a 
n/a 
-4.759 
n/a 
n/a 
n/a 
n/a 
-4.759 
n/a 
n/a 
n/a 
n/a 
-2.0935 -4.4685 -3.0695 -3.881 
-5.4985 -7.561 -8.415501 
-8.6485 -13.2004 
-14.5199 
n/a 
-3.0695 -2.742 -3.8095 -1.7695 -4.4685 0 
-4.7485 -5.969 -5.124001 -5.2225 -4.4685 
-7.5655 -6.960001 -9.333501 -5.2225 
-9.201 -11.8035 -9.333501 
-14.1857 -11.8035 
-10.2555 -6.841001 -11.128 0 0 -4.4685 -1.7695 -3.8095 0 -3.0695 -1.7695 -3.8095 0 0 
-17.1607 -18.4724 -11.128 0 -4.4685 -6.2685 -4.549 -3.8095 -3.0695 -5.792 -4.549 -3.8095 0 
-28.7921 -18.4724 -11.128 -4.4685 -6.2685 -8.943001 -4.549 -7.8325 -5.792 -8.345501 -4.549 -3.8095 
-28.7921 -18.4724 -15.5965 -6.2685 -8.943001 -8.943001 -8.496 -9.663501 -8.345501 -8.345501 -4.549 
-28.7921 -22.9409 -17.3965 -8.943001 -8.943001 -10.76 -9.6885 -10.009 -8.345501 -8.345501 
-3.0695 -4.658 -1.756 -2.0935 -4.4685 0 
-6.259 -6.4705 -4.3175 -5.4985 -4.4685 
-7.940001 -8.978001 -6.738 -5.4985 
-10.9237 -11.5593 -6.738 
-13.505 -11.5593 
