-4.759 
n/a 
n/a 
n/a 
n/a 
-4.759 
n/a 
n/a 
n/a 
n/a 
-4.759 
n/a 
n/a 
n/a 
n/a 
-4.759 
n/a 
n/a 
n/a 
n/a 
-4.621 0 -10.0235 0 -3.6675 -3.251 -4.7115 0 
-4.621 -10.0235 -10.0235 -3.6675 -6.282001 -8.526 -4.7115 
-15.0785 -10.0235 -13.8826 -6.282001 -9.042001 -8.526 
-15.0785 -13.8826 -16.4971 -9.042001 -9.042001 
-18.9376 -16.4971 -19.2571 -9.042001 
-4.621 0 -9.643001 0 -3.941 -4.7115 0 
-4.621 -9.643001 -9.643001 -3.941 -7.7965 -4.7115 
-14.698 -9.643001 -13.8922 -7.7965 -7.7965 
-14.698 -13.8922 -17.7477 -7.7965 
-18.9472 -17.7477 -17.7477 
-4.621 0 -12.16972 0 -5.08 -4.7115 0 
-4.621 -12.16972 -12.16972 -5.08 -7.349501 -4.7115 
-17.22472 -12.16972 -17.24972 -7.349501 -7.349501 
-17.22472 -17.24972 -19.51922 -7.349501 
-22.30472 -19.51922 -19.51922 
-4.621 -9.643001 0 -5.08 -4.7115 0 
-14.698 -9.643001 -5.08 -7.349501 -4.7115 
-14.698 -15.0312 -7.349501 -7.349501 
-20.0862 -17.3007 -7.349501 
-22.3557 -17.3007 
