-4.759 
n/a 
n/a 
n/a 
n/a 
-4.759 
n/a 
n/a 
n/a 
n/a 
-4.759 
n/a 
n/a 
n/a 
n/a 
-4.759 
n/a 
n/a 
n/a 
n/a 
-3.0835 -4.584 0 -5.1845 
-7.693501 -4.584 -5.1845 
-7.693501 -10.8625 
-14.3356 
n/a 
-3.0835 -4.584 0 -5.1845 -4.1115 -4.205 
-7.693501 -4.584 -5.1845 -9.9305 -9.236 
-7.693501 -10.8625 -9.9305 -15.529 
-14.3356 -15.6085 -15.529 
-19.0816 -21.207 
-4.0105 -3.522 0 -8.1485 -3.594 -1.7565 -4.335 0 
-8.1415 -3.522 -8.1485 -12.1031 -4.857 -6.4465 -4.335 
-8.1415 -12.4339 -12.1031 -13.3661 -9.038501 -6.4465 
-17.447 -16.3885 -13.3661 -17.5476 -9.038501 
-21.4016 -17.6515 -17.5476 -17.5476 
-3.535 -3.522 0 -8.27 -7.929 
-5.913 -3.522 -8.27 -16.9043 
-5.913 -12.5554 -16.9043 
-15.138 -21.1897 
-23.7723 
