-4.759 
n/a 
n/a 
n/a 
n/a 
-4.759 
n/a 
n/a 
n/a 
n/a 
-4.759 
n/a 
n/a 
n/a 
n/a 
-4.759 
n/a 
n/a 
n/a 
n/a 
-3.929 -1.4985 -3.683 -1.756 -4.285 -4.216 -1.7565 -5.204 0 -3.345 -6.785501 -2.3345 -1.8085 -4.445 0 -2.7415 -3.8755 -2.3345 -1.4985 -5.3875 0 -1.4985 -3.788 -4.445 -2.8645 -3.1125 -1.8085 -4.7715 -3.788 -2.0935 -5.515 -1.7695 -2.9645 -1.934 -4.93 -3.8825 -3.517 -1.934 -5.9 
-4.8985 -4.9055 -5.2485 -5.2935 -7.436001 -5.4615 -7.014 -5.204 -3.345 -10.2335 -7.009501 -3.8605 -6.3605 -4.445 -2.7415 -5.065001 -4.4955 -3.233 -5.937 -5.3875 -1.4985 -4.6805 -7.5465 -6.6045 -3.5345 -4.4415 -5.5665 -8.5 -5.6485 -7.122 -7.137001 -3.812 -4.6135 -6.3165 -8.547001 -6.955 -5.1655 -6.8375 
-8.313001 -6.2795 -7.0165 -7.8385 -8.6765 -10.76 -7.014 -8.135 -10.2335 -10.435 -8.271001 -7.7245 -6.3605 -6.895 -5.065001 -5.7145 -5.454 -6.8745 -5.937 -7.0775 -4.6805 -9.0135 -9.382 -7.6505 -4.828 -8.449501 -8.708 -9.1145 -10.4425 -8.217 -9.341001 -5.6455 -7.624001 -9.9615 -10.5135 -8.108001 -9.998001 
-9.795501 -7.8315 -8.222 -9.107 -14.245 -10.76 -9.6945 -15.4937 -10.435 -10.631 -10.442 -7.7245 -8.585501 -9.5455 -5.7145 -6.4495 -9.3885 -6.8745 -7.291 -9.834001 -9.0135 -10.368 -10.244 -9.070001 -8.905001 -10.7595 -9.1855 -14.0175 -11.5375 -10.1 -10.4435 -8.7685 -10.426 -11.9994 -10.774 -13.2445 
-11.4363 -8.724501 -9.6755 -14.8165 -14.245 -13.4405 -17.2646 -15.6952 -10.631 -12.802 -10.442 -10.2225 -11.6102 -10.136 -6.4495 -9.9975 -9.3885 -7.9385 -10.092 -14.2096 -10.368 -11.6424 -11.6635 -13.299 -11.234 -11.237 -14.1219 -15.1125 -13.4205 -10.724 -13.5665 -10.5225 -12.6491 -12.2599 -15.9105 
-3.6215 -1.7565 -3.5035 0 -1.4985 -4.814 -1.7565 -1.4985 -4.518 -3.7455 -1.756 -2.5685 -3.999 -4.5385 -2.4945 -3.4625 -4.648 -2.3345 -1.4985 -3.757 -2.356 -3.851 -4.3315 -1.7565 -1.4985 -4.293 -2.925 -2.4945 -5.3525 -1.4985 -4.179 -2.5045 -3.3235 -2.5045 -4.287 -1.4985 -3.824 -2.9705 -2.4945 -2.6165 -4.066 -3.325 -1.4985 -3.9655 -4.179 0 
-3.936 -4.6725 -3.5035 -1.4985 -5.593 -6.2915 -2.4195 -5.0305 -4.659 -5.392 -4.2335 -6.772 -6.645 -6.2415 -4.7105 -6.71 -5.442 -3.233 -4.5435 -6.4165 -6.294001 -8.7425 -4.981 -2.4195 -4.8105 -7.464001 -3.7675 -6.839 -6.182001 -5.087 -6.318501 -3.7105 -3.8485 -6.466001 -5.0195 -5.519501 -6.3195 -4.302 -3.8065 -8.083501 -6.5505 -3.898 -4.9875 -8.4925 -4.179 
-6.680501 -4.6725 -5.2165 -5.593 -6.7775 -6.494 -5.8235 -5.1175 -6.2895 -7.6 -8.033501 -8.811501 -8.182 -8.4335 -8.425501 -7.8275 -5.5955 -5.679 -6.9275 -9.953001 -9.588 -9.0325 -5.3515 -5.557 -7.620501 -8.3885 -8.0105 -7.7705 -9.335501 -7.6285 -7.109001 -3.8545 -7.5575 -7.212501 -9.1885 -7.646001 -7.129 -5.338 -9.923 -9.579 -7.037 -7.7635 -9.276001 -8.4925 
-6.680501 -6.1365 -8.596001 -6.7775 -6.929 -7.4025 -5.9245 -6.5735 -8.134 -9.601501 -9.715501 -10.361 -10.621 -12.3967 -9.734 -8.134501 -6.464 -7.3915 -10.1895 -13.5948 -9.836 -9.5825 -7.98 -8.504001 -8.571501 -12.7925 -8.929501 -11.1034 -11.694 -8.7095 -7.168001 -7.558001 -7.955 -11.5425 -10.734 -8.424001 -8.317 -11.9111 -11.4471 -9.760501 -10.5425 -12.6508 -9.276001 
-8.531 -9.5535 -9.410501 -6.929 -7.9025 -7.44 -7.1605 -8.2555 -9.669001 -10.1695 -11.3464 -12.8 -14.5842 -13.7052 -10.1025 -9.305 -7.602 -10.4935 -13.9099 -13.8428 -10.0765 -12.2466 -10.687 -9.483 -13.0205 -13.7115 -12.3012 -13.4619 -12.775 -8.812501 -11.2455 -7.955501 -12.5218 -13.088 -11.512 -9.624001 -14.8767 -13.4352 -11.6286 -14.0794 -15.4298 -12.6508 
-3.683 -3.6215 0 -4.518 -3.7455 -1.756 -2.8965 -3.999 -4.5385 -2.4945 -4.648 -2.3345 -1.4985 -4.3315 -1.7565 -3.757 -1.756 -2.8965 -4.293 -3.4185 -4.3315 0 -2.925 -3.074 -4.107 -1.7695 -5.0785 -1.756 -5.0035 -1.4985 -3.5035 
-6.4125 -3.6215 -4.518 -4.659 -5.392 -3.751 -7.1305 -6.645 -6.2415 -6.1895 -5.442 -3.233 -5.382501 -4.981 -5.584 -4.8735 -3.751 -7.5075 -7.543 -7.9235 -4.3315 -2.925 -4.9325 -6.081 -5.939001 -5.3425 -6.522501 -6.31 -5.920001 -4.4895 
-6.4125 -7.9305 -4.659 -6.2895 -7.3425 -7.81 -8.941501 -8.182 -8.328001 -6.574501 -5.5955 -7.501501 -5.547501 -8.342 -7.058001 -7.3155 -8.3925 -10.749 -12.6178 -7.9235 -7.463 -4.9325 -9.661001 -7.8275 -10.2755 -6.682 -10.298 -6.981501 -9.654 
-10.9031 -7.958 -6.2895 -7.809 -9.741501 -9.554501 -10.3415 -10.269 -8.582001 -6.6585 -10.442 -7.940001 -8.778501 -10.3885 -9.589001 -12.828 -11.9398 -15.8238 -12.6178 -11.1814 -8.915 -9.661001 -10.9565 -12.3702 -11.7784 -10.5125 -10.5955 -10.9025 
-10.9306 -10.564 -7.809 -9.908 -9.889501 -10.6615 -12.4285 -10.4045 -8.588501 -11.7616 -10.6735 -10.757 -10.7206 -12.9195 -15.2125 -16.3753 -17.0146 -15.8238 -15.8757 -12.6334 -13.7955 -10.9565 -15.4992 -13.8731 -15.6089 -10.81 -14.5165 
-5.377 0 -4.518 -3.7455 -1.756 -3.539 -4.763 -1.934 -3.7455 -1.756 -7.4705 -4.0395 -1.4985 -3.8675 -1.7695 -3.326 -1.4985 -3.5035 -1.756 -3.6615 -2.0935 -2.5685 0 
-5.377 -4.518 -4.659 -5.392 -5.2365 -8.975 -6.0865 -5.313 -5.392 -9.5465 -12.1702 -6.023 -4.976 -5.071 -5.3825 -5.3015 -4.4895 -4.74 -5.509 -5.47 -3.987 -2.5685 
-9.953501 -4.659 -6.2895 -9.423 -10.4185 -10.443 -10.513 -6.6625 -14.1001 -14.3602 -14.1537 -9.351001 -6.2205 -9.3475 -6.461 -6.7545 -5.6635 -8.6245 -7.665 -7.639501 -3.987 
-10.079 -6.2895 -10.7575 -15.0056 -11.9617 -14.9327 -11.8625 -15.7064 -18.9138 -16.3437 -17.4817 -10.8377 -10.328 -10.2875 -8.802501 -8.991501 -9.1855 -11.1643 -8.663501 -7.639501 
-11.8895 -10.7575 -16.3401 -16.5488 -16.4514 -16.2822 -20.9064 -20.5201 -20.8973 -19.6717 -18.9684 -14.9452 -11.8144 -12.7988 -9.493501 -12.7051 -12.0423 -12.1628 -8.663501 
