-4.759 
n/a 
n/a 
n/a 
n/a 
-4.759 
n/a 
n/a 
n/a 
n/a 
-4.759 
n/a 
n/a 
n/a 
n/a 
-4.759 
n/a 
n/a 
n/a 
n/a 
-1.934 -2.3615 -3.3755 -5.8215 -2.7765 -2.489 -3.845 -1.7695 -3.183 0 -4.3105 -5.8215 0 -2.4285 0 -5.8415 -5.8215 0 0 -3.3155 -1.4985 -4.114 -8.673 -2.4945 -3.0415 -3.7375 -2.3335 -5.388 -3.013 -2.6165 -4.2635 -3.277 -1.756 -3.664 -3.013 -2.6165 -3.8455 -3.4915 -4.22 -1.7695 -3.277 0 
-3.539 -4.8525 -9.435 -8.404501 -3.495 -5.3295 -4.549 -5.104 -3.183 -4.3105 -8.5635 -5.8215 -2.4285 -2.4285 -5.8415 -9.606501 -5.8215 0 -3.3155 -4.1745 -5.1095 -13.615 -12.326 -4.8175 -6.073 -6.191501 -8.050501 -7.987501 -3.724 -6.193 -6.568501 -4.6335 -5.676 -6.3395 -3.724 -5.714 -6.6715 -5.973001 -4.8015 -4.619 -3.277 
-5.301 -10.389 -10.544 -8.7615 -6.8595 -5.5215 -6.869501 -5.104 -7.579 -8.5635 -8.5635 -7.255 -2.4285 -8.31 -9.606501 -9.606501 -5.8215 -3.3155 -4.1745 -7.4905 -12.0235 -11.7265 -12.924 -6.901 -7.8995 -10.564 -9.913001 -8.452001 -7.0245 -8.205 -7.589 -8.8795 -8.165501 -6.535 -6.27 -7.677 -6.948 -6.4475 -6.915 -4.619 
-10.485 -10.576 -10.5715 -10.564 -7.307 -7.7255 -6.869501 -9.882501 -10.5535 -8.5635 -10.0315 -7.255 -8.31 -10.5535 -9.606501 -9.606501 -8.8485 -4.1745 -7.4905 -11.956 -10.582 -10.6105 -10.676 -8.437 -10.5635 -10.665 -10.1385 -10.6465 -9.083501 -9.7425 -10.543 -10.404 -8.367001 -8.7775 -8.25 -7.7785 -7.033501 -8.028501 -6.915 
-10.579 -10.594 -10.6 -10.582 -9.146001 -7.7255 -10.354 -10.5675 -10.5535 -10.0315 -10.0315 -10.564 -10.5535 -10.5535 -9.606501 -10 -9.5755 -7.4905 -10.582 -10.6 -10.6 -10.6185 -10.6185 -10.564 -10.6645 -10.687 -10.6575 -10.6685 -10.2485 -10.65 -10.664 -10.5665 -10.411 -10.403 -8.339001 -7.8455 -8.432 -8.028501 
-2.3615 -3.519 -2.7765 -2.6165 -4.2635 -3.519 -5.061 -1.756 -3.664 -3.435 -4.138 -1.7565 -3.686 -4.6225 -1.7695 -3.535 -1.7565 -3.686 -4.6225 0 
-4.7965 -6.2755 -4.9255 -6.193 -8.3995 -8.117001 -6.641 -5.676 -7.425 -8.049001 -5.1845 -5.3165 -7.920501 -6.815001 -5.5315 -6.776 -5.3165 -7.920501 -4.6225 
-7.073 -8.4145 -7.8955 -10.829 -13.5515 -11.2386 -11.2118 -9.56 -12.6164 -9.3795 -9.467 -9.458501 -10.4675 -11.2 -8.5885 -10.4035 -9.458501 -7.920501 
-8.97 -12.0627 -12.7795 -15.981 -16.6731 -15.8094 -15.0958 -15.0526 -13.9469 -13.8838 -13.917 -12.0975 -14.8525 -14.257 -12.6966 -14.8937 -9.458501 
-13.3138 -16.9467 -17.9315 -19.1026 -21.2439 -19.6934 -20.5884 -16.3831 -18.4512 -18.3338 -16.556 -16.4825 -17.9095 -18.3651 -17.1868 -14.8937 
-2.3615 -3.5215 0 -5.3525 -3.9075 -4.2945 -2.6165 -3.6885 -2.9645 -3.711 -2.7415 -3.6885 -3.1385 -3.17 -4.375 -3.535 -7.7685 -1.7565 -5.3365 -1.4985 0 -5.217 0 -3.681 -1.756 0 -3.383 -4.624 -1.7565 -3.6885 0 0 
-7.566501 -3.5215 -5.3525 -9.413 -9.062 -7.3295 -7.375501 -7.0305 -7.820001 -6.6645 -6.693 -7.517 -6.3555 -7.463 -8.675 -12.479 -10.1365 -8.009501 -6.9625 -1.4985 -5.217 -5.217 -3.681 -5.349 -1.756 -3.383 -8.995001 -6.0505 -5.8555 -3.6885 0 
-7.566501 -9.6525 -9.413 -15.1609 -12.4148 -12.7889 -11.0263 -12.2774 -11.2265 -10.3155 -10.396 -10.609 -11.3137 -12.398 -18.3246 -13.9264 -16.8454 -10.1305 -6.9625 -5.402 -5.217 -7.6415 -5.349 -5.349 -5.029 -8.995001 -10.2595 -10.6735 -5.8555 -3.6885 
-14.1359 -13.7964 -15.1609 -18.5137 -17.8742 -16.4397 -16.2732 -15.6839 -14.8775 -14.1593 -13.488 -15.5672 -16.2487 -22.0476 -19.3646 -20.9668 -19.0564 -10.1305 -11.3942 -5.402 -7.6415 -8.907001 -5.349 -8.442 -10.893 -10.2595 -14.8825 -10.6735 -5.8555 
-18.2798 -19.5443 -18.5137 -23.9731 -21.525 -21.6866 -19.6797 -19.3349 -18.7213 -17.2513 -18.4462 -20.5022 -25.8983 -23.0876 -26.405 -23.0878 -19.0564 -14.5622 -11.3942 -7.6675 -8.907001 -8.907001 -8.442 -14.5378 -12.1575 -14.8825 -14.8825 -10.6735 
-1.934 -2.3615 -3.7075 0 -2.4265 -3.423 -2.489 -5.604 -2.7835 -1.4985 -5.5325 -4.856 -2.186 -7.9705 -5.5325 -4.856 0 -2.4285 -7.025 -1.756 -5.4555 -7.165 0 -2.3335 -3.423 -2.6165 -4.3215 -2.3345 -5.061 
-3.539 -5.029 -3.7075 -2.4265 -4.7235 -4.122 -6.8205 -8.749001 -3.7575 -6.56 -7.8135 -6.7605 -11.08 -13.9378 -7.8135 -4.856 -2.4285 -9.264501 -8.5905 -6.7425 -10.985 -7.165 -2.3335 -4.6695 -4.4935 -6.233 -5.1005 -7.39 
-6.699 -5.029 -6.357 -4.7235 -5.1355 -8.1615 -9.096001 -9.1825 -9.102 -8.13 -10.209 -16.0173 -17.0473 -16.2188 -7.8135 -6.4255 -9.264501 -10.9126 -9.5005 -12.3658 -10.985 -9.68 -4.6695 -6.1745 -9.943 -7.3255 -11.0972 
-6.699 -7.261 -8.5305 -5.1355 -9.793 -10.5082 -9.313 -14.941 -11 -11.2387 -19.4658 -21.9846 -19.3283 -16.2188 -9.009001 -14.2733 -10.9126 -11.8226 -16.3644 -12.3658 -13.5 -12.2324 -6.1745 -12.3028 -11.0355 -13.4866 
-8.5905 -9.5725 -8.960501 -9.793 -12.3513 -10.7252 -15.3381 -16.839 -14.1087 -20.4955 -25.4331 -24.2656 -19.3283 -17.4143 -17.3112 -15.9214 -11.8226 -18.6865 -16.3644 -14.8808 -16.0524 -13.7374 -12.3028 -13.3953 -17.1966 
