-4.759 
n/a 
n/a 
n/a 
n/a 
-4.759 
n/a 
n/a 
n/a 
n/a 
-4.759 
n/a 
n/a 
n/a 
n/a 
-4.759 
n/a 
n/a 
n/a 
n/a 
-5.848 -4.571 -2.186 -4.3005 0 -1.756 -2.8645 -5.3055 -4.928 
-9.813 -7.1165 -6.368501 -4.3005 -1.756 -4.3855 -8.749001 -9.2715 
-12.9501 -11.986 -6.368501 -5.715001 -4.3855 -9.9455 -12.9506 
-17.8196 -11.986 -6.8545 -8.224001 -9.9455 -14.3855 
-17.8196 -12.472 -8.73 -14.1768 -14.3855 
-5.848 -4.571 -3.535 -3.9195 -2.7455 -1.4985 -4.96 -4.447 -2.7455 -5.593 
-9.813 -8.8955 -7.511 -7.18 -3.637 -6.503 -10.5826 -6.5505 -9.1815 
-14.7291 -13.1817 -11.1715 -7.946 -8.547001 -12.9964 -12.6861 -13.7563 
-19.0153 -16.8422 -11.9375 -13.1284 -15.5644 -15.0999 -19.8919 
-22.6758 -17.6082 -17.1199 -20.1458 -17.6679 -22.3057 
-5.848 -4.571 -3.7875 -4.447 -3.602 -2.5045 -3.383 -4.207 -3.9195 
-9.813 -9.375 -9.4335 -8.435 -6.226 -5.9125 -6.196 -8.0115 
-15.2086 -15.1016 -13.7145 -11.7096 -9.1785 -9.9405 -10.7337 
-20.9352 -19.3826 -16.9891 -14.6621 -13.9745 -14.615 
-25.2162 -22.6572 -19.9416 -19.4581 -18.649 
-5.848 -2.186 -1.4985 -3.594 -1.7565 -4.3005 -3.9195 -1.756 -1.4985 -4.447 -4.1645 
-6.4945 -3.339 -4.568 -4.857 -5.9475 -7.7335 -5.2245 -3.0405 -6.008 -9.3815 
-6.958 -6.576 -5.042 -9.198501 -10.025 -8.636001 -6.5905 -7.5865 -10.688 
-12.9798 -6.706 -9.323501 -13.63 -11.0319 -10.4855 -11.6553 -12.3511 
-13.1098 -11.6389 -13.757 -14.6369 -12.8814 -15.5503 -16.4199 
