-4.759 
n/a 
n/a 
n/a 
n/a 
-4.759 
n/a 
n/a 
n/a 
n/a 
-4.759 
n/a 
n/a 
n/a 
n/a 
-4.759 
n/a 
n/a 
n/a 
n/a 
-4.3905 -4.02 -1.934 -4.8405 -1.756 -3.352 -3.352 -5.224 -3.4715 -3.441 -2.186 -4.5205 -1.934 -3.8655 
-7.0265 -5.502 -6.5765 -5.675 -4.7135 -6.483 -8.460501 -7.748501 -6.9385 -5.6035 -5.665 -5.3865 -4.9135 
-8.307 -9.1885 -7.0505 -8.4175 -8.7425 -12.2131 -11.3476 -10.4345 -8.686501 -8.281501 -6.4355 -8.491501 
-12.3097 -9.693 -10.5325 -12.9163 -14.6364 -15.1002 -14.0336 -12.4971 -11.5695 -9.030001 -9.7755 
-12.8142 -13.1374 -15.0313 -18.8102 -17.5235 -17.7862 -16.0962 -15.3801 -12.318 -12.6784 
-3.851 -1.7695 -3.922 -1.934 -4.02 -1.934 -4.167 0 -1.756 -5.224 -3.4985 -2.264 -3.4715 -2.186 -1.934 -3.685 -1.934 -3.849 -4.167 0 
-4.0015 -4.5985 -4.558 -6.1145 -5.502 -5.9285 -4.167 -1.756 -6.544 -8.309501 -5.8995 -5.5845 -5.35 -4.0835 -6.449 -5.3835 -5.1105 -6.894 -4.167 
-7.359 -6.31 -7.0765 -7.675 -8.525001 -5.9285 -5.3535 -6.544 -9.1995 -11.2277 -9.116 -7.92 -7.2965 -8.6785 -8.757501 -8.526 -7.2455 -6.894 
-7.5335 -8.788 -8.250501 -10.609 -8.525001 -6.8235 -11.2565 -9.1995 -11.8091 -14.4442 -11.4763 -10.0675 -12.4085 -10.265 -11.9998 -11.09 -7.2455 
-9.285 -10.1945 -11.3051 -10.609 -9.264501 -13.1057 -13.912 -11.8091 -15.0256 -16.8045 -13.6238 -15.2417 -13.995 -13.5073 -14.5638 -11.09 
-3.922 -1.7565 -4.02 -1.934 -4.167 -1.756 -4.0165 -6.1775 -2.674 -4.172 -1.7695 -6.134501 -1.7565 -3.4715 -1.934 -3.3715 -4.167 0 
-5.2335 -5.4345 -5.502 -5.9285 -5.3535 -5.184 -8.927 -7.968 -5.749 -4.8625 -7.823 -7.096001 -4.699 -5.327 -4.622 -6.4975 -4.167 
-7.7685 -7.047501 -8.525001 -6.8235 -8.113501 -9.790001 -10.209 -9.603001 -5.9315 -9.383501 -8.599501 -9.144501 -6.0905 -7.792 -7.0105 -6.4975 
-8.703 -9.247001 -9.264501 -9.458501 -13.4615 -10.663 -11.9866 -9.6455 -10.3475 -9.981501 -10.647 -10.4195 -8.638 -9.767 -7.0105 
-9.925 -10.0075 -12.0825 -15.2021 -14.3345 -13.2286 -12.0291 -14.0237 -10.586 -12.0034 -11.922 -13.0214 -10.7175 -9.767 
-3.922 -1.7565 -3.2875 -2.229 -4.9225 -4.9595 0 -1.756 -4.698 -5.8925 -2.0935 -3.2775 -2.3335 -4.2895 -3.4715 -3.4985 -2.7415 -3.325 -1.934 -4.042 0 
-5.2335 -5.6125 -4.958 -7.3105 -10.3675 -4.9595 -1.756 -6.33 -12.1205 -7.809501 -4.911 -4.922 -7.701 -8.467501 -6.6505 -6.444 -5.7585 -6.534 -6.1065 -4.042 
-9.59 -7.329 -10.3475 -13.0949 -10.3675 -6.463 -6.33 -14.1795 -14.0375 -11.0788 -8.2775 -10.411 -12.1916 -11.9525 -9.31 -9.5675 -9.0625 -11.3379 -6.1065 
-11.3861 -12.9543 -16.1319 -13.0949 -11.871 -11.7642 -14.1795 -16.0965 -17.3068 -14.4453 -13.7521 -15.0332 -15.6766 -14.612 -12.5491 -12.9871 -13.9568 -11.3379 
-17.0114 -18.7387 -16.1319 -14.5984 -17.1722 -19.6137 -16.0965 -19.3658 -20.6733 -19.9199 -18.3743 -18.5182 -18.3361 -17.8511 -15.9687 -17.8814 -13.9568 
