-4.759 
n/a 
n/a 
n/a 
n/a 
-4.759 
n/a 
n/a 
n/a 
n/a 
-4.759 
n/a 
n/a 
n/a 
n/a 
-4.759 
n/a 
n/a 
n/a 
n/a 
-5.1845 -3.1385 -3.9785 -3.994 0 -2.5195 -3.5455 -4.28 -3.873 -2.925 -4.0555 -2.5195 -4.28 -1.7695 -3.502 -3.8735 -2.5045 -3.135 -3.6785 0 
-7.4095 -7.847001 -7.717 -3.994 -2.5195 -5.71 -5.0385 -8.3485 -6.496 -5.4845 -5.0775 -6.629001 -6.4115 -5.535 -6.2275 -6.3415 -5.304 -5.9515 -3.6785 
-12.4944 -12.2773 -7.717 -6.884 -5.71 -7.0935 -9.2735 -11.6985 -8.719501 -6.276501 -8.8035 -7.875501 -9.120501 -7.982 -8.7005 -9.456501 -7.6525 -5.9515 
-16.9247 -12.2773 -9.8325 -9.2735 -7.0935 -11.8431 -13.5149 -13.922 -9.4455 -10.31 -9.933001 -10.01 -12.2111 -10.194 -11.8831 -11.8642 -7.6525 
-16.9247 -14.3928 -12.5902 -11.3288 -11.8431 -16.0845 -15.7384 -14.648 -13.6132 -11.6183 -12.0675 -13.4812 -14.4231 -13.3766 -14.2908 -11.8642 
-1.4985 -3.571 -4.77 -2.186 -5.1845 -3.1385 -2.186 -4.0225 -2.5195 -3.9785 -3.994 0 -3.5455 -3.8735 -3.4425 0 
-6.7215 -6.962501 -6.257 -8.139501 -7.4095 -5.6995 -5.1295 -5.119 -6.4785 -7.717 -3.994 -3.5455 -6.514501 -8.0305 -3.4425 
-10.414 -7.757 -12.9711 -10.7271 -9.322001 -8.7735 -6.128 -8.9245 -8.6385 -7.717 -6.561 -6.514501 -11.3461 -8.0305 
-11.2085 -15.0121 -15.5587 -12.6396 -12.5636 -9.5935 -10.0575 -11.4597 -8.6385 -10.1815 -10.041 -11.3461 -11.3461 
-18.4636 -17.5997 -17.4712 -15.8812 -13.3836 -13.8252 -12.5927 -11.4597 -11.5518 -13.7905 -14.957 -11.3461 
-3.571 -2.9635 -3.644 -2.3335 -3.1385 -3.0695 -4.0555 -2.5195 -3.7745 -3.994 -1.756 -3.5455 -4.1865 -3.873 -1.934 -1.4985 -2.95 -3.6435 -1.7695 -3.502 -3.8735 -2.4945 -5.1845 -3.1385 0 
-6.401 -7.6215 -4.989501 -4.9375 -4.286 -5.5715 -5.0775 -5.9975 -5.482 -5.313 -5.308001 -6.670501 -6.962 -5.468 -2.6125 -3.9285 -6.219501 -5.6425 -5.535 -6.2275 -6.502501 -8.5895 -7.4095 -3.1385 
-9.857 -8.609 -7.3605 -6.051 -6.860001 -6.685 -8.3835 -7.139 -6.6405 -7.0895 -8.3885 -10.2892 -8.5315 -6.0585 -5.674 -6.820001 -8.5175 -9.353001 -7.982 -8.7375 -12.8747 -10.1905 -7.4095 
-10.332 -10.749 -8.245501 -9.0045 -7.9715 -9.302501 -9.079 -8.163 -8.2545 -11.9638 -12.214 -11.8587 -9.265 -9.198501 -8.158501 -9.404 -12.406 -11.907 -10.621 -15.2073 -14.4757 -10.1905 
-12.472 -11.634 -11.3176 -9.9615 -10.6335 -10.0355 -9.631001 -10.1675 -13.1484 -15.7893 -13.7835 -12.5922 -12.5266 -12.1066 -10.6145 -13.2779 -14.96 -14.546 -17.0908 -16.8083 -14.4757 
-1.4985 -2.8965 -3.992 -2.186 -2.3335 -1.4985 -8.27 -3.0695 -3.152 -1.934 -3.5455 -3.8735 -3.193 -2.3345 -3.193 -3.9535 -4.0225 -1.7695 -3.502 -3.8735 0 
-3.928 -6.9855 -5.739 -3.9765 -3.3515 -9.271501 -9.8105 -4.8015 -4.9115 -4.8495 -6.514501 -7.759 -5.4175 -5.5015 -6.8675 -6.7915 -4.9235 -5.535 -6.2275 -3.8735 
-8.404 -8.936001 -6.521 -4.788 -11.3633 -10.635 -11.7361 -6.3035 -8.1575 -7.274001 -10.31 -9.874001 -5.8765 -10.096 -10.281 -7.6215 -7.673 -7.982 -6.2275 
-9.329 -9.455001 -7.293 -12.8842 -12.7268 -12.5606 -13.2381 -10.041 -10.5125 -11.1909 -12.425 -10.0925 -10.485 -13.5095 -11.1956 -10.626 -10.838 -7.982 
-9.548 -10.183 -15.5166 -14.2477 -14.6524 -14.0626 -16.9756 -12.5114 -14.8442 -13.3059 -12.6435 -14.701 -13.8985 -14.4241 -14.2001 -13.791 -10.838 
