-4.759 
n/a 
n/a 
n/a 
n/a 
-4.759 
n/a 
n/a 
n/a 
n/a 
-4.759 
n/a 
n/a 
n/a 
n/a 
-4.759 
n/a 
n/a 
n/a 
n/a 
-2.7295 -2.7765 -3.6785 -2.3335 -4.943 -3.8755 -2.3345 -8.27 -3.402 -2.264 -1.4985 -4.77 0 -4.518 -1.756 -3.9675 -1.7565 -8.27 -2.4945 -3.849 -1.4985 -8.27 0 -4.5635 0 
-4.065 -5.237 -4.529 -8.346001 -7.772501 -4.4955 -9.927501 -12.0988 -3.793 -2.9195 -5.73 -4.77 -4.518 -5.771 -4.942 -5.258 -9.440001 -9.5465 -5.410501 -4.7705 -9.271501 -8.27 -4.5635 -4.5635 
-6.2145 -5.9615 -10.147 -11.5767 -8.187501 -12.6329 -13.7563 -12.4898 -4.34 -7.098501 -5.73 -10.335 -5.771 -9.132 -6.232 -13.7115 -10.7751 -12.4959 -6.624001 -12.4417 -9.271501 -13.2603 -4.5635 
-6.645 -11.7463 -13.6205 -11.9917 -16.6341 -16.4617 -14.1473 -13.0368 -8.484501 -7.098501 -12.0272 -11.588 -9.132 -9.686501 -15.2155 -15.0466 -13.7245 -13.7094 -14.515 -12.4417 -14.244 -13.2603 
-12.3912 -15.2198 -14.0355 -20.4383 -20.4629 -16.8527 -14.6943 -17.1813 -8.484501 -13.6007 -13.2802 -14.949 -9.686501 -18.7944 -16.5506 -17.996 -14.938 -21.6004 -14.515 -17.4142 -14.244 
-2.3345 -1.4985 -3.793 -1.756 -3.402 -2.264 -5.1845 -3.9675 0 -2.7835 -1.4985 -4.3615 -2.742 -2.489 -4.723 -2.3345 -8.35 -2.4265 -2.742 -2.489 -3.849 -2.5045 -8.35 -4.3615 
-3.233 -4.582 -4.9 -5.797 -3.793 -7.422001 -8.286 -3.9675 -2.7835 -3.7575 -5.6615 -7.0185 -3.301 -5.6415 -6.059 -9.892 -11.2921 -4.095 -3.301 -5.125 -6.305 -11.7719 -13.2271 
-6.764 -5.525 -8.859 -5.91 -9.594501 -9.958501 -8.286 -6.976501 -3.7575 -8.079 -7.542 -7.187 -6.4785 -7.3005 -14.2063 -12.9561 -12.9606 -4.601 -6.0155 -6.962501 -15.676 -16.649 
-7.851 -9.5705 -8.9235 -12.1473 -12.2186 -9.958501 -11.5652 -8.059501 -8.079 -10.4935 -7.718 -10.238 -8.092001 -15.8538 -17.2704 -14.6246 -13.4666 -7.155 -7.900001 -16.7405 -20.5531 
-12.1351 -9.630501 -15.3196 -14.7714 -12.2186 -13.2765 -12.6482 -12.5632 -10.4935 -10.6695 -10.9026 -11.8515 -16.8349 -18.9179 -18.9389 -15.1306 -16.0206 -8.981501 -17.9502 -21.6176 
-2.7835 -1.4985 -4.943 -3.5795 -5.1845 -3.9675 0 -5.1845 -3.5125 0 -1.4985 -5.3535 -2.4945 -3.849 -5.1845 -4.943 0 
-3.7575 -6.263 -7.743501 -9.265501 -8.286 -3.9675 -5.1845 -8.8055 -3.5125 -1.4985 -7.3655 -7.203001 -5.410501 -8.881001 -10.884 -4.943 
-8.881001 -9.13 -14.0881 -12.4542 -8.286 -8.604 -8.8055 -8.8055 -5.2615 -7.3655 -8.506001 -10.172 -10.7361 -14.8201 -10.884 
-12.0874 -15.5868 -17.2768 -12.4542 -9.476501 -12.69 -8.8055 -9.684501 -9.75 -8.506001 -11.5448 -15.4976 -16.6752 -14.8201 
-18.5442 -18.7755 -17.2768 -13.6447 -14.1847 -12.69 -9.684501 -14.741 -12.5521 -11.5448 -16.8704 -21.4367 -16.6752 
-1.4985 -4.8255 -3.43 -3.5455 -5.1845 -3.793 0 -5.1845 -3.9675 -1.756 -3.8535 -2.3345 -5.1845 -3.1385 -2.4945 -4.1205 -2.5045 -5.1845 -6.77 -2.229 -4.8255 
-5.955501 -7.5755 -5.916 -9.959001 -10.459 -3.793 -5.1845 -8.286 -4.9775 -5.8715 -5.069 -7.449 -7.4095 -4.588 -5.191 -5.3175 -8.208 -11.046 -8.627501 -6.807 
-8.787001 -9.125 -12.7723 -15.4201 -10.459 -9.870001 -8.286 -9.0775 -10.2085 -7.5975 -9.986 -9.604 -8.7805 -7.752 -6.498 -11.5802 -14.2797 -12.9035 -13.3971 
-10.2435 -16.0733 -18.2334 -15.4201 -16.536 -13.2799 -9.0775 -14.5175 -11.9345 -12.8335 -12.4044 -11.238 -12.1619 -9.085 -12.7649 -17.6519 -16.1372 -17.6731 
-17.2694 -21.5344 -18.2334 -21.4971 -19.9459 -14.0714 -14.5175 -16.2435 -17.1705 -15.2519 -14.0384 -14.6194 -13.4949 -15.3985 -18.8366 -19.5094 -20.9068 
