-4.759 
n/a 
n/a 
n/a 
n/a 
-4.759 
n/a 
n/a 
n/a 
n/a 
-4.759 
n/a 
n/a 
n/a 
n/a 
-4.759 
n/a 
n/a 
n/a 
n/a 
-3.0365 -2.4945 -4.386 -1.7565 -4.0865 -1.756 -4.395 -2.3335 -3.0785 -1.934 -5.5335 -2.674 -3.1125 -4.09 
-3.688 -5.79 -4.539 -5.874001 -5.302 -6.125 -6.25 -5.337 -5.132 -7.960001 -8.804001 -3.6315 -5.3325 
-5.804 -5.8125 -8.418 -6.945001 -8.058001 -7.6835 -8.5785 -7.3275 -11.9826 -11.5545 -9.7425 -5.7135 
-5.8255 -9.464001 -9.377001 -9.505001 -9.475 -9.694 -10.281 -14.4801 -15.5771 -12.493 -11.9323 
-9.466001 -10.616 -12.0984 -10.3175 -11.7379 -11.4623 -17.5154 -18.0746 -16.5156 -14.6828 
-3.3715 -3.841 -7.544 -3.6055 -3.193 -2.0935 -5.5335 0 
-7.788 -12.3172 -11.8593 -4.658 -5.0615 -7.688 -5.5335 
-16.886 -16.6325 -12.9118 -6.1985 -11.2324 -7.688 
-21.2013 -17.685 -14.4523 -13.2374 -11.2324 
-22.2538 -19.2255 -21.4912 -13.2374 
-3.0365 -2.4945 -3.948 -4.0865 -1.756 -4.291 -4.901 -2.0935 -5.5335 0 
-3.688 -5.9905 -7.004001 -5.302 -6.054 -8.411001 -6.701 -7.688 -5.5335 
-6.0655 -9.1005 -7.965001 -8.6245 -10.223 -10.1725 -12.7799 -7.688 
-9.179001 -10.2235 -11.5781 -13.3201 -11.9703 -16.2514 -12.7799 
-10.504 -14.1016 -16.2737 -15.0674 -18.0492 -16.2514 
-3.948 -4.395 -1.756 -4.4925 -2.4945 -3.074 -4.296 -2.0935 -5.5335 0 
-7.097 -5.561 -5.0445 -7.25 -4.4205 -6.2885 -5.956 -7.688 -5.5335 
-8.0045 -7.502 -7.74 -9.0865 -7.4875 -8.0885 -12.0591 -7.688 
-10.1427 -10.2805 -9.8915 -12.2929 -8.838 -14.3334 -12.0591 
-12.9212 -12.432 -13.2815 -13.6434 -15.0815 -14.3334 
