-4.759 
n/a 
n/a 
n/a 
n/a 
-4.759 
n/a 
n/a 
n/a 
n/a 
-4.759 
n/a 
n/a 
n/a 
n/a 
-4.759 
n/a 
n/a 
n/a 
n/a 
-1.4985 -3.6765 -2.186 -5.6095 -2.356 -5.8135 -4.4205 -2.0935 -5.9675 -1.4985 -4.269 -1.934 -3.091 -3.452 0 
-4.501 -5.1445 -7.335501 -8.287001 -8.979 -9.953501 -6.841001 -7.003 -6.5655 -5.71 -5.609 -4.2105 -5.5575 -3.452 
-5.778 -9.679 -9.4995 -15.1552 -13.4298 -12.374 -12.1087 -7.7845 -11.251 -7.177001 -8.150001 -6.003 -5.5575 
-10.2125 -12.0338 -16.4307 -19.606 -15.8503 -17.6417 -12.8902 -12.7478 -12.718 -9.424001 -10.4945 -6.003 
-12.5673 -18.965 -20.8815 -22.0265 -21.118 -18.4232 -17.8535 -14.2148 -14.965 -11.8767 -10.4945 
-2.0935 -3.1495 -5.1105 -2.9805 -3.881 -2.9705 -3.8755 -3.8035 -3.9225 -3.237 0 -2.9805 -2.7415 -5.6095 -4.4205 -2.0935 -5.232 -3.1385 -1.7695 -3.013 -1.4985 -8.3085 -1.934 -3.091 -3.452 0 
-4.7405 -7.3955 -7.5135 -8.005501 -7.265501 -6.554 -7.384501 -6.8855 -6.9255 -3.237 -2.9805 -4.004 -6.633 -8.830501 -6.841001 -6.9455 -6.9855 -4.6115 -3.7215 -4.488 -9.81 -9.6055 -4.2105 -5.5575 -3.452 
-9.3315 -9.874001 -12.8165 -11.6048 -10.7495 -8.998501 -10.2595 -10.0925 -6.9255 -6.809501 -4.004 -7.480501 -9.398001 -9.745001 -12.0512 -8.648001 -7.087501 -6.321 -5.038 -12.942 -11.335 -11.986 -6.003 -5.5575 
-11.9564 -15.177 -16.4158 -15.0888 -13.194 -12.1277 -13.5643 -10.0925 -11.5558 -7.9665 -7.480501 -10.316 -10.349 -14.9552 -13.7537 -8.708 -8.5065 -7.193501 -13.2749 -13.5599 -13.0968 -13.2198 -6.003 
-17.2594 -18.7763 -19.8998 -17.5333 -16.3232 -15.4325 -13.5643 -14.7228 -12.7128 -11.5732 -10.316 -11.3652 -15.5592 -16.6577 -13.8137 -10.1515 -9.738501 -16.029 -13.908 -15.9757 -14.2928 -13.2198 
-2.0935 -2.5685 -3.1495 -3.594 -2.9805 -2.7415 -5.6095 -2.0935 -5.8135 -4.4205 0 
-3.987 -4.8995 -5.984 -6.514 -4.004 -6.633 -6.352 -8.665501 -9.953501 -4.4205 
-6.3065 -7.6215 -8.524 -7.683 -7.480501 -7.818501 -13.9018 -12.9849 -9.953501 
-9.384001 -9.794001 -9.885 -11.4961 -8.743001 -15.5625 -18.2212 -12.9849 
-11.6353 -11.3502 -13.6981 -12.7586 -16.578 -19.8819 -18.2212 
-2.3615 -4.5375 -2.7415 -3.264 -1.7695 -6.383 -6.5055 0 -3.0415 -2.4265 -2.7415 -5.5845 -2.356 -3.9905 -1.7565 -5.8135 -4.4205 0 
-6.228 -6.860001 -5.7545 -4.908 -6.761001 -13.9225 -6.5055 -3.0415 -4.551 -3.681 -7.118501 -6.870501 -6.4115 -4.9935 -7.218 -9.953501 -4.4205 
-7.8075 -10.0445 -6.2895 -9.654 -14.5321 -13.9225 -9.0375 -4.551 -5.7 -9.0135 -8.220501 -10.6465 -7.4035 -9.7095 -11.9724 -9.953501 
-11.1426 -10.136 -11.6919 -17.5011 -14.5321 -16.4545 -10.772 -5.7 -11.4567 -9.903001 -12.1293 -11.6385 -12.4415 -14.5171 -11.9724 
-11.2341 -15.857 -19.539 -17.5011 -17.0641 -18.189 -11.921 -11.4567 -12.3462 -13.9434 -13.1213 -16.6765 -17.2491 -14.5171 
