-4.759 
n/a 
n/a 
n/a 
n/a 
-4.759 
n/a 
n/a 
n/a 
n/a 
-4.759 
n/a 
n/a 
n/a 
n/a 
-4.759 
n/a 
n/a 
n/a 
n/a 
-3.5085 -3.264 -1.7565 -4.698 -5.715 -2.4945 -3.643 
-4.98 -3.6125 -5.5475 -10.9575 -7.493 -7.245 
-5.0055 -9.154501 -12.1592 -12.7355 -12.4855 
-10.3815 -16.3682 -13.9372 -17.728 
-17.5952 -18.1462 -18.9297 
-3.264 -4.698 -4.66 -2.4945 -3.643 0 
-10.1765 -8.009001 -6.166 -7.245 -3.643 
-13.4875 -9.3955 -9.913501 -7.245 
-14.874 -13.679 -9.913501 
-19.1575 -13.679 
-3.0365 -2.4945 -2.789 -5.133 -5.8355 
-3.688 -6.342501 -8.621 -7.3525 
-6.864501 -12.6639 -10.733 
-13.4623 -14.7759 
-15.5743 
-4.698 -5.8355 -3.264 -2.186 -3.643 0 
-7.938001 -9.482 -5.153501 -6.802501 -3.643 
-12.4661 -11.8309 -8.771501 -6.802501 
-14.815 -15.4489 -8.771501 
-18.433 -15.4489 
