-4.759 
n/a 
n/a 
n/a 
n/a 
-4.759 
n/a 
n/a 
n/a 
n/a 
-4.759 
n/a 
n/a 
n/a 
n/a 
-4.759 
n/a 
n/a 
n/a 
n/a 
-12.16972 -8.245001 0 -4.1865 -9.0275 -3.4075 -3.9035 -2.0935 -4.1665 
-20.41472 -8.245001 -4.1865 -14.5456 -12.7174 -6.542001 -5.5085 -6.397 
-20.41472 -12.8743 -14.5456 -18.2355 -15.8519 -7.272 -9.6945 
-25.04402 -23.2334 -18.2355 -21.37 -16.5819 -12.0656 
-35.40312 -26.9233 -21.37 -22.1 -21.3755 
-2.9805 -4.6045 -3.4075 -3.9035 -3.54 -3.5215 -2.5195 -4.1865 -3.5435 0 
-8.535501 -8.538501 -6.542001 -7.3585 -5.189 -6.1955 -6.6505 -6.517 -3.5435 
-12.6883 -12.0566 -9.810501 -8.993 -7.7555 -10.702 -8.906 -6.517 
-16.2064 -15.3251 -11.445 -10.758 -12.5382 -12.9575 -8.906 
-19.4749 -16.9596 -13.21 -16.7453 -14.7937 -12.9575 
-3.54 -3.5215 -4.1865 -3.5435 -3.4075 -3.9795 -2.0935 -4.609 
-5.189 -7.8735 -6.517 -6.6165 -6.398001 -5.1125 -6.582 
-10.7025 -10.5855 -10.085 -9.457001 -7.051001 -8.669001 
-13.4145 -14.1535 -13.0297 -9.712001 -10.9763 
-16.9825 -17.0982 -13.2847 -13.9247 
-3.54 -3.5215 0 -3.8735 -7.997 -1.7565 -3.4075 -3.9035 
-5.189 -3.5215 -3.8735 -12.8625 -8.519501 -5.009 -6.542001 
-5.189 -6.778 -12.8625 -13.385 -12.224 -8.288501 
-9.824 -16.9566 -13.385 -17.0895 -15.5035 
-20.4352 -17.4791 -17.0895 -20.369 
