-4.759 
n/a 
n/a 
n/a 
n/a 
-4.759 
n/a 
n/a 
n/a 
n/a 
-4.759 
n/a 
n/a 
n/a 
n/a 
-4.759 
n/a 
n/a 
n/a 
n/a 
-12.16972 0 -4.0215 -3.4715 0 -3.1495 -5.4775 -5.079 -4.562 0 -3.693 -1.7695 -4.029 0 
-12.16972 -4.0215 -8.110001 -3.4715 -3.1495 -9.8505 -11.6905 -10.4345 -4.562 -3.693 -5.294 -6.882 -4.029 
-16.19122 -8.110001 -8.110001 -7.179 -9.8505 -16.1457 -17.046 -10.4345 -9.5755 -5.294 -10.8147 -6.882 
-20.27972 -8.110001 -13.1395 -14.388 -16.1457 -21.5012 -17.046 -15.448 -11.1977 -10.8147 -10.8147 
-20.27972 -13.1395 -20.3485 -20.6832 -21.5012 -21.5012 -22.0595 -17.0702 -16.7184 -10.8147 
-12.16972 0 -3.6485 -3.2895 0 0 -2.4265 -4.0935 -3.3755 -1.7695 -4.052 -3.7435 -4.0395 0 -4.985 -3.711 -3.638 
-12.16972 -3.6485 -7.3835 -3.2895 0 -2.4265 -5.351 -8.8095 -3.992 -4.393 -7.7865 -6.875501 -4.0395 -4.985 -9.065001 -8.5235 
-15.81822 -7.3835 -7.3835 -3.2895 -2.4265 -5.351 -9.5115 -10.27 -6.374001 -8.22 -10.597 -6.875501 -9.172501 -9.065001 -14.3747 
-19.55322 -7.3835 -7.3835 -6.365001 -5.351 -9.5115 -11.0608 -12.9718 -9.863001 -11.0831 -10.597 -12.3563 -13.3369 -14.3747 
-19.55322 -7.3835 -11.6034 -9.087501 -9.5115 -11.0608 -13.7626 -16.4608 -12.9085 -11.0831 -16.0778 -16.5207 -18.6466 
-3.7595 -2.264 -4.0215 0 -3.7595 -2.186 -2.7455 -4.3905 -6.752501 -1.7565 -1.4985 -3.7435 -2.3345 -5.079 -1.756 -5.6255 -3.711 -2.229 -6.634 -5.8585 0 
-6.02 -6.83 -4.0215 -3.7595 -5.991 -4.686 -6.9265 -12.3868 -7.968 -2.4195 -4.5515 -6.1295 -8.153 -6.159 -6.87 -10.0925 -4.225 -8.2215 -10.2645 -5.8585 
-9.972501 -6.83 -7.6175 -5.991 -7.802001 -8.1975 -15.3258 -13.6023 -8.484501 -5.278501 -6.753 -12.62 -9.271 -12.1362 -11.7224 -10.157 -8.601001 -12.4756 -10.2645 
-9.972501 -11.203 -10.41 -7.802001 -11.3827 -16.8638 -16.5413 -14.1188 -11.5933 -7.37 -13.5861 -13.738 -15.3536 -16.9886 -11.7869 -15.3094 -13.3745 -12.4756 
-14.3611 -13.9955 -12.221 -11.3827 -20.049 -18.0793 -17.0578 -17.2276 -13.6848 -14.4477 -14.7041 -19.8206 -20.206 -17.0531 -16.9393 -20.0829 -13.3745 
-3.6485 -3.32 0 -2.3615 -2.4945 -3.7435 -5.0405 -3.922 -3.8725 -1.7695 -3.6485 -4.029 0 -3.711 -3.519 -3.922 -4.029 -3.9285 0 
-7.689 -3.32 -2.3615 -5.783 -7.551001 -9.369 -9.586 -8.488 -5.509 -5.719501 -8.8835 -4.029 -3.711 -8.045501 -7.3395 -9.1225 -8.814501 -3.9285 
-7.689 -6.1295 -5.783 -10.76 -13.5453 -14.0365 -14.2748 -10.4675 -10.4675 -11.6337 -8.8835 -7.901 -8.045501 -12.2884 -12.6742 -14.197 -8.814501 
-10.1465 -10.485 -10.76 -16.7543 -18.2128 -18.7253 -16.2543 -15.426 -16.3817 -11.6337 -12.9215 -12.7505 -12.2884 -17.6231 -17.7487 -14.197 
-14.502 -15.7862 -16.7543 -21.4218 -22.9016 -20.7048 -21.2128 -21.3402 -16.3817 -15.6717 -17.771 -16.9934 -17.6231 -22.6976 -17.7487 
