-4.759 
n/a 
n/a 
n/a 
n/a 
-4.759 
n/a 
n/a 
n/a 
n/a 
-4.759 
n/a 
n/a 
n/a 
n/a 
-4.759 
n/a 
n/a 
n/a 
n/a 
-5.1845 -4.1455 -3.152 -5.288 -5.5025 -2.3345 -5.3885 -3.1385 
-7.2965 -6.423 -8.0015 -10.9575 -8.293 -8.1 -9.1225 
-10.2016 -10.126 -14.6328 -13.748 -14.2385 -12.5188 
-13.9046 -16.3649 -17.4233 -19.6935 -18.6573 
-20.1435 -19.1554 -23.3688 -24.1123 
-4.426 -1.7565 -1.4985 -3.6115 -4.7285 -4.1555 -10.6645 -1.7565 -5.3885 -3.115 -5.1845 -3.8195 -4.1455 -3.383 -3.4915 
-5.47 -2.4195 -4.081 -6.5495 -8.4455 -16.2428 -12.421 -7.235001 -9.3915 -8.456 -6.896501 -7.293 -7.671 -4.8075 
-5.9535 -5.180501 -6.670501 -9.978001 -20.965 -17.9993 -17.8995 -10.3605 -14.7767 -10.4758 -8.6315 -11.1075 -8.514501 
-8.462501 -7.797 -10.054 -22.4759 -22.7215 -23.4778 -21.025 -15.7457 -16.7965 -12.2108 -12.836 -11.951 
-10.2375 -11.2985 -22.5883 -24.2324 -28.2 -26.6033 -26.4102 -17.7655 -18.5315 -16.4153 -13.6795 
-5.965 -3.1385 -3.115 -5.1845 -7.0495 -4.1455 -3.383 -3.4915 
-9.946 -5.0605 -8.456 -10.2645 -11.136 -7.671 -4.8075 
-11.868 -10.389 -13.8438 -14.6996 -14.6615 -8.514501 
-17.1965 -16.5338 -18.2789 -18.2251 -15.505 
-23.3413 -20.9689 -21.8044 -19.0686 
-5.3885 -3.1385 -4.118 -5.1845 -3.8195 -4.1455 -3.383 -3.4915 0 
-9.1225 -6.517 -9.657 -6.896501 -7.293 -7.671 -4.8075 -3.4915 
-12.8102 -12.442 -11.6422 -8.6315 -11.1075 -8.514501 -4.8075 
-18.7352 -14.4272 -13.3772 -12.836 -11.951 -8.514501 
-20.7204 -16.1622 -17.5817 -13.6795 -11.951 
