-4.759 
n/a 
n/a 
n/a 
n/a 
-4.759 
n/a 
n/a 
n/a 
n/a 
-4.759 
n/a 
n/a 
n/a 
n/a 
-4.759 
n/a 
n/a 
n/a 
n/a 
-3.9225 -1.4985 -4.1135 -4.328 -2.4265 -2.186 -3.2955 -1.7695 -5.847 -2.985 -5.593 -3.936 -1.4985 -4.8925 
-4.463 -5.4345 -5.746 -6.7085 -3.292 -4.348001 -3.9425 -6.292 -7.5565 -9.053 -10.3105 -4.263 -5.535501 
-8.505 -7.269 -8.122001 -7.1905 -5.5295 -4.837 -7.784 -7.817 -14.3295 -13.9775 -10.6445 -7.61 
-9.264501 -9.7755 -8.585501 -9.553 -6.055501 -8.3725 -10.4675 -14.684 -19.254 -14.3115 -13.9915 
-11.8768 -10.479 -11.0778 -10.5345 -9.955501 -11.3888 -17.3345 -19.6085 -19.588 -17.6585 
-4.1145 -2.186 -4.4715 -3.2955 -2.3345 -1.4985 -5.87 -3.1385 -2.0935 -2.915 -4.23 -1.756 -5.1265 -3.458 -4.1135 -4.328 -1.756 -3.38 -4.887 0 
-6.3365 -5.7085 -6.646 -4.534 -3.233 -7.366 -7.684 -5.396501 -4.646501 -5.7415 -5.491 -6.3945 -8.328 -7.381001 -5.746 -5.294 -4.792 -7.0245 -4.887 
-9.053 -7.1225 -7.659 -5.117 -8.8395 -9.315001 -9.894501 -8.2285 -7.1 -6.54 -8.5715 -9.9835 -12.5288 -8.209001 -6.5975 -7.652 -8.295501 -7.0245 
-11.1882 -8.1 -8.475 -10.5525 -10.66 -11.7951 -12.9109 -10.7025 -7.680501 -10.5043 -12.6237 -14.4031 -13.3568 -8.465 -9.366 -11.9321 -8.295501 
-12.1657 -8.8785 -14.0353 -12.373 -13.7989 -14.8115 -15.3849 -11.283 -11.9628 -14.5565 -17.0433 -15.2311 -13.6128 -11.6597 -13.8115 -11.9321 
-4.1135 -4.328 0 -3.4075 -2.915 -1.756 -3.321 -4.91 -4.9225 -2.4945 -3.3425 -4.1145 
-5.746 -4.328 -3.4075 -6.3415 -4.266 -4.0055 -8.674 -9.1175 -6.9525 -4.8005 -7.487 
-5.746 -7.2905 -6.3415 -7.599501 -6.7445 -9.3405 -13.2899 -10.6745 -9.35 -9.361501 
-9.0165 -10.4345 -7.599501 -11.019 -12.5013 -14.0902 -14.8469 -13.072 -14.0634 
-12.2581 -11.6925 -11.019 -16.7758 -17.251 -15.6472 -17.2444 -17.7854 
-4.1145 -2.186 -3.383 -4.079 -2.0935 -3.4005 0 -2.915 -3.9445 -1.934 -1.4985 -3.38 -4.1355 
-6.3365 -4.438 -5.4065 -5.1445 -5.2895 -3.4005 -2.915 -5.7805 -5.995501 -2.6125 -4.4895 -7.05 
-8.6595 -6.259 -6.281 -8.7535 -5.2895 -6.188 -5.7805 -7.461 -6.669001 -5.736 -7.4265 
-10.155 -6.8435 -9.940001 -8.7535 -7.870501 -8.829 -7.461 -8.073501 -9.609501 -9.653001 
-10.4495 -10.634 -9.940001 -11.4941 -10.249 -11.0123 -8.073501 -10.66 -13.6021 
