-4.759 
n/a 
n/a 
n/a 
n/a 
-4.759 
n/a 
n/a 
n/a 
n/a 
-4.759 
n/a 
n/a 
n/a 
n/a 
-4.759 
n/a 
n/a 
n/a 
n/a 
-8.1485 -4.4975 -4.7595 -4.834 -3.9745 0 -6.288 -4.4905 0 -4.8085 -1.934 -3.3435 
-13.0066 -8.804501 -10.8215 -9.0965 -3.9745 -6.288 -10.674 -4.4905 -4.8085 -6.361001 -5.009501 
-17.3136 -14.9273 -15.084 -9.0965 -10.6605 -10.674 -10.674 -10.2865 -6.361001 -9.2305 
-23.4364 -19.1898 -15.084 -15.8733 -15.0465 -10.674 -16.47 -11.839 -9.2305 
-27.6989 -19.1898 -21.8608 -20.2593 -15.0465 -16.47 -18.0225 -14.7085 
-1.4985 -5.1845 -4.4975 -4.7595 -1.7695 -1.4985 -3.188 0 -1.4985 -4.4905 -1.7565 -3.8245 -1.756 -1.4985 -4.8085 -1.7565 -3.8245 
-6.5205 -10.2485 -8.804501 -6.6885 -2.7955 -3.619 -3.188 -1.4985 -5.2295 -5.283501 -5.058 -5.4125 -3.0405 -5.83 -6.021501 -5.058 
-12.2999 -14.5555 -10.7943 -7.504 -5.0595 -3.619 -5.0075 -5.2295 -5.3985 -9.098001 -6.345 -6.718 -7.229001 -6.3155 -9.4455 
-16.6069 -16.5453 -11.6098 -9.8465 -5.0595 -5.255 -8.1 -5.3985 -9.354 -10.6614 -7.548 -11.5097 -7.581501 -9.672501 
-18.5967 -17.3608 -13.9523 -9.8465 -6.719501 -8.243 -8.2915 -9.354 -10.9904 -11.8644 -12.3441 -11.8622 -10.749 
-8.1485 -4.352 -3.3435 -4.7595 0 -4.622 0 -3.8475 0 -3.043 -1.7695 -3.511 -3.3435 0 -3.554 0 -4.54 0 -3.635 0 -4.6745 0 -2.8195 0 -2.356 -4.385 
-12.8611 -7.585501 -8.1675 -4.7595 -4.622 -4.622 -3.8475 -3.8475 -3.043 -3.528 -4.633 -6.2495 -3.3435 -3.554 -3.554 -4.54 -4.54 -3.635 -3.635 -4.6745 -4.6745 -2.8195 -2.8195 -2.356 -7.085 
-16.0946 -13.1419 -8.1675 -10.0445 -4.622 -9.6055 -3.8475 -6.9705 -3.528 -6.088 -6.7025 -6.2495 -6.185 -3.554 -7.8225 -4.54 -8.495001 -3.635 -9.815001 -4.6745 -7.912 -2.8195 -5.201 -7.085 
-21.651 -13.1419 -13.2793 -10.0445 -9.6055 -9.6055 -6.9705 -7.6585 -6.088 -7.673501 -6.7025 -8.3245 -6.185 -7.8225 -7.8225 -8.495001 -8.495001 -9.815001 -9.815001 -7.912 -7.912 -5.201 -10.7226 
-21.651 -18.2537 -13.2793 -15.3136 -9.6055 -12.8233 -7.6585 -9.865001 -7.673501 -7.673501 -9.945001 -8.3245 -10.749 -7.8225 -12.2873 -8.495001 -15.0946 -9.815001 -13.0525 -7.912 -10.1225 -10.7226 
-1.4985 -3.188 -3.9745 -1.7565 -8.35 -2.7415 -4.7925 -1.934 -1.7695 -3.2495 0 -4.7885 -3.89 -1.756 -4.622 -3.89 0 -1.4985 -4.4905 -1.7565 -1.4985 -3.3435 -2.186 0 -3.554 0 -3.301 -4.7275 0 -8.531 0 -4.9505 -1.756 -4.8715 0 0 -3.3755 -1.7565 -5.938 -3.301 -2.186 -1.4985 -4.703 -1.7565 -3.9675 0 
-3.619 -7.1885 -4.5865 -10.841 -11.6071 -6.2365 -6.33 -4.0395 -5.112 -3.2495 -4.7885 -9.5 -5.46 -6.212 -9.023001 -3.89 -1.4985 -5.2295 -5.283501 -2.4195 -4.6745 -4.9685 -2.186 -3.554 -3.554 -3.301 -6.843 -4.7275 -8.531 -8.531 -4.9505 -5.9715 -6.24 -4.8715 0 -3.3755 -4.5295 -7.2615 -9.3855 -5.8455 -3.339 -5.3265 -5.335 -5.5405 -3.9675 
-8.0825 -8.748 -14.3788 -14.0981 -15.1021 -7.5345 -7.7085 -7.5905 -5.112 -7.235 -9.5 -11.1448 -10.8956 -10.9524 -9.023001 -5.6045 -5.2295 -5.3985 -5.798501 -5.873001 -7.214001 -4.9685 -5.8915 -3.554 -6.931 -6.843 -6.843 -14.2097 -8.531 -13.7679 -5.9715 -11.4731 -6.24 -4.8715 -3.3755 -4.5295 -8.0845 -10.6735 -12.079 -6.8025 -6.8025 -5.5685 -9.5395 -5.5405 
-9.507501 -18.7059 -17.6359 -17.5931 -16.4001 -9 -8.4375 -7.5905 -9.5885 -12.3549 -11.1448 -16.5804 -15.636 -10.9524 -10.6345 -9.574 -5.3985 -5.9285 -9.400001 -8.215501 -7.214001 -7.924 -5.8915 -6.931 -11.051 -6.843 -16.7672 -14.2097 -13.7679 -14.7889 -11.4731 -11.4731 -6.24 -9.223 -4.5295 -8.0845 -11.6057 -13.367 -13.036 -10.31 -7.186 -10.185 -9.5395 
-19.5088 -21.963 -21.1309 -18.8911 -17.8656 -9.708 -8.4375 -12.487 -14.8462 -13.9997 -16.5804 -21.3208 -15.636 -12.5639 -14.604 -9.8955 -5.9285 -9.588 -11.8787 -8.215501 -10.341 -7.924 -9.205 -11.051 -11.051 -16.7672 -16.7672 -19.4466 -14.7889 -20.2905 -11.4731 -11.4731 -11.0403 -10.5045 -8.0845 -11.6057 -14.2992 -14.324 -16.5435 -10.5045 -11.9339 -10.185 
