-4.759 
n/a 
n/a 
n/a 
n/a 
-4.759 
n/a 
n/a 
n/a 
n/a 
-4.759 
n/a 
n/a 
n/a 
n/a 
-4.759 
n/a 
n/a 
n/a 
n/a 
-4.347 -16.92672 
-22.85052 
n/a 
n/a 
n/a 
-2.3615 -2.186 -4.347 -5.763 -12.4355 -4.653 0 
-3.5005 -5.555 -10.3285 -19.4257 -15.2617 -4.653 
-7.372 -11.6259 -23.9912 -21.2697 -15.2617 
-13.7389 -25.2886 -25.8352 -21.2697 
-27.4016 -27.1326 -25.8352 
-4.347 -5.763 -5.072 -3.543 -4.197 -4.653 
-10.3285 -11.08 -7.5935 -5.757501 -6.4215 
-15.6455 -13.6015 -8.298 -6.776501 
-18.167 -14.306 -8.650001 
-18.8715 -14.658 
-5.763 -4.197 0 -6.116 -4.653 -4.201 
-9.8465 -4.197 -6.116 -8.762 -7.977 
-9.8465 -8.8085 -8.762 -10.66 
-15.1812 -9.7885 -10.66 
-16.1612 -11.6865 
