-4.759 
n/a 
n/a 
n/a 
n/a 
-4.759 
n/a 
n/a 
n/a 
n/a 
-4.759 
n/a 
n/a 
n/a 
n/a 
-4.759 
n/a 
n/a 
n/a 
n/a 
-3.5195 -7.2695 -3.304 -3.6765 -3.152 -4.19 -1.934 -4.889 -4.8115 -1.934 -1.8085 -8.801001 -1.934 -9.437 -1.934 -8.4635 
-10.178 -10.5565 -7.2675 -6.9935 -6.435 -5.525 -7.1155 -6.759501 -6.611 -3.2685 -11.1415 -11.1694 -10.4265 -11.136 -9.752001 
-14.4939 -14.1444 -10.7763 -9.925501 -7.568 -9.422501 -8.265501 -7.510001 -7.961 -13.5755 -13.5099 -19.6619 -12.1255 -18.954 
-17.7154 -17.7806 -13.7083 -11.0585 -12.3033 -10.076 -8.878501 -8.819 -18.6346 -15.9439 -22.0024 -21.3609 -19.9435 
-21.3516 -20.7126 -14.8413 -15.7938 -12.9568 -10.725 -10.4391 -19.7886 -21.003 -24.4364 -23.7014 -29.1789 
-3.5195 -3.1255 0 -1.934 -4.4935 -12.16972 -3.2875 -1.934 -9.384001 -5.198 -2.0935 -4.803 -3.515 -3.304 -3.499 -5.452 0 
-5.5325 -3.1255 -1.934 -5.543 -17.82162 -15.45722 -5.248 -12.3244 -14.9418 -7.0235 -6.5525 -8.9615 -7.605 -6.8195 -8.7355 -5.452 
-5.5325 -5.776 -5.543 -19.08512 -21.10912 -17.41772 -16.416 -17.8822 -16.7673 -12.1505 -11.3252 -13.3481 -10.223 -12.502 -8.7355 
-8.535 -9.425 -19.08512 -22.37262 -23.06962 -28.58572 -21.9738 -19.7077 -21.8943 -16.9232 -15.7118 -15.9661 -16.0801 -12.502 
-12.3776 -23.27672 -22.37262 -24.33312 -34.23762 -34.14352 -23.7993 -24.8347 -26.667 -21.3098 -18.3298 -21.8232 -16.0801 
-3.5195 -5.63 -3.76 -3.304 -3.1385 -3.152 -4.493 -1.934 -1.4985 -4.803 -4.889 -4.8115 -2.9705 -4.0875 -3.5015 -1.934 -1.8085 -5.62 -1.934 -6.283 -1.934 -4.4935 
-8.1785 -7.0865 -5.887 -6.2575 -5.219 -5.593 -5.1865 -2.6125 -6.269 -7.012501 -6.759501 -7.56 -5.8935 -5.143 -4.704 -3.2685 -6.64 -6.606 -7.0125 -7.967 -5.543 
-9.672001 -9.5675 -7.796 -7.7985 -6.315001 -6.176001 -6.0855 -7.693 -8.329 -8.445001 -9.067 -9.1695 -6.199 -5.692 -5.938 -7.6215 -7.3025 -9.587501 -8.476501 -8.7215 
-13.0625 -12.122 -8.6905 -8.325001 -6.896501 -6.751 -8.979 -9.5065 -9.710501 -10.647 -10.3895 -9.2295 -6.655 -7.0395 -9.481001 -8.349 -10.0675 -10.719 -9.583 
-15.2495 -13.0874 -8.9445 -8.7535 -7.467 -9.5325 -10.1725 -10.4195 -11.7895 -11.9695 -10.455 -9.936501 -8.2585 -10.292 -10.469 -11.2592 -11.199 -11.8255 
-3.5195 -3.1255 -1.8085 -4.803 -4.889 -4.8115 -1.934 -4.4935 -2.229 -6.283 -5.62 -3.304 -4.493 0 
-5.5325 -5.6815 -6.0365 -7.012501 -6.759501 -6.611 -5.543 -5.843 -8.547001 -10.4675 -9.7405 -8.031501 -4.493 
-8.58 -9.769001 -7.623 -8.445001 -7.510001 -8.460501 -6.838 -8.6815 -13.0187 -14.588 -14.511 -8.031501 
-10.76 -11.7183 -8.9875 -8.809001 -9.047001 -9.071 -8.7995 -13.2578 -17.1392 -19.3585 -14.511 
-12.7093 -13.0828 -9.5415 -10.035 -9.885501 -9.863501 -13.501 -17.3783 -21.9097 -19.3585 
