-4.759 
n/a 
n/a 
n/a 
n/a 
-4.759 
n/a 
n/a 
n/a 
n/a 
-4.759 
n/a 
n/a 
n/a 
n/a 
-4.759 
n/a 
n/a 
n/a 
n/a 
-4.617 0 -9.201 -7.9595 0 -5.943501 0 
-4.617 -9.201 -9.641 -7.9595 -5.943501 -5.943501 
-14.2122 -9.641 -9.641 -14.3408 -5.943501 
-14.6522 -9.641 -16.2749 -14.3408 
-14.6522 -16.2749 -16.2749 
-4.617 0 -10.406 -11.0555 0 -9.924001 0 
-4.617 -10.406 -21.7101 -11.0555 -9.924001 -9.924001 
-15.4172 -21.7101 -21.7101 -20.9795 -9.924001 
-26.7213 -21.7101 -31.6341 -20.9795 
-26.7213 -31.6341 -31.6341 
-4.617 -9.201 -9.0065 0 -5.943501 0 
-14.2122 -19.0167 -9.0065 -5.943501 -5.943501 
-24.0279 -19.0167 -15.5036 -5.943501 
-24.0279 -25.5138 -15.5036 
-30.525 -25.5138 
-16.78672 0 -5.943501 0 
-17.18092 -5.943501 -5.943501 
-23.12442 -5.943501 
-23.12442 
n/a 
