-4.759 
n/a 
n/a 
n/a 
n/a 
-4.759 
n/a 
n/a 
n/a 
n/a 
-4.759 
n/a 
n/a 
n/a 
n/a 
-4.759 
n/a 
n/a 
n/a 
n/a 
-3.535 -4.867 0 -3.4075 -4.2915 
-8.498 -4.867 -3.4075 -7.271501 
-8.498 -8.975 -7.271501 
-12.775 -13.1446 
-16.9446 
-3.94 -3.522 0 -3.4075 -4.2915 0 
-6.281 -3.522 -3.4075 -7.271501 -4.2915 
-6.281 -7.0505 -7.271501 -7.271501 
-9.846001 -11.6343 -7.271501 
-14.558 -11.6343 
-3.0835 -4.867 0 -3.4075 -4.2915 
-7.389 -4.867 -3.4075 -7.271501 
-7.389 -8.975 -7.271501 
-11.9286 -13.1446 
-16.0982 
-4.0885 -3.522 0 -3.4075 -4.2915 
-6.997 -3.522 -3.4075 -7.271501 
-6.997 -7.0505 -7.271501 
-11.2285 -11.6343 
-15.8123 
