-4.759 
n/a 
n/a 
n/a 
n/a 
-4.759 
n/a 
n/a 
n/a 
n/a 
-4.759 
n/a 
n/a 
n/a 
n/a 
-4.759 
n/a 
n/a 
n/a 
n/a 
-3.091 -4.196 -3.9235 -6.6575 -4.2915 -1.756 -4.0695 -2.8645 -4.6835 -4.173 -1.4985 -3.188 -1.756 -3.937 -3.1335 0 
-8.003 -7.701 -10.647 -8.196 -5.657 -5.7605 -6.683 -7.334 -7.305 -4.3745 -3.619 -4.863 -5.602 -7.739501 -3.1335 
-11.692 -14.8455 -12.1855 -8.844501 -9.0885 -8.894001 -11.6731 -8.5835 -7.5795 -5.4615 -5.0875 -8.389501 -9.069 -7.739501 
-18.8365 -16.384 -12.834 -9.215 -12.311 -13.9049 -12.9226 -8.7225 -8.646501 -6.623001 -8.574 -12.0529 -9.069 
-20.375 -17.0325 -13.2045 -12.4565 -17.3219 -15.1544 -13.0616 -8.981 -9.92 -10.673 -12.2062 -12.0529 
-1.4985 -6.6575 -4.0695 -1.756 -4.6335 -3.307 -2.9705 -2.9805 -4.0835 -2.8645 -4.7195 -2.356 -4.6835 -5.1035 -2.5685 -3.2295 -1.4985 -3.188 0 
-8.014501 -7.771 -5.371 -5.6515 -7.178 -6.1515 -4.783 -6.3 -7.731501 -5.397 -6.8095 -6.8345 -9.772501 -8.2005 -4.661 -3.844 -3.619 -3.188 
-8.379001 -9.357 -9.075001 -8.3985 -9.5135 -8.373 -7.696001 -9.5935 -10.3165 -7.48 -10.426 -12.7193 -13.1961 -9.769001 -4.894 -5.1895 -3.619 
-9.611 -13.1742 -12.3052 -10.1855 -11.834 -10.6215 -10.7175 -12.2145 -12.3995 -10.7335 -16.356 -16.1429 -14.7646 -9.870501 -5.231 -5.1895 
-13.4636 -16.4044 -14.0922 -13.0218 -14.0825 -13.643 -13.3385 -14.2975 -15.653 -16.6635 -19.7796 -17.7114 -14.8661 -10.4255 -5.231 

n/a 
n/a 
n/a 
n/a 
-4.0005 -4.6835 -3.936 -1.4985 -3.188 
-8.736 -7.348001 -4.263 -3.619 
-11.6017 -7.576001 -5.761 
-11.8297 -9.3935 
-13.6472 
