-4.759 
n/a 
n/a 
n/a 
n/a 
-4.759 
n/a 
n/a 
n/a 
n/a 
-4.759 
n/a 
n/a 
n/a 
n/a 
-4.759 
n/a 
n/a 
n/a 
n/a 
-4.3655 -3.42 -4.267 -1.7565 -3.824 
-5.636 -8.406 -6.9535 -5.688 
-10.3885 -11.3015 -11.5474 
-13.284 -15.8954 
-17.8779 
-5.1605 -3.918 -2.3345 -4.3655 -3.6185 0 
-9.0505 -5.646501 -7.139 -6.3955 -3.6185 
-9.6415 -8.734 -7.8885 -6.3955 
-13.2522 -8.806001 -7.8885 
-13.3242 -8.806001 
-3.824 -4.256 -3.3255 -4.3655 -3.6185 0 
-7.801001 -6.5485 -8.065001 -6.3955 -3.6185 
-10.1765 -11.8134 -10.004 -6.3955 
-15.4338 -13.7524 -10.004 
-17.3728 -13.7524 
-4.3655 -4.39 -5.1605 
-9.418501 -10.622 
-15.5873 
n/a 
n/a 
