-4.759 
n/a 
n/a 
n/a 
n/a 
-4.759 
n/a 
n/a 
n/a 
n/a 
-4.759 
n/a 
n/a 
n/a 
n/a 
-4.759 
n/a 
n/a 
n/a 
n/a 
-2.7835 -2.9805 -3.152 -1.4985 -3.757 -2.9805 -3.264 -2.9805 -3.1425 -4.2065 -1.4985 -3.5895 -4.404 -1.934 -5.2395 -2.0935 -3.5435 -4.9205 -1.756 -3.8935 -1.7565 -4.519 0 
-4.6105 -5.923 -4.764 -4.5435 -6.3315 -4.3595 -4.757 -4.732 -5.988 -4.732 -4.688 -6.3405 -5.652 -6.5705 -7.033 -5.575 -6.6955 -6.2335 -5.2875 -4.8605 -5.4485 -4.519 
-6.021501 -7.401 -7.852 -7.1255 -7.655 -5.476501 -5.9135 -8.406501 -6.343 -8.304501 -6.894 -7.5165 -10.3285 -9.071001 -10.0545 -8.7145 -7.822001 -8.960501 -6.1415 -8.6695 -5.4485 
-7.508501 -9.234501 -10.0435 -8.197001 -8.562 -6.542 -9.127501 -8.772 -9.441501 -9.347501 -8.156 -12.5658 -12.829 -12.2585 -13.4284 -9.7095 -10.8518 -10.647 -10.0065 -8.6695 
-9.267501 -10.451 -11.5244 -9.272 -9.249001 -9.877501 -9.411 -12.0403 -10.329 -10.635 -13.4165 -15.0663 -16.0165 -15.6324 -14.4234 -12.7257 -12.5383 -14.512 -10.0065 
-3.986 -6.832 0 -4.8785 -2.9805 -2.186 -1.4985 -3.757 0 -2.9805 -2.742 -4.2065 -1.4985 -4.277 -1.7565 -5.123 0 
-12.3612 -6.832 -4.8785 -6.802001 -4.1635 -3.339 -4.5435 -3.757 -2.9805 -4.7635 -5.714 -4.732 -6.7165 -5.850501 -8.190001 -5.123 
-12.3612 -12.1357 -6.802001 -7.982 -5.312 -6.2325 -4.5435 -6.3315 -4.7635 -8.477 -6.095 -10.4505 -8.825001 -13.3922 -8.190001 
-17.6649 -14.0592 -7.982 -9.409 -7.2605 -6.2325 -7.1255 -7.6455 -8.477 -9.041 -11.9901 -12.559 -16.6939 -13.3922 
-19.5884 -15.2392 -9.409 -11.4123 -7.2605 -8.6555 -8.807 -11.6902 -9.041 -15.0471 -14.0986 -20.4279 -16.6939 
-3.986 -3.264 -2.7835 -2.9805 -2.7415 -1.4985 -1.4985 -3.757 -2.9805 -2.742 -4.2065 -5.2395 -1.7565 -3.5435 -4.882 -1.756 -4.7095 -4.348 0 
-6.054501 -5.535 -4.6105 -4.004 -4.063 -4.935 -4.5435 -6.3315 -4.7635 -5.714 -9.4555 -5.4905 -4.913 -6.807 -6.038501 -6.291 -5.061501 -4.348 
-8.198501 -6.9905 -5.8465 -5.390501 -7.386001 -8.073 -7.1255 -7.6455 -8.477 -10.702 -9.7515 -8.847 -7.8415 -7.872001 -10.4675 -7.0395 -5.061501 
-9.538501 -8.154 -7.402501 -8.822001 -10.126 -10.749 -8.807 -11.6902 -13.7756 -10.742 -13.2622 -12.3801 -8.839001 -12.6214 -10.7025 -7.0395 
-10.566 -9.552501 -10.9866 -11.6894 -12.923 -12.4305 -12.9327 -16.9888 -13.8156 -14.2527 -16.7953 -13.3776 -13.7316 -12.8564 -10.7025 
-3.757 -1.7565 -6.138 -6.836 -3.5435 -1.7565 -9.6215 -1.934 -1.4985 -3.986 -4.7355 0 
-4.5665 -7.777501 -14.4834 -11.1807 -4.9885 -12.3272 -11.7659 -2.6125 -5.286 -8.635 -4.7355 
-11.2457 -15.8983 -18.8281 -12.6257 -16.9192 -14.4716 -12.4444 -6.726 -11.1608 -8.635 
-19.3665 -20.243 -20.2731 -24.5564 -19.0636 -15.1501 -16.5579 -12.9812 -11.1608 
-23.7112 -21.688 -32.2038 -26.7008 -19.7421 -19.2636 -22.8131 -12.9812 
