-4.759 
n/a 
n/a 
n/a 
n/a 
-4.759 
n/a 
n/a 
n/a 
n/a 
-4.759 
n/a 
n/a 
n/a 
n/a 
-4.759 
n/a 
n/a 
n/a 
n/a 
-4.426 -1.7565 -1.4985 -3.0835 -4.7285 -4.1555 -3.147 -3.8985 -1.7565 -4.4725 
-5.47 -2.4195 -3.535 -6.042 -8.4455 -5.77 -7.3975 -4.74 -6.423 
-5.9535 -4.6785 -6.335501 -9.523001 -9.541501 -9.368001 -8.290501 -9.637001 
-8.021 -7.476501 -10.0095 -10.7035 -13.1395 -10.5655 -13.3623 
-9.983001 -11.3061 -11.3 -14.3015 -14.337 -15.6373 
-4.3885 -3.3435 -3.5125 
-7.4855 -6.0675 
-9.1455 
n/a 
n/a 
-3.3435 -4.6645 0 
-8.1905 -4.6645 
-8.1905 
n/a 
n/a 
-4.4725 
n/a 
n/a 
n/a 
n/a 
