-4.759 
n/a 
n/a 
n/a 
n/a 
-4.759 
n/a 
n/a 
n/a 
n/a 
-4.759 
n/a 
n/a 
n/a 
n/a 
-4.759 
n/a 
n/a 
n/a 
n/a 
-2.5195 -1.4985 -3.9785 -1.7565 -4.602 -4.153 -3.995 -4.1455 0 -4.1115 -2.186 -1.4985 -3.784 -4.237 -2.95 
-3.1695 -4.496 -4.924 -6.552001 -5.112 -7.973001 -6.749001 -4.1455 -4.1115 -6.279 -3.339 -4.6165 -7.665 -7.9595 
-6.0535 -4.959 -9.1715 -6.637001 -8.6335 -10.9782 -6.749001 -7.849501 -6.279 -7.386 -6.113 -8.256001 -10.209 
-6.6455 -9.262501 -9.215501 -9.4545 -11.7181 -10.9782 -10.411 -11.0104 -7.386 -10.5056 -9.722501 -10.4505 
-10.5035 -9.31 -12.132 -12.7879 -11.7181 -14.6402 -13.5719 -12.1174 -10.5056 -14.1151 -11.9582 
-3.995 -5.743001 -1.756 -1.4985 -4.338 -2.5195 -4.237 0 -3.992 -3.458 -1.4985 -4.2695 -2.186 -3.6515 -2.264 0 -3.135 -3.0415 -4.025 -2.3615 -3.319 -3.6005 0 
-8.656 -7.296 -3.0405 -5.505 -7.2775 -6.236 -4.237 -3.992 -7.3595 -4.063 -5.2775 -6.725 -4.575 -4.7115 -2.264 -3.135 -6.844501 -6.6785 -6.725 -4.9575 -6.828 -3.6005 
-9.883 -8.433001 -6.6755 -9.028001 -11.3048 -6.236 -9.041 -7.3595 -7.794 -8.2755 -7.9245 -9.380001 -5.476 -4.7115 -4.988 -6.844501 -10.8607 -10.0065 -9.467 -9.7585 -6.828 
-11.7908 -12.4026 -10.1505 -13.1601 -11.3048 -11.897 -13.2849 -7.794 -10.1225 -10.287 -10.749 -10.8006 -5.476 -7.620501 -8.954 -10.8607 -14.1887 -12.7485 -14.7976 -9.7585 
-15.7604 -15.8776 -14.2826 -13.1601 -16.9658 -16.1409 -13.7194 -10.1225 -12.2802 -13.1115 -12.1696 -10.8006 -8.4385 -11.8593 -13.044 -14.1887 -16.9307 -18.0791 -14.7976 
-3.0365 -2.4945 -3.3715 -5.1415 -3.6515 -2.264 -1.7695 -4.2065 -1.4985 -3.6605 -4.7425 -2.4285 -4.2895 -2.0935 -3.6605 -4.7425 0 
-3.688 -4.846 -7.6195 -8.221001 -4.7115 -4.484 -4.563 -4.732 -4.6365 -4.8735 -6.851501 -7.035501 -5.047 -5.4635 -4.8735 -4.7425 
-4.8765 -8.8225 -9.986501 -8.340001 -6.4005 -8.0825 -5.081501 -7.8145 -6.350501 -6.947001 -12.3055 -7.454 -8.795501 -6.718 -4.8735 
-8.828501 -10.523 -10.0085 -10.4934 -9.643001 -8.5965 -8.144501 -8.838 -9.210001 -12.5398 -12.724 -11.5419 -9.2705 -6.718 
-10.533 -10.5595 -12.2523 -13.7359 -9.934 -11.7085 -9.1365 -12.2495 -14.907 -12.9583 -16.8119 -12.0169 -9.2705 
-2.264 -2.664 -4.6475 -4.1175 0 -3.1385 -2.9645 -3.741 -4.879 -1.7695 -4.221 -2.9325 -1.7695 -4.4225 -2.264 -1.8085 -3.7855 -3.193 -3.5065 -4.233 -3.772 -2.4945 -5.2985 -6.337 -2.3345 -4.318 -4.4545 0 -4.314 -1.756 -1.4985 -4.238 -5.2295 0 -4.879 -2.7765 -2.489 -3.2955 -1.7695 -3.6205 -3.772 -3.6215 -3.1495 -3.371 
-4.4375 -6.417 -7.5695 -4.1175 -3.1385 -5.328 -7.613501 -5.7955 -6.785 -4.436 -5.583 -4.604 -5.08 -6.3045 -3.5925 -4.803 -6.332001 -6.4085 -8.852001 -5.6 -5.468 -6.673 -7.581 -7.3625 -6.18 -5.856 -4.4545 -4.314 -5.6755 -3.0405 -5.068501 -6.117001 -5.2295 -4.879 -7.649 -3.495 -3.979 -3.9425 -5.2315 -7.0125 -6.859 -6.3035 -5.6625 
-7.54 -7.6175 -7.5695 -7.837501 -5.328 -10.016 -9.330501 -8.027 -8.741 -5.794 -7.298 -6.145 -6.771501 -6.9945 -6.175 -6.823501 -9.2285 -10.375 -10.0745 -7.710001 -9.255 -8.970501 -8.4745 -10.147 -7.8665 -5.856 -6.296 -5.6755 -7.076 -6.5735 -7.343 -6.117001 -10.061 -7.649 -7.888 -4.532001 -4.5435 -7.213 -7.821001 -9.200001 -9.008 -8.73 
-7.6215 -7.6175 -9.834001 -10.0785 -10.016 -10.173 -9.704 -9.6675 -10.028 -7.495 -9.659 -7.048501 -7.086 -9.7775 -7.0385 -9.672501 -10.4045 -10.4155 -10.2645 -10.4105 -10.0015 -9.6835 -10.403 -10.355 -7.8665 -8.326 -7.3235 -7.076 -8.892 -8.5425 -7.343 -10.0645 -10.409 -7.888 -8.9755 -4.9245 -7.538001 -9.521 -9.7115 -10.293 -10.1115 
-7.6215 -9.871 -10.385 -10.4025 -10.173 -10.394 -10.2215 -10.283 -10.346 -9.854 -10.3365 -7.130001 -9.9315 -9.855 -9.763 -10.405 -10.417 -10.428 -10.4255 -10.423 -10.27 -10.414 -10.4155 -10.355 -9.955501 -8.802 -9.2685 -8.892 -10.2695 -8.5425 -10.4035 -10.4095 -10.4215 -8.9755 -9.2185 -7.7815 -9.785501 -10.369 -10.3765 -10.4065 
