-4.759 
n/a 
n/a 
n/a 
n/a 
-4.759 
n/a 
n/a 
n/a 
n/a 
-4.759 
n/a 
n/a 
n/a 
n/a 
-4.759 
n/a 
n/a 
n/a 
n/a 
-1.934 -5.6925 -3.5065 -4.28 -2.7415 -4.676 -1.7695 -5.364 -1.4985 -7.125 -4.065 -4.4605 -1.934 -12.16972 -4.417 0 -4.065 -4.819 -4.9385 -12.16972 -4.417 -1.756 -3.321 -4.9385 -2.8965 -4.628 -5.939 -4.887 0 
-7.1005 -9.734 -8.868501 -7.005 -6.647 -5.3505 -5.936501 -6.2795 -9.318001 -11.7414 -7.4405 -5.1425 -15.11012 -16.58672 -4.417 -4.065 -9.301001 -8.497001 -18.13902 -16.58672 -5.9025 -4.0055 -7.7155 -8.705001 -8.2565 -5.9615 -11.1415 -4.887 
-10.2435 -15.1116 -9.842501 -10.4595 -6.83 -10.0559 -6.564001 -14.696 -14.4294 -15.1169 -8.620501 -20.05542 -19.52712 -16.58672 -8.9615 -9.301001 -13.011 -21.92332 -22.55602 -18.07222 -8.252001 -8.4285 -11.8622 -14.1714 -8.705501 -11.225 -11.1415 
-15.6211 -16.0856 -13.551 -10.6485 -11.7248 -10.6834 -15.1737 -19.8074 -17.8049 -16.2969 -23.94522 -24.47242 -19.52712 -21.13122 -14.6379 -13.011 -26.43732 -26.34032 -24.04152 -20.42172 -12.8164 -12.5954 -17.3286 -14.6204 -14.2246 -11.225 
-16.5951 -19.7941 -13.74 -15.5433 -12.3523 -19.2931 -20.2851 -23.1829 -18.9849 -31.62162 -28.36222 -24.47242 -24.07162 -26.80762 -18.3479 -26.43732 -30.85432 -27.82582 -26.39102 -24.98612 -16.9833 -18.0618 -17.7776 -20.1395 -14.2246 
-1.934 -5.6925 -6.66 -3.5745 -2.6165 -3.9915 -1.4985 -4.335 -1.7695 -3.873 -2.264 -1.4985 -7.7165 -2.4265 -3.43 -1.4985 -4.065 -1.7695 -4.544 -1.4985 -12.16972 -1.756 -1.4985 -2.8965 -4.088 -1.7565 -1.4985 -4.675 -3.4425 
-7.1005 -12.9781 -10.389 -4.114 -5.161 -4.907 -5.249001 -5.5565 -5.5015 -5.824 -2.9195 -8.6815 -9.146 -5.461 -4.7635 -4.824 -7.098001 -5.208 -5.429 -14.76202 -13.92572 -3.0405 -3.928 -5.4645 -5.4975 -2.4195 -5.72 -7.2085 
-14.8633 -16.7071 -10.7615 -6.436 -5.9015 -8.479 -6.6825 -8.743 -6.678 -6.371 -8.786 -9.571001 -11.776 -6.633 -8.1505 -7.293 -9.8065 -5.7495 -19.33032 -16.51802 -15.21022 -5.035 -7.0815 -6.824 -6.727 -6.990001 -8.56 
-18.5923 -17.0796 -13.0835 -7.2585 -9.6145 -8.587001 -9.185 -9.559 -7.160501 -11.5595 -10.4275 -12.4117 -13.1652 -9.818001 -10.76 -9.838 -10.2725 -19.70322 -21.08632 -17.80252 -17.20472 -8.4775 -8.7255 -8.061001 -11.8191 -9.530001 
-18.9648 -19.4016 -13.906 -10.5125 -9.7095 -10.5745 -10.186 -9.942 -12.8737 -13.2577 -13.3805 -13.7145 -16.4802 -12.5963 -13.305 -10.3195 -24.22622 -21.45922 -22.37082 -19.79702 -20.64722 -9.882 -9.519 -13.5223 -14.3591 
-2.5045 -5.6925 -6.6585 -2.7415 -5.3905 -2.5195 -12.16972 -1.7695 -4.065 -3.4985 0 
-9.1385 -12.9766 -9.5905 -7.083 -6.391 -15.36282 -13.93922 -6.2135 -7.64 -3.4985 
-16.4496 -15.9086 -14.0284 -7.902501 -19.57292 -17.13232 -18.38322 -8.892 -7.64 
-19.3816 -20.3465 -14.8479 -21.15442 -21.34242 -21.57632 -21.06172 -8.892 
-23.8195 -21.166 -28.09982 -22.92392 -25.78642 -24.25482 -21.06172 
-1.934 -5.6925 -3.5065 -8.971001 -3.5745 -2.6165 -3.9915 -7.746 -1.7695 -2.9645 -1.4985 -10.437 -5.072 0 -1.4985 -7.746 -3.0835 -4.9385 -10.437 -1.756 -3.321 -2.8965 -4.1115 -4.675 -3.8195 -1.7565 -6.6585 
-7.1005 -9.734 -13.5195 -12.8905 -4.114 -5.161 -12.8433 -9.3585 -3.812 -3.957 -13.0293 -15.6208 -5.072 -1.4985 -8.2875 -10.7495 -7.706 -16.4063 -12.3048 -4.0055 -6.6315 -7.074 -6.957001 -7.698 -4.542 -8.343 
-10.2435 -19.7626 -17.439 -13.43 -6.436 -14.406 -14.4558 -11.4304 -4.58 -15.807 -18.2131 -15.6208 -6.8235 -8.2875 -11.408 -15.372 -19.5746 -18.2741 -14.5543 -7.4085 -11.0804 -10.3815 -10.31 -8.668 -11.9557 
-20.2721 -23.6821 -17.9785 -15.752 -16.0836 -16.0185 -16.5277 -12.1984 -16.585 -20.9908 -18.2131 -17.3723 -13.9491 -11.408 -16.0305 -27.2406 -21.4424 -20.5236 -17.9573 -12.0084 -14.3879 -13.7345 -11.28 -16.3881 
-24.1916 -24.2216 -20.3005 -25.3996 -17.6961 -18.0904 -17.2957 -24.2034 -21.7688 -20.9908 -19.9646 -24.4979 -17.0696 -16.0305 -27.8991 -29.1084 -23.6919 -23.9266 -22.5572 -15.3159 -17.7409 -14.7045 -19.0001 
