-4.759 
n/a 
n/a 
n/a 
n/a 
-4.759 
n/a 
n/a 
n/a 
n/a 
-4.759 
n/a 
n/a 
n/a 
n/a 
-4.759 
n/a 
n/a 
n/a 
n/a 
-3.1435 -4.721 -1.7695 -4.304 -4.0675 
-8.231 -6.3125 -4.9335 -8.5305 
-9.4145 -9.231501 -9.145 
-12.3853 -13.487 
-16.6408 
-2.3615 -2.186 -2.674 -3.926 -3.65 -1.7695 -4.304 0 
-3.5005 -6.491 -6.190001 -8.581501 -5.273 -4.9335 -4.304 
-8.370501 -10.341 -11.7809 -9.462501 -8.3155 -4.9335 
-12.3573 -15.9319 -12.6619 -13.0666 -8.3155 
-17.9482 -16.8129 -16.266 -13.0666 
-4.0675 -4.3465 -4.8135 
-8.8545 -8.942501 
-13.5911 
n/a 
n/a 
-2.4265 -4.111 -3.926 -4.3905 
-5.3855 -7.1365 -8.209 
-8.453501 -10.5035 
-11.9901 
n/a 
