-4.759 
n/a 
n/a 
n/a 
n/a 
-4.759 
n/a 
n/a 
n/a 
n/a 
-4.759 
n/a 
n/a 
n/a 
n/a 
-4.759 
n/a 
n/a 
n/a 
n/a 
-7.817 -3.8195 -4.6365 -12.16972 -4.088 -9.886001 -4.5445 -3.589 -3.8315 -4.1745 -4.352 -3.815 -3.8195 
-12.2633 -6.477 -17.60402 -16.25772 -14.9042 -14.5067 -8.772001 -5.5825 -8.503501 -9.241 -8.999001 -5.729 
-14.9208 -19.99332 -21.69202 -27.07392 -19.5249 -18.7342 -10.6095 -10.6139 -14.0882 -14.1684 -10.404 
-28.43712 -24.08132 -32.50822 -31.69462 -23.7524 -20.5717 -15.6409 -16.1986 -19.0156 -15.5734 
-32.52512 -34.89752 -37.12892 -35.92212 -25.5899 -25.6031 -21.2256 -21.126 -20.4206 
-4.631 -4.554 -3.8695 -4.0475 -4.088 -7.803 -4.3245 -3.589 -4.1365 -4.1745 -3.335 -3.815 -2.9195 -3.8195 -4.0645 0 
-8.3625 -7.436501 -8.564001 -8.4025 -12.8212 -12.7431 -8.4335 -6.2165 -9.237501 -6.0355 -6.9405 -7.08 -6.33 -7.667 -4.0645 
-11.5834 -12.5524 -13.08 -17.8303 -17.7613 -16.8521 -11.5374 -11.7171 -11.3333 -10.3035 -11.3053 -10.7495 -11.5333 -7.667 
-16.6993 -17.0684 -22.5078 -22.7704 -21.8703 -19.956 -17.038 -13.8129 -15.6013 -14.9333 -14.9748 -15.9528 -11.5333 
-21.2153 -26.4962 -27.4479 -26.8794 -24.9742 -25.4566 -19.1338 -18.0809 -20.2311 -18.6028 -20.1781 -15.9528 
-8.7875 -3.8195 -9.251 -12.16972 -4.088 -9.9545 -3.1495 -3.595 -3.589 -4.226 -4.1745 -1.7565 -3.535 -3.853 -5.045 -1.4985 -3.818 0 
-12.7944 -14.1279 -21.61672 -16.25772 -10.634 -13.2516 -9.4735 -8.09 -6.2675 -7.9525 -7.116 -5.105 -7.823501 -9.4405 -6.222 -5 -3.818 
-23.1028 -26.49362 -25.70472 -22.80372 -13.9311 -19.5756 -14.0439 -11.1279 -9.894501 -11.709 -11.0517 -8.962001 -13.8616 -10.8817 -10.2975 -5 
-35.46852 -30.58162 -32.25072 -26.10082 -20.2551 -24.146 -17.0818 -14.7549 -13.689 -15.6447 -14.9087 -15.1185 -15.3028 -14.9572 -10.2975 
-39.55652 -37.12762 -35.54782 -32.42482 -24.8255 -27.1839 -20.7088 -18.5494 -17.6247 -19.5017 -21.0652 -16.5597 -19.3783 -14.9572 
-1.8085 -4.631 -3.8195 -4.554 0 -12.16972 -7.5725 -9.886001 0 -4.96 -3.091 -3.589 -3.8315 -4.8085 -3.8195 0 
-6.1855 -7.7645 -6.71 -4.554 -12.16972 -19.74222 -17.8959 -9.886001 -4.96 -7.4575 -7.5475 -5.5825 -8.208 -6.085001 -3.8195 
-8.5555 -9.867001 -6.71 -17.50332 -19.74222 -30.06562 -17.8959 -14.9222 -7.4575 -12.376 -9.342501 -9.684501 -9.3835 -6.085001 
-10.459 -9.867001 -20.13732 -25.07582 -30.06562 -30.06562 -22.9321 -17.4197 -12.376 -14.171 -13.6483 -10.9236 -9.3835 
-10.459 -23.54072 -27.70982 -35.39922 -30.06562 -35.10182 -25.4296 -22.3382 -14.171 -18.4768 -14.8874 -10.9236 
