-4.759 
n/a 
n/a 
n/a 
n/a 
-4.759 
n/a 
n/a 
n/a 
n/a 
-4.759 
n/a 
n/a 
n/a 
n/a 
-4.759 
n/a 
n/a 
n/a 
n/a 
-2.7295 -2.4945 -3.3425 -2.356 -1.8085 -3.9335 -1.7565 -10.7045 -3.9355 -1.756 -7.248 -3.9355 
-3.7725 -4.8005 -6.6315 -3.4075 -6.040501 -5.68 -12.36 -15.6259 -5.2215 -7.525001 -10.408 
-5.9695 -7.781 -7.8855 -7.8455 -6.988501 -17.607 -17.4009 -16.9119 -10.8995 -11.62 
-8.661 -9.156501 -12.5889 -8.485001 -19.1643 -22.3147 -18.6869 -23.2165 -16.1157 
-10.172 -13.9351 -13.2284 -20.6766 -23.8052 -23.6007 -24.9915 -27.8061 
-2.4265 -2.186 -4.7355 -1.7695 -3.6785 -2.3335 -2.186 -2.3085 -2.9645 -6.966001 -3.9355 -1.756 -5.7285 -3.9355 
-3.292 -6.186 -5.893001 -4.268 -4.529 -3.7085 -5.1305 -4.7625 -10.575 -10.4035 -5.2215 -6.8005 -8.951 
-6.5295 -6.995 -6.636001 -4.976 -6.6245 -6.372 -7.6995 -12.5844 -14.0125 -11.6895 -9.9975 -10.134 
-7.102 -7.963 -7.340001 -7.291 -9.0205 -8.973001 -15.693 -16.0219 -15.2985 -16.4655 -14.0484 
-8.0965 -8.456 -9.333501 -9.769501 -11.6907 -17.1001 -19.1305 -17.3079 -20.0745 -20.5164 
-2.9805 -2.8645 -1.7695 -2.9645 -6.735 -3.9355 -2.4285 -6.0155 -3.9355 -3.098 -2.356 -2.356 -5.6475 0 
-4.3245 -4.4755 -3.812 -10.884 -10.6475 -5.4415 -8.5045 -10.0445 -6.6425 -5.295 -5.9095 -6.997001 -5.6475 
-5.763 -6.795 -11.9147 -14.7965 -12.1535 -12.8273 -12.6671 -12.8767 -9.068001 -8.8055 -10.9801 -6.997001 
-7.899001 -15.2917 -15.8272 -16.3025 -19.5393 -16.9899 -15.4993 -15.3022 -12.7683 -14.3991 -10.9801 
-16.5463 -19.2042 -17.3332 -23.6883 -23.7019 -19.8221 -17.9248 -19.0025 -18.3619 -14.3991 
-2.925 -2.4945 -2.5685 -3.383 -5.555 -1.756 -6.2905 
-3.7675 -4.6335 -5.839 -7.335 -6.796 -8.839001 
-5.5775 -6.4685 -9.7585 -8.317 -14.5994 
-7.238 -10.7495 -10.241 -16.4128 
-11.5594 -11.232 -18.3368 
