-4.759 
n/a 
n/a 
n/a 
n/a 
-4.759 
n/a 
n/a 
n/a 
n/a 
-4.759 
n/a 
n/a 
n/a 
n/a 
-4.759 
n/a 
n/a 
n/a 
n/a 
-1.4985 -5.7875 -2.186 -2.5195 -4.87 
-6.501 -7.3275 -4.863 -6.9335 
-7.7535 -10.1595 -9.175 
-10.275 -14.6539 
-14.8204 
-1.4985 -4.87 -4.9395 -1.7695 -9.929001 
-5.68 -9.830501 -5.127501 -12.6807 
-9.986001 -9.9215 -16.8283 
-10.065 -21.7883 
-21.9622 
-1.4985 -4.3375 -2.186 -4.87 -3.59 0 
-5.3535 -7.161 -8.0445 -8.505501 -3.59 
-7.7995 -13.3569 -11.9598 -8.505501 
-14.1124 -17.2722 -11.9598 
-18.0277 -17.2722 
-1.4985 -3.6765 -5.677 -1.7695 -5.333 -3.59 
-4.501 -8.793 -5.7705 -7.572001 -9.189501 
-9.3385 -8.9875 -10.76 -9.8625 
-9.4945 -14.1748 -13.0505 
-14.8432 -16.4653 
