-4.759 
n/a 
n/a 
n/a 
n/a 
-4.759 
n/a 
n/a 
n/a 
n/a 
-4.759 
n/a 
n/a 
n/a 
n/a 
-4.759 
n/a 
n/a 
n/a 
n/a 
-2.3615 -2.186 -3.473 -1.7565 -3.524 -1.934 -3.77 -1.7565 -3.524 -2.847 -3.264 -1.7565 -1.4985 -3.3365 -4.378 0 
-3.5005 -6.325001 -4.882 -6.348001 -6.7605 -6.3325 -6.6405 -6.348001 -6.947001 -6.4445 -3.6125 -2.4195 -4.3335 -8.1295 -4.378 
-6.5065 -8.806001 -9.961 -8.233001 -11.9372 -9.582001 -12.3088 -9.597 -11.6119 -6.813 -5.2985 -5.66 -8.9245 -8.1295 
-10.248 -14.0098 -11.8678 -13.8395 -15.1867 -15.5463 -15.5578 -14.7543 -11.9804 -8.957001 -8.897501 -9.750501 -8.9245 
-15.4518 -15.9166 -17.4743 -17.089 -21.151 -18.7953 -20.7151 -15.1228 -14.1244 -12.7928 -13.325 -9.750501 
-4.1485 -2.3615 -3.5025 -3.524 -5.3305 -1.4985 -3.524 -3.2015 -1.7695 -2.9995 -8.344501 -2.674 -3.962 -1.756 -3.322 -3.3365 -2.9195 -1.7695 -3.7285 -3.962 0 
-6.68 -5.751 -7.612 -11.117 -6.007 -5.172501 -6.691 -4.977 -4.358 -9.938001 -11.136 -4.902 -5.7635 -5.0645 -5.048 -6.6305 -5.449 -5.8665 -5.347 -3.962 
-10.4471 -11.2573 -15.913 -11.7935 -10.4338 -9.173501 -9.190001 -7.606501 -11.6381 -12.7801 -13.364 -6.646 -7.575 -7.158 -7.807 -10.204 -10.575 -9.148001 -5.347 
-15.9534 -19.5583 -16.5895 -16.2203 -14.4348 -11.9545 -11.9499 -15.2154 -14.4802 -15.0081 -15.108 -8.0225 -10.0793 -10.396 -11.7557 -15.4694 -13.8565 -9.148001 
-24.2544 -20.2348 -21.0163 -20.2213 -17.2158 -14.7144 -19.5588 -18.0575 -16.7082 -16.7521 -16.4845 -10.8408 -13.3173 -14.6727 -17.0211 -18.7509 -13.8565 
-4.8215 0 -2.5045 -2.3615 -2.9825 -2.8645 -3.524 -5.4165 -4.0415 0 -2.4265 -2.186 -3.768 -1.7695 -3.047 -2.9995 -2.9825 -4.4095 -3.524 -3.4945 -2.9995 -3.6885 -3.6705 0 -2.4265 -2.186 -2.6165 -3.768 -3.047 -1.4985 -4.0995 -2.9195 0 
-4.8215 -2.5045 -4.9645 -3.915 -5.387 -7.843 -6.7545 -9.160501 -4.0415 -2.4265 -3.292 -4.7835 -4.5885 -3.768 -5.447001 -6.076 -7.802001 -8.9445 -8.614 -4.9185 -5.9375 -6.3935 -3.6705 -2.4265 -3.292 -3.5105 -5.2535 -6.9075 -4.095 -4.357 -7.31 -2.9195 
-7.312 -4.9645 -7.273 -5.804 -9.0145 -11.7179 -12.0857 -9.160501 -6.596 -3.292 -4.9545 -5.1875 -6.6315 -6.309 -8.968 -9.6675 -12.6508 -14.1383 -10.164 -6.834 -8.256001 -6.3935 -4.959001 -3.292 -4.443 -5.4555 -8.259001 -7.768 -6.426001 -7.5765 -7.31 
-9.660501 -7.273 -8.700001 -9.33 -13.5884 -17.0491 -12.0857 -11.9554 -7.0995 -4.9545 -5.2125 -7.0435 -9.0065 -9.802501 -12.9701 -14.8123 -17.8446 -15.6883 -12.0795 -8.645 -8.256001 -7.6925 -5.383 -4.443 -5.6805 -8.620501 -9.144 -10.5975 -8.5915 -7.5765 
-12.01 -8.700001 -12.3788 -14.9429 -18.9196 -17.0491 -14.8806 -12.4589 -8.792001 -5.2125 -7.057 -9.797501 -12.5122 -13.8416 -18.1149 -20.0061 -19.3946 -17.6038 -13.8905 -8.645 -9.684 -8.175 -6.2405 -5.6805 -10.0955 -9.623 -12.3917 -12.763 -8.5915 
-3.074 -1.934 -2.3615 -3.4605 -2.674 -3.524 -4.0435 -4.0415 -3.0415 -1.7695 -2.9635 -3.815 -3.524 -4.0435 -4.567 -2.9635 -3.3365 -2.9195 -2.872 -2.9635 -3.754 
-4.93 -3.539 -4.455 -6.335 -7.462501 -4.2395 -9.393001 -7.108 -5.3075 -4.09 -7.5435 -5.321 -4.2395 -8.987 -8.5495 -4.747 -6.6305 -6.191 -7.5395 -6.978 
-6.1405 -5.899 -6.940001 -9.67 -7.908 -9.899 -13.0667 -9.683001 -8.498501 -8.2805 -9.865001 -7.2495 -9.1675 -13.7409 -10.4945 -7.878 -10.688 -11.1427 -12.0672 
-9.5495 -7.921 -10.7176 -10.478 -14.3225 -14.0461 -15.6417 -12.8482 -12.955 -10.9928 -12.3779 -13.1675 -14.5086 -15.6859 -13.6255 -13.3717 -15.6397 -15.6704 
-11.8479 -12.7492 -11.5256 -16.8925 -18.4696 -16.6211 -18.8069 -17.3047 -15.6673 -13.5057 -18.2959 -18.5086 -16.4536 -18.8169 -19.1192 -18.3234 -20.1674 
