-4.759 
n/a 
n/a 
n/a 
n/a 
-4.759 
n/a 
n/a 
n/a 
n/a 
-4.759 
n/a 
n/a 
n/a 
n/a 
-4.759 
n/a 
n/a 
n/a 
n/a 
-2.925 -3.554 -2.264 -4.121 -5.2965 -5.1845 
-5.7845 -6.056 -6.5565 -10.0715 -10.9575 
-8.584001 -9.265 -13.4282 -15.7325 
-12.1092 -16.7547 -19.0892 
-19.5989 -22.4157 
-4.303 -3.6885 -5.1845 -2.8645 -2.645 -3.554 
-6.045 -7.816501 -8.645 -5.2085 -6.4165 
-9.7075 -10.575 -10.634 -8.985001 
-12.6106 -12.8886 -14.9781 
-14.9242 -17.2327 
-2.9805 -2.186 -3.383 -6.1205 -1.756 -3.554 -3.091 -4.121 -3.6885 -5.1845 
-4.1635 -4.438 -7.297 -7.0135 -5.176 -6.3105 -5.304 -7.4265 -7.816501 
-6.1695 -8.024 -7.851501 -9.0165 -7.908 -8.668501 -9.1875 -12.1607 
-8.656501 -8.363501 -9.404 -12.3233 -9.7935 -12.624 -14.0429 
-8.915501 -10.147 -12.8022 -14.2088 -14.028 -17.4794 
-2.9805 -4.5495 -5.1845 -3.6885 -2.645 -3.433 -2.4265 -2.7415 -3.091 -4.121 -3.6885 0 
-5.964001 -10.543 -7.323501 -6.666 -6.243001 -4.4115 -3.681 -5.4285 -5.304 -7.4265 -3.6885 
-12.2931 -12.682 -10.523 -10.674 -7.2345 -5.4295 -6.0135 -7.5225 -9.1875 -7.4265 
-14.4321 -15.8815 -14.531 -11.6655 -8.292001 -7.7235 -8.144501 -11.6774 -9.1875 
-17.6316 -19.8895 -15.5225 -12.723 -10.586 -9.956 -12.5086 -11.6774 
