-4.759 
n/a 
n/a 
n/a 
n/a 
-4.759 
n/a 
n/a 
n/a 
n/a 
-4.759 
n/a 
n/a 
n/a 
n/a 
-4.759 
n/a 
n/a 
n/a 
n/a 
-4.25 -3.9555 -3.8565 -1.934 -3.486 -3.7575 -1.7695 -3.922 -1.4985 -3.331 
-6.743 -7.728001 -7.348001 -5.8505 -6.4065 -5.5835 -4.5985 -4.7665 -4.514 
-11.1989 -12.2493 -11.7339 -9.6555 -8.4445 -8.5085 -5.177001 -7.4775 
-15.7202 -16.6352 -15.5389 -11.6383 -11.6215 -9.005501 -8.5085 
-20.1061 -20.4402 -17.5217 -14.8153 -12.1185 -12.3424 
-2.925 -2.674 -4.09 -3.383 -4.8385 
-4.1785 -5.3885 -7.395 -6.5275 
-6.684 -8.1105 -8.636001 
-9.436501 -9.606001 
-11.0066 
-2.0935 -1.4985 -3.9555 -4.216 -3.8565 -3.074 0 -3.989 -3.638 -2.4945 -4.216 0 
-2.9725 -5.385 -7.2615 -7.7775 -9.013 -3.074 -3.989 -7.6575 -6.570001 -5.924 -4.216 
-6.6505 -7.9375 -9.910501 -13.34 -9.013 -6.313 -7.6575 -11.0433 -9.568501 -5.924 
-9.423 -10.5635 -15.4884 -13.34 -12.4048 -10.061 -11.0433 -14.0418 -9.568501 
-12.0594 -16.1414 -15.4884 -16.7318 -16.1528 -14.101 -14.0418 -14.0418 
-3.1435 -3.383 -3.9555 -4.216 -3.898 -1.756 -3.764 -2.4945 -3.383 -3.299 
-5.807 -5.706 -7.2615 -7.584001 -4.9375 -5.462 -5.7815 -4.732 -5.179 
-8.377001 -9.4195 -10.2925 -9.519 -8.625501 -7.469501 -8.029501 -6.681001 
-12.3061 -12.5171 -12.2275 -13.3016 -10.7304 -9.526501 -9.596001 
-15.4037 -14.4521 -16.0101 -15.4065 -12.7874 -11.405 
