-4.759 
n/a 
n/a 
n/a 
n/a 
-4.759 
n/a 
n/a 
n/a 
n/a 
-4.759 
n/a 
n/a 
n/a 
n/a 
-4.759 
n/a 
n/a 
n/a 
n/a 
-2.7835 -1.4985 -3.9185 -4.2095 -4.1675 -3.115 -10.678 -3.42 0 -2.3615 -4.4615 -6.4795 -1.934 -2.5235 -3.7435 
-3.7575 -5.215 -7.695001 -8.781 -4.664 -14.5686 -14.098 -3.42 -2.3615 -5.933 -12.3314 -8.1745 -3.8285 -5.0975 
-7.3215 -8.6315 -12.7003 -9.2635 -16.6386 -17.9886 -14.098 -6.0145 -5.933 -14.4653 -14.0264 -10.223 -6.231 
-11.1412 -13.789 -13.1828 -21.3155 -20.0586 -17.9886 -16.6925 -8.6255 -14.4653 -16.1603 -16.0749 -12.6255 
-16.2987 -14.2715 -25.2348 -24.7355 -20.0586 -20.5831 -19.3035 -17.3884 -16.1603 -18.2088 -18.4774 
-3.9185 -4.2095 -4.6175 -1.4985 -5.063 -2.8705 -3.7435 -4.299 -1.4985 -9.6765 
-7.695001 -8.972 -5.929501 -5.983001 -8.700001 -6.1775 -7.831 -5.682 -12.2688 
-12.8913 -9.959001 -10.103 -9.618001 -12.3778 -10.9438 -9.43 -16.7993 
-13.8783 -14.2705 -13.738 -13.4044 -17.1441 -12.5428 -20.8061 
-18.1898 -17.9055 -17.5244 -18.1707 -18.7431 -23.9189 
-2.7835 -1.4985 -3.9185 -4.2095 -2.186 -3.557 -1.934 -1.8085 -5.454 -4.4385 -3.115 -1.8085 -5.063 -3.321 -2.4265 -2.186 -2.664 -4.979 -1.7565 -6.4795 0 
-3.7575 -5.215 -7.695001 -6.556001 -5.0815 -4.4175 -3.2685 -6.4685 -7.513 -7.348001 -4.2095 -6.248 -8.2155 -4.872 -3.292 -3.8555 -5.524 -5.3835 -7.862 -6.4795 
-7.3215 -8.6315 -9.684 -9.641001 -5.6285 -5.8495 -7.6295 -8.085 -9.818501 -7.843 -7.304501 -8.827001 -9.7685 -5.6395 -5.11 -6.389501 -5.713 -12.3628 -7.862 
-11.1412 -9.933001 -12.769 -10.391 -6.941501 -10.5681 -8.944 -9.925 -10.096 -10.134 -9.724001 -10.4505 -10.6076 -7.591001 -7.3725 -6.6705 -13.0411 -12.3628 
-12.4427 -13.018 -13.519 -11.704 -11.9035 -11.8826 -10.8294 -10.1545 -12.5508 -12.7231 -11.3475 -11.2896 -12.5591 -9.179501 -7.7285 -14.069 -13.0411 
-2.7835 -1.4985 -3.9185 -4.9175 -5.0675 -1.8085 -8.178 -5.239 -4.606 0 -2.4265 -2.186 -4.0005 -2.3335 -2.3585 -2.4945 -4.867 -2.5195 -5.023 -4.5975 0 
-3.7575 -5.215 -7.609 -11.046 -6.332 -8.535001 -12.733 -9.4095 -4.606 -2.4265 -3.292 -6.0055 -5.542 -3.8035 -3.538 -6.105 -5.4185 -7.822001 -7.4075 -4.5975 
-7.3215 -8.9925 -14.2479 -12.3105 -13.135 -13.6047 -17.1763 -9.4095 -6.8815 -3.292 -6.6155 -6.6295 -6.7635 -4.832 -6.998 -6.488 -8.719501 -9.464001 -7.4075 
-10.3675 -15.6822 -15.5124 -19.1135 -19.0048 -18.1464 -17.1763 -12.054 -7.428 -6.6155 -6.751 -8.526 -7.4915 -8.040001 -7.1445 -10.2925 -9.894 -9.464001 
-17.6442 -16.9467 -22.3154 -24.9833 -23.2539 -18.1464 -19.8208 -12.6005 -10.9931 -6.751 -8.6155 -9.620501 -10.476 -8.191 -11.208 -11.467 -9.894 
