-4.759 
n/a 
n/a 
n/a 
n/a 
-4.759 
n/a 
n/a 
n/a 
n/a 
-4.759 
n/a 
n/a 
n/a 
n/a 
-4.759 
n/a 
n/a 
n/a 
n/a 
-5.1845 -3.4225 -5.3745 -3.9175 0 -3.9655 -3.6825 0 
-8.4075 -7.807 -6.47 -3.9175 -3.9655 -5.6945 -3.6825 
-8.462501 -7.9165 -6.47 -8.4215 -5.6945 -5.6945 
-8.4645 -7.9165 -9.6485 -9.307501 -5.6945 
-8.4645 -12.018 -9.9125 -9.307501 
-5.1845 -5.3745 -3.6825 0 -3.9655 -3.6825 0 
-8.960501 -7.8155 -3.6825 -3.9655 -5.6945 -3.6825 
-11.9545 -7.8155 -6.773 -5.6945 -5.6945 
-11.9545 -11.4226 -7.9375 -5.6945 
-15.5616 -12.5871 -7.9375 
-5.1845 -4.631 -3.86 0 -3.9655 -3.6825 0 
-10.513 -9.123 -3.86 -3.9655 -5.6945 -3.6825 
-15.7892 -9.123 -8.6835 -5.6945 -5.6945 
-15.7892 -14.2221 -10.7843 -5.6945 
-20.8883 -16.3229 -10.7843 
-5.1845 -3.1385 -5.3745 -3.2795 0 -3.9655 -3.6825 0 
-7.4095 -8.407001 -8.462501 -3.2795 -3.9655 -5.6945 -3.6825 
-13.0544 -12.1498 -8.462501 -7.700001 -5.6945 -5.6945 
-16.7972 -12.1498 -13.0866 -8.962501 -5.6945 
-16.7972 -16.7739 -14.3491 -8.962501 
