-4.759 
n/a 
n/a 
n/a 
n/a 
-4.759 
n/a 
n/a 
n/a 
n/a 
-4.759 
n/a 
n/a 
n/a 
n/a 
-4.759 
n/a 
n/a 
n/a 
n/a 
-1.4985 -3.17 -5.0455 0 -2.264 -4.067 -3.6055 -4.1145 0 -2.186 -1.4985 0 -3.634 -3.6615 0 -12.16972 -3.776 -3.254 -5.534 -3.634 -5.4075 0 -2.4285 -1.8085 -3.254 -1.7565 -5.4075 -3.43 -3.5445 -1.8085 -3.7855 -2.95 -7.339 -5.4085 -2.7765 -4.146 -1.4985 -3.254 -1.7695 -4.0135 -4.3105 -5.4075 -1.756 -5.4075 -3.43 -2.3345 -4.3655 -5.298 -4.5815 0 0 -5.388 0 0 0 
-3.7115 -5.9305 -5.0455 -2.264 -6.1905 -5.430501 -8.009501 -4.1145 -2.186 -3.339 -1.4985 -3.634 -4.866 -3.6615 -12.16972 -15.94572 -6.929 -8.0915 -10.0315 -6.8875 -5.4075 -2.4285 -4.126 -4.394 -4.0065 -7.134501 -7.648001 -5.9665 -4.5835 -4.803 -5.7995 -8.957001 -12.717 -7.917 -6.443 -5.873001 -4.4095 -5.3015 -4.613 -8.061501 -7.002501 -6.6975 -6.942 -7.648001 -4.5865 -6.856501 -8.752001 -9.021001 -4.5815 0 -5.388 -5.388 0 0 
-6.125 -5.9305 -7.268001 -6.1905 -6.784 -9.8085 -8.009501 -6.3365 -3.339 -3.339 -4.943501 -4.866 -4.866 -17.11722 -15.94572 -19.09872 -10.341 -10.341 -10.3465 -6.8875 -7.5575 -4.126 -6.692 -4.528 -8.2225 -8.995001 -9.899 -7.2015 -6.3165 -6.371 -10.5765 -13.7039 -14.7939 -10.4855 -6.829 -7.374501 -6.1815 -7.7255 -8.660001 -10.4425 -8.354501 -9.896501 -9.300501 -8.445001 -8.258 -10.4105 -10.4185 -9.021001 -4.5815 -5.388 -5.388 -5.388 0 
-6.125 -8.296 -10.199 -6.784 -10.3155 -9.8085 -9.913501 -7.6755 -3.339 -7.029 -6.884 -4.866 -19.76292 -20.89322 -19.09872 -22.51072 -10.365 -10.352 -10.3465 -10.0375 -9.7355 -6.692 -6.802001 -9.0825 -10.096 -10.5975 -10.1675 -8.9095 -7.4155 -10.3265 -15.441 -15.699 -15.2274 -10.5005 -8.0935 -8.587001 -8.302501 -10.4675 -10.459 -10.4815 -10.4675 -10.43 -9.998501 -10.4675 -10.4185 -10.431 -10.4185 -9.021001 -8.561001 -5.388 -5.388 -5.388 
-8.853001 -10.3815 -10.294 -10.3155 -10.3155 -10.364 -10.3655 -7.6755 -7.029 -9.375501 -6.884 -19.76292 -23.53892 -24.04622 -22.51072 -22.53472 -10.376 -10.352 -10.3575 -10.2975 -10.295 -6.802001 -10.5855 -10.168 -10.653 -10.617 -10.3095 -9.261001 -10.7915 -15.8148 -17.3823 -16.1325 -15.2424 -10.5155 -9.2465 -10.3675 -10.4675 -10.482 -10.482 -10.5045 -10.4905 -10.451 -10.482 -10.482 -10.4315 -10.431 -10.4185 -10.443 -8.561001 -5.388 -5.388 
-4.067 -3.699 -2.5685 -5.4085 -2.4945 -1.4985 0 -3.634 -3.6615 0 -2.9775 0 -2.742 -3.6845 -1.8085 -3.776 -3.254 -1.7565 -3.634 -5.4075 -2.4285 -1.8085 -3.254 -1.7565 -5.4075 -3.8535 -3.5445 -1.8085 -2.95 -6.9755 -5.4085 -2.7765 -4.146 -4.3105 -5.4075 -1.756 -5.4075 -3.8535 -2.3345 -4.3655 -5.298 -4.5815 0 0 -5.388 0 0 0 
-9.043501 -6.955501 -7.4045 -7.191 -3.9315 -1.4985 -3.634 -4.866 -3.6615 -2.9775 -2.9775 -2.742 -4.8705 -4.7885 -4.59 -6.929 -4.0065 -5.447001 -6.8875 -7.5575 -4.126 -4.394 -4.0065 -7.134501 -8.4405 -6.378 -4.5835 -4.4675 -8.268001 -11.997 -7.917 -6.443 -9.34 -7.002501 -6.6975 -6.942 -8.4405 -5.069 -6.856501 -8.752001 -9.021001 -4.5815 0 -5.388 -5.388 0 0 
-12.5722 -12.1109 -9.3555 -8.9195 -3.9315 -4.943501 -4.866 -4.866 -6.953 -2.9775 -5.621 -4.8705 -6.1245 -7.481501 -7.3265 -7.344501 -6.515 -9.521501 -10.0375 -9.7355 -6.692 -4.528 -8.2225 -9.814 -11.3758 -7.327 -6.909 -9.6145 -13.609 -14.2095 -10.4855 -12.8714 -12.1892 -8.354501 -9.896501 -10.0475 -8.9945 -9.1 -10.4105 -10.4185 -9.021001 -4.5815 -5.388 -5.388 -5.388 0 
-17.7276 -14.0619 -11.2616 -8.9195 -7.769501 -6.884 -4.866 -7.5185 -6.953 -5.621 -7.613501 -6.1245 -9.203501 -10.0885 -7.5265 -10.1724 -10.5975 -12.8001 -10.2975 -10.295 -6.802001 -9.0825 -11.689 -12.8511 -12.3248 -9.395 -11.1455 -15.4448 -15.6513 -14.643 -18.1447 -15.7206 -13.5412 -10.4675 -13.1502 -10.409 -13.4625 -12.7972 -10.431 -10.4185 -9.021001 -8.561001 -5.388 -5.388 -5.388 
-19.6786 -15.968 -11.2616 -13.0473 -8.997001 -6.884 -7.5185 -7.5185 -10.322 -7.613501 -8.913 -9.203501 -11.8355 -10.144 -10.426 -14.2549 -13.8761 -13.0601 -10.307 -10.3045 -10.5855 -13.0872 -14.7261 -13.8001 -14.3928 -14.1468 -17.1406 -17.4973 -16.0848 -22.301 -20.9939 -17.0726 -15.6542 -14.8498 -13.5117 -15.2026 -17.1597 -12.8177 -10.431 -10.4185 -10.443 -8.561001 -5.388 -5.388 
-3.135 -8.726501 -2.7765 -4.146 -3.2615 -4.5095 -1.4985 -6.0845 
-10.3895 -11.08 -6.443 -7.552001 -6.9685 -5.8345 -7.7185 
-13.4584 -14.7465 -11.0834 -11.5918 -7.6445 -12.7603 
-17.1249 -19.3869 -15.1232 -12.2678 -14.8489 
-21.7653 -23.4267 -15.7992 -19.4722 
-3.1435 -3.383 -3.301 -3.8225 -3.6615 -2.3085 -3.5095 -4.746 -5.388 
-5.807 -4.6415 -7.267 -7.905 -6.125 -3.899 -9.4925 -10.985 
-7.4455 -9.1195 -12.2789 -10.213 -7.579 -10.19 -15.8485 
-12.1601 -13.9216 -14.5869 -11.667 -14.066 -16.546 
-16.9622 -16.2296 -16.0409 -18.154 -20.422 
