-4.759 
n/a 
n/a 
n/a 
n/a 
-4.759 
n/a 
n/a 
n/a 
n/a 
-4.759 
n/a 
n/a 
n/a 
n/a 
-4.759 
n/a 
n/a 
n/a 
n/a 
-3.8735 -4.905 0 -4.1865 -4.1805 
-8.309501 -4.905 -4.1865 -8.9415 
-8.309501 -8.9995 -8.9415 
-12.716 -14.3477 
-18.0642 
-1.934 -3.8735 -4.1805 0 -4.1865 -4.905 
-4.885 -8.42 -4.1805 -4.1865 -7.5255 
-9.298501 -8.42 -9.363501 -7.5255 
-9.298501 -14.0568 -12.7833 
-15.2931 -17.4766 
-4.1805 -1.934 -3.8735 0 -4.1865 -5.592 
-5.876 -4.885 -3.8735 -4.1865 -7.0425 
-8.3725 -4.885 -6.232 -7.0425 
-8.3725 -7.1225 -8.9195 
-9.889 -9.420501 
-4.1865 -4.1805 -3.2 -4.1865 -4.905 
-8.9415 -6.0585 -8.194 -7.5255 
-10.1035 -11.6859 -10.702 
-15.8545 -14.1939 
-18.3625 
