-4.759 
n/a 
n/a 
n/a 
n/a 
-4.759 
n/a 
n/a 
n/a 
n/a 
-4.759 
n/a 
n/a 
n/a 
n/a 
-4.759 
n/a 
n/a 
n/a 
n/a 
-8.788501 -3.3435 -10.187 -4.7595 
-12.3696 -14.6161 -14.9899 
-23.6422 -19.419 
-28.4451 
n/a 
-3.485 -5.8185 -2.7415 -5.877 -1.934 -6.9985 0 
-9.192 -8.5465 -10.375 -8.0555 -8.734 -6.9985 
-11.973 -16.5858 -12.5535 -15.2901 -8.734 
-20.0123 -18.7643 -19.7881 -15.2901 
-22.1908 -25.9989 -19.7881 
-7.0475 -4.789 -4.7595 -6.9985 -3.9675 
-12.3749 -9.745501 -12.6634 -8.955501 
-17.3314 -17.603 -14.6204 
-25.1889 -19.56 
-27.1459 
-2.4265 -2.7415 -4.6505 -2.3345 -4.803 -5.222 0 -12.16972 -5.222 0 
-3.681 -6.5785 -5.728001 -9.1955 -10.119 -5.222 -12.16972 -17.39172 -5.222 
-7.051 -7.3235 -13.2962 -14.4909 -10.119 -18.64432 -17.39172 -17.39172 
-8.582001 -14.9451 -18.5916 -14.4909 -23.54132 -23.86632 -17.39172 
-16.2978 -20.2405 -18.5916 -27.91322 -28.76332 -23.86632 
