-4.759 
n/a 
n/a 
n/a 
n/a 
-4.759 
n/a 
n/a 
n/a 
n/a 
-4.759 
n/a 
n/a 
n/a 
n/a 
-4.759 
n/a 
n/a 
n/a 
n/a 
-1.934 -1.4985 -3.999 -1.7565 -5.328 -2.3615 -4.916 -2.186 -3.074 -3.2955 -2.0935 -5.998 -5.1625 
-2.6125 -5.112 -4.5785 -6.5655 -7.653 -7.2405 -6.886001 -4.156 -5.43 -4.307 -7.1245 -10.766 
-6.2815 -5.475 -8.9175 -8.110001 -12.917 -8.134 -8.944501 -5.8835 -6.351501 -8.838 -12.3795 
-6.646 -9.564 -10.6246 -14.1084 -13.8105 -10.155 -10.5645 -6.6975 -10.7175 -13.9302 
-10.019 -11.3149 -16.623 -15.0019 -15.8315 -11.775 -11.3785 -11.1985 -15.8097 
-3.9225 -1.4985 -5.328 -3.1495 -5.207 -2.4945 -3.2955 -1.7695 -3.6915 -2.985 -5.246 -5.1625 0 
-4.463 -7.0635 -8.1225 -7.0495 -6.8025 -4.6305 -3.9425 -5.1405 -6.4645 -7.544 -9.861501 -5.1625 
-8.652 -10.2085 -9.703 -7.988 -8.9855 -5.1225 -7.582 -6.8615 -10.4035 -12.5969 -9.861501 
-11.8902 -11.789 -12.5223 -10.1545 -9.5745 -8.865001 -9.837501 -10.6595 -15.4564 -12.5969 
-13.4707 -14.6083 -14.6888 -10.7665 -13.4464 -11.2183 -13.8287 -15.7124 -15.4564 
-2.9905 -3.8055 -1.7695 -5.1625 -2.5195 -3.7435 0 
-6.777 -5.554501 -7.634501 -7.078001 -6.785501 -3.7435 
-8.534 -12.4081 -9.585001 -12.0922 -6.785501 
-15.4774 -14.3586 -14.6344 -12.0922 
-17.4279 -19.408 -14.6344 
-2.4265 -2.186 -3.074 -4.7995 -1.934 -6.174 0 
-3.292 -4.156 -6.6405 -7.002001 -7.934 -6.174 
-4.91 -9.686001 -8.84 -13.3984 -7.934 
-10.757 -9.983001 -15.3026 -13.3984 
-11.054 -16.4954 -15.3026 
