-4.759 
n/a 
n/a 
n/a 
n/a 
-4.759 
n/a 
n/a 
n/a 
n/a 
-4.759 
n/a 
n/a 
n/a 
n/a 
-4.759 
n/a 
n/a 
n/a 
n/a 
-4.1045 0 -10.8075 -8.732 0 -7.641 0 0 -2.701 0 
-4.1045 -10.8075 -19.5395 -8.732 -7.641 -7.641 0 -2.701 -2.701 
-15.309 -19.5395 -19.5395 -16.5816 -7.641 -7.641 -2.701 -2.701 
-24.041 -19.5395 -27.3891 -16.5816 -7.641 -10.8726 -2.701 
-24.041 -27.3891 -27.3891 -16.5816 -10.8726 -10.8726 
-4.1045 0 -4.574 -3.098 0 -4.094 0 0 -5.3565 0 
-4.1045 -4.574 -6.481 -3.098 -4.094 -4.094 0 -5.3565 -5.3565 
-9.238501 -6.481 -6.481 -7.974 -4.094 -4.094 -5.3565 -5.3565 
-11.4495 -6.481 -12.2264 -7.974 -4.094 -10.209 -5.3565 
-11.4495 -12.2264 -12.2264 -7.974 -10.209 -10.209 
-4.1045 0 -9.127501 -8.732 0 -4.094 0 0 -2.701 0 
-4.1045 -9.127501 -9.519501 -8.732 -4.094 -4.094 0 -2.701 -2.701 
-10.7335 -9.519501 -9.519501 -13.0346 -4.094 -4.094 -2.701 -2.701 
-10.76 -9.519501 -14.1241 -13.0346 -4.094 -8 -2.701 
-10.76 -14.1241 -14.1241 -13.0346 -8 -8 
-7.2025 -4.574 0 -2.0935 -9.9315 0 -2.701 0 
-12.3265 -4.574 -2.0935 -13.016 -9.9315 -2.701 -2.701 
-12.7057 -7.022 -13.016 -13.016 -12.8601 -2.701 
-15.5397 -18.5803 -13.016 -15.9446 -12.8601 
-27.098 -18.5803 -15.9446 -15.9446 
