-4.759 
n/a 
n/a 
n/a 
n/a 
-4.759 
n/a 
n/a 
n/a 
n/a 
-4.759 
n/a 
n/a 
n/a 
n/a 
-4.759 
n/a 
n/a 
n/a 
n/a 
-2.925 -4.2815 -2.3335 -4.129 -3.991 -2.356 -2.3615 
-7.1515 -7.6685 -6.837 -8.4445 -6.3355 -4.2185 
-9.355 -12.5202 -11.4955 -11.0714 -8.4165 
-14.3115 -17.1787 -14.1224 -13.1524 
-18.97 -19.8056 -16.2034 
-2.3335 -3.264 -3.5065 -4.303 -2.356 -4.2985 -1.756 -4.0745 -2.4265 0 
-5.756001 -7.477 -6.187 -5.696 -6.943501 -5.9195 -5.4415 -6.101501 -2.4265 
-9.948501 -10.3345 -7.6455 -10.8163 -8.786 -9.083 -6.682 -6.101501 
-12.895 -11.793 -13.158 -12.6588 -12.1805 -9.7775 -6.682 
-14.3535 -17.3055 -15.0005 -16.0533 -12.875 -9.7775 
-3.0415 0 -2.4265 -2.186 -4.2815 -1.7695 -2.3335 -3.264 -3.5065 
-3.0415 -2.4265 -3.292 -6.0975 -4.4915 -4.46 -5.756001 -7.477 
-4.551 -3.292 -7.357 -6.382 -6.475 -7.2795 -9.948501 
-5.318 -7.357 -7.6275 -7.8685 -9.9805 -11.7546 
-10.134 -7.6275 -9.7545 -11.7214 -14.5272 
-1.756 -4.2815 -2.3615 -2.356 -2.3335 -3.264 -3.5065 0 
-5.987 -7.137501 -5.309 -4.7045 -5.756001 -7.477 -3.5065 
-8.001501 -8.263 -7.918 -7.375501 -9.948501 -7.477 
-8.632001 -10.523 -10.8112 -11.8284 -9.948501 
-10.647 -13.7392 -15.2641 -11.8284 
