-4.759 
n/a 
n/a 
n/a 
n/a 
-4.759 
n/a 
n/a 
n/a 
n/a 
-4.759 
n/a 
n/a 
n/a 
n/a 
-4.759 
n/a 
n/a 
n/a 
n/a 
-4.672 -4.518 -3.6115 -3.5015 -2.264 -1.4985 -5.1055 -2.229 -2.8845 -3.188 -2.229 -3.17 -6.085001 -4.167 -3.254 0 -4.3895 -2.3345 -5.0835 0 -5.0775 0 -1.756 -4.524 -1.934 -4.4145 0 -4.99 -1.756 -5.1905 -3.5015 -4.6065 
-9.668001 -8.1115 -5.6765 -5.1645 -2.9195 -5.566 -6.39 -5.798 -6.001 -4.279 -4.5735 -7.18 -7.589001 -6.685 -3.254 -4.3895 -4.6785 -7.960501 -5.0835 -5.0775 -5.0775 -1.756 -6.53 -6.668 -6.297 -4.4145 -4.99 -6.469501 -6.7875 -7.047501 -7.7025 
-13.3261 -9.0515 -7.493001 -5.6905 -7.740001 -6.5735 -9.9175 -8.315001 -7.5775 -5.232 -7.6075 -7.8605 -9.613501 -6.685 -7.640501 -4.6785 -9.473001 -7.960501 -7.185 -5.0775 -6.7965 -6.53 -8.182 -11.9196 -6.297 -8.279501 -6.469501 -7.9785 -8.354501 -9.598001 
-14.2661 -10.093 -7.708 -10.3345 -8.699501 -9.925 -10.5165 -9.3155 -8.820001 -8.394001 -8.2185 -9.6555 -9.613501 -10.3285 -7.684 -9.473001 -9.473001 -10.66 -7.185 -6.7965 -8.428 -8.182 -13.673 -11.9196 -9.889501 -8.5325 -7.9785 -9.8695 -9.634501 
-15.3076 -10.329 -12.8462 -10.5235 -10.3285 -10.5265 -10.552 -10.048 -10.513 -8.699 -10.019 -9.6555 -10.555 -10.3455 -10.5325 -9.473001 -10.675 -10.66 -8.406501 -8.428 -9.862501 -13.673 -13.673 -15.5121 -9.998501 -9.447001 -9.8695 -10.3995 
-3.433 -1.4985 -5.1055 -3.634 -3.188 -4.263 -3.3435 -3.1385 -3.568 0 -2.8845 0 -8.5565 -4.255 0 -5.8135 -4.4485 0 -12.16972 -4.655 0 -8.232 -4.711 -3.5015 
-4.3795 -5.566 -9.380001 -7.8125 -7.694 -7.304 -6.4315 -7.667 -3.568 -2.8845 -2.8845 -8.5565 -13.1847 -4.255 -5.8135 -10.634 -4.4485 -12.16972 -16.82472 -4.655 -8.232 -13.344 -7.167001 
-9.424001 -9.681001 -13.7233 -12.8425 -11.3434 -10.8964 -11.493 -7.667 -7.549 -2.8845 -12.1754 -13.1847 -13.1847 -10.0255 -10.634 -10.634 -17.67242 -16.82472 -16.82472 -13.9988 -13.344 -15.8 
-13.678 -14.2455 -18.7533 -16.4919 -14.9358 -15.9579 -11.493 -12.0518 -7.549 -12.1754 -16.8036 -13.1847 -18.9552 -15.1102 -10.634 -23.85792 -22.32742 -16.82472 -26.16852 -19.1108 -15.8 
-18.2425 -19.2755 -22.4027 -20.0843 -19.9973 -15.9579 -15.8778 -12.0518 -17.3915 -16.8036 -16.8036 -18.9552 -24.0399 -15.1102 -23.85792 -28.51292 -22.32742 -26.16852 -31.28052 -21.5668 
-3.074 -1.934 -1.4985 -3.254 -1.7565 -1.4985 -5.1055 -3.852 -3.188 -2.229 -3.17 -6.085001 -4.167 0 -2.8845 0 -4.672 -1.934 -4.255 0 -5.0835 -1.934 -4.4485 0 -5.0775 -1.934 -4.655 0 -4.524 -1.934 -4.711 -4.4195 0 
-4.93 -2.6125 -4.4095 -4.0065 -2.4195 -5.566 -7.382501 -6.9525 -4.279 -4.5735 -7.18 -7.589001 -4.167 -2.8845 -2.8845 -4.672 -6.876 -6.2345 -4.255 -5.0835 -7.298 -6.5175 -4.4485 -5.0775 -7.276501 -6.7025 -4.655 -4.524 -6.668 -6.8475 -9.711 -4.4195 
-5.5645 -5.405 -4.8735 -5.152 -6.858001 -7.4935 -10.6095 -8.195001 -5.232 -7.6075 -7.8605 -7.589001 -7.728001 -2.8845 -7.3305 -6.876 -12.0311 -6.2345 -9.7375 -7.298 -12.5535 -6.5175 -9.587 -7.276501 -12.7974 -6.7025 -9.234 -6.668 -12.4701 -12.5743 -9.711 
-8.474 -5.9115 -6.365 -10.3991 -8.320001 -10.6465 -11.852 -9.529 -8.394001 -8.2185 -7.8605 -9.978001 -7.728001 -7.3305 -10.575 -12.0311 -12.0311 -12.353 -12.0888 -12.5535 -12.5535 -12.4384 -12.1456 -12.7974 -12.7974 -12.1585 -11.691 -12.4701 -18.1969 -12.5743 
-8.801001 -7.4535 -11.7845 -11.8611 -11.7542 -11.889 -13.186 -13.071 -8.699 -8.2185 -10.31 -9.978001 -12.665 -10.575 -15.7301 -12.0311 -18.1496 -14.7043 -17.3443 -12.5535 -18.4744 -14.997 -17.6665 -12.7974 -18.2534 -14.6155 -17.4931 -18.1969 -18.1969 
-3.321 -5.1055 -3.852 -4.1585 -3.188 -3.2825 -5.4875 -3.6765 -3.8245 -3.59 -3.254 0 -2.8845 0 -2.186 -4.672 -2.341 -3.5015 0 -4.5525 -4.4485 0 -12.16972 -4.655 0 -5.359 -4.711 -3.917 -3.1495 -4.088 0 
-9.8675 -7.382501 -8.333 -8.277 -6.731501 -9.285501 -7.4475 -6.711 -7.236 -6.5845 -3.254 -2.8845 -2.8845 -2.186 -7.745001 -7.4185 -6.425 -3.5015 -4.5525 -9.609001 -4.4485 -12.16972 -16.82472 -4.655 -5.359 -10.884 -10.2385 -6.979501 -6.193 -4.088 
-12.1445 -12.3839 -12.6741 -12.1479 -13.1737 -11.4449 -10.6215 -11.6175 -11.5181 -6.5845 -6.768001 -2.8845 -5.885 -7.745001 -11.1117 -11.9025 -6.425 -9.118 -9.609001 -9.609001 -17.67242 -16.82472 -16.82472 -10.6605 -10.884 -16.4115 -13.301 -10.451 -6.193 
-17.1459 -16.725 -16.545 -18.5901 -15.3331 -14.6189 -15.528 -15.8996 -11.5181 -10.2085 -6.768001 -5.885 -11.8052 -11.1117 -15.5957 -11.9025 -12.4243 -14.2169 -9.609001 -22.95852 -22.32742 -16.82472 -22.83022 -16.1855 -16.4115 -19.474 -16.7725 -10.451 
-21.487 -20.5959 -22.9872 -20.7495 -18.5071 -19.5254 -19.8101 -15.8996 -15.1421 -10.2085 -9.776001 -11.8052 -15.1719 -15.5957 -15.5957 -17.9018 -17.5232 -14.2169 -22.95852 -27.61352 -22.32742 -22.83022 -28.35522 -21.713 -19.474 -22.9455 -16.7725 
