-4.759 
n/a 
n/a 
n/a 
n/a 
-4.759 
n/a 
n/a 
n/a 
n/a 
-4.759 
n/a 
n/a 
n/a 
n/a 
-4.759 
n/a 
n/a 
n/a 
n/a 
-1.934 -2.3615 -1.4985 -3.2945 -3.695 -2.186 -7.7645 -2.3615 -4.2605 -1.4985 -3.2945 -2.882 -3.9355 -1.4985 -3.4605 -2.4285 -1.4985 -3.5965 
-3.539 -4.913 -4.303 -5.361 -5.464 -8.351501 -8.838 -5.3675 -5.7075 -4.303 -5.9465 -6.23 -4.938 -4.652 -5.2625 -4.002501 -4.746 
-6.6215 -7.68 -6.2895 -7.1355 -11.1365 -9.6245 -11.191 -6.5135 -8.306001 -6.268001 -9.0275 -7.0185 -7.8395 -6.183 -6.4755 -7.223001 
-9.6855 -9.540001 -7.4735 -13.4138 -13.1011 -12.4603 -12.3438 -8.712 -9.361 -9.4095 -9.479 -10.185 -9.9665 -6.954 -9.439501 
-11.6141 -10.761 -13.9734 -15.2128 -15.8027 -13.3151 -14.4388 -9.724501 -12.6947 -9.7115 -12.8257 -12.312 -10.7375 -9.891001 
-2.3615 -3.2945 -3.695 -3.644 -3.17 -1.7565 -3.6615 -2.0935 -3.2945 -3.9355 -1.7695 -3.4605 -2.4285 -3.5965 
-4.94 -5.361 -7.507 -6.598001 -4.179 -5.23 -5.47 -5.48 -7.866 -5.7355 -5.5985 -5.2625 -5.894 
-8.5635 -9.4055 -10.9462 -8.192501 -8.9685 -6.3285 -8.954 -10.151 -10.0916 -10.5509 -6.894001 -8.673 
-12.967 -13.5299 -12.5407 -13.4312 -10.3992 -11.2743 -14.1746 -12.8108 -14.907 -11.8464 -12.1087 
-17.0914 -15.1244 -17.7794 -14.8619 -15.345 -16.4949 -16.8344 -17.6262 -16.2025 -17.0611 
-3.2945 -3.695 -2.186 -5.155 0 -3.0365 -2.186 -1.8085 -4.2055 -2.0935 -1.4985 -3.2945 -1.7695 -3.9355 -2.9635 -3.4605 -2.4285 -3.5965 0 
-5.361 -5.464 -8.273001 -5.155 -3.0365 -3.66 -3.164 -4.713 -5.6535 -2.9725 -4.303 -5.069 -4.679 -7.989501 -5.569 -5.2625 -5.894 -3.5965 
-7.1355 -12.2236 -8.273001 -8.5605 -3.66 -4.218 -6.195 -6.1005 -6.5065 -5.7995 -5.393 -8.1045 -8.731501 -11.273 -9.420501 -8.673 -5.894 
-14.3353 -12.2236 -12.1309 -9.2755 -4.218 -6.433001 -6.9555 -6.693 -9.461 -6.5015 -8.538501 -12.7744 -12.0914 -15.1245 -13.36 -8.673 
-14.3353 -16.0815 -12.8459 -9.973001 -6.433001 -7.6975 -7.9195 -9.843 -9.526501 -9.623501 -13.5748 -16.1343 -15.9429 -19.064 -13.36 
-2.3615 -4.079 -1.7695 -3.695 -3.979 0 -4.138 -4.0615 -2.5045 -3.091 -3.946 -1.756 -3.5015 -2.4285 -3.5965 -2.0935 -4.7325 -4.053 0 
-5.323 -5.261 -5.207 -8.139501 -3.979 -4.138 -9.206 -6.601501 -5.0075 -5.4465 -5.3575 -5.2435 -5.765 -5.894 -5.7415 -6.4585 -9.342001 -4.053 
-8.316501 -9.7505 -9.369 -8.139501 -9.414001 -9.206 -12.1286 -9.341001 -7.312 -6.4005 -8.754001 -8.0045 -10.485 -8.3065 -11.0311 -11.5124 -9.342001 
-13.2226 -13.8905 -9.369 -14.0489 -14.871 -12.1286 -14.8681 -11.8417 -8.125501 -10.1504 -11.7854 -13.0637 -12.8975 -13.8181 -16.085 -11.5124 
-17.3626 -13.8905 -15.6218 -19.5059 -17.7936 -14.8681 -17.3688 -12.6552 -12.055 -13.1818 -16.8446 -15.4762 -18.4091 -18.872 -16.085 
