-4.759 
n/a 
n/a 
n/a 
n/a 
-4.759 
n/a 
n/a 
n/a 
n/a 
-4.759 
n/a 
n/a 
n/a 
n/a 
-4.759 
n/a 
n/a 
n/a 
n/a 
-3.4225 -3.1715 -2.8645 -2.543 -4.957 0 
-6.440001 -5.634 -6.136 -7.749001 -4.957 
-9.009501 -9.066 -9.589001 -7.749001 
-12.4777 -12.7922 -9.589001 
-16.2039 -12.7922 
-1.4985 -3.7825 -3.9035 -1.7565 -12.16972 
-4.8035 -6.56 -4.616 -14.87542 
-7.625 -7.4645 -18.59572 
-7.8325 -21.65722 
-22.28862 
-3.4225 -4.0965 -2.8645 -3.7825 -4.957 
-4.2 -6.927501 -5.938 -7.1215 
-7.1495 -10.0375 -8.305 
-10.243 -12.4045 
-12.61 
-4.275 -10.488 -3.7825 -3.999 -1.7565 -3.147 0 
-14.9506 -14.2705 -7.828001 -4.5785 -5.962 -3.147 
-18.7331 -18.316 -9.4715 -9.581 -5.962 
-22.7786 -19.9595 -14.669 -9.581 
-24.4221 -25.157 -14.669 
