-4.759 
n/a 
n/a 
n/a 
n/a 
-4.759 
n/a 
n/a 
n/a 
n/a 
-4.759 
n/a 
n/a 
n/a 
n/a 
-4.759 
n/a 
n/a 
n/a 
n/a 
-1.934 -3.8735 -8.907001 -4.2915 -2.4945 -4.5275 -1.934 -3.2495 -3.3975 -1.7565 -4.2915 0 
-4.885 -13.7725 -13.5501 -6.186 -6.434 -6.2075 -4.821 -6.5345 -4.960001 -5.967 -4.2915 
-15.5558 -18.4156 -15.4446 -10.181 -7.8545 -7.019 -8.6805 -9.1385 -7.564001 -5.967 
-20.1989 -20.3101 -19.4396 -11.6541 -8.6675 -11.3543 -11.3773 -12.0945 -7.564001 
-22.0934 -24.3051 -20.9127 -12.4671 -13.1268 -14.0511 -14.3333 -12.0945 
-3.6885 -2.9705 -4.9325 -1.934 -3.8735 -5.0075 -1.7695 -3.2495 -3.6135 -3.6885 -3.991 
-6.237 -8.6415 -6.2535 -4.885 -8.813001 -5.113 -5.112 -6.1985 -7.982 -8.343 
-12.4904 -10.451 -8.439501 -9.559001 -8.852 -8.123501 -8.1435 -10.9758 -13.2919 
-14.2999 -12.637 -13.3633 -9.574501 -12.2899 -11.4994 -13.274 -16.2857 
-16.4859 -17.5608 -13.3788 -13.3924 -15.6658 -16.6299 -18.5839 
-4.2915 -1.934 -3.8735 -2.7415 -4.4715 -4.39 -1.7565 -3.2495 -4.2915 
-5.985 -4.885 -6.64 -6.1835 -9.970001 -4.681 -4.5605 -6.6065 
-8.502501 -7.357501 -9.953501 -11.925 -10.4085 -6.5655 -7.948501 
-11.1704 -10.476 -15.695 -12.3635 -12.293 -9.206 
-14.2889 -16.2175 -16.1335 -14.248 -14.9335 
-3.8735 -2.229 -4.3285 -4.4715 -4.2915 -3.5005 -3.2495 -3.319 -3.6135 -4.1455 0 
-5.3655 -5.7115 -8.776001 -10.1815 -6.61 -6.004001 -7.117 -7.8285 -7.419001 -4.1455 
-10.411 -9.978001 -14.7914 -12.5 -9.4995 -10.164 -12.2563 -12.0762 -7.419001 
-14.6775 -16.2446 -17.1099 -15.3895 -13.8645 -15.3033 -16.504 -12.0762 
-20.9441 -18.5631 -19.9994 -19.7545 -19.0038 -19.551 -16.504 
