-4.759 
n/a 
n/a 
n/a 
n/a 
-4.759 
n/a 
n/a 
n/a 
n/a 
-4.759 
n/a 
n/a 
n/a 
n/a 
-4.759 
n/a 
n/a 
n/a 
n/a 
-3.1015 -2.871 -1.7565 -4.4385 -1.7695 -4.744 -2.3615 -3.875 -3.959 -3.098 -4.079 
-5.982 -3.5385 -6.204 -6.268001 -6.934501 -8.053 -7.4375 -7.163 -6.3035 -6.5125 
-6.3105 -9.165501 -8.0485 -12.0412 -10.0675 -13.4454 -11.7227 -10.322 -10.8276 
-12.2395 -11.3416 -14.0153 -15.1742 -15.4881 -17.7306 -14.8817 -15.0373 
-14.4156 -17.3084 -17.1483 -20.5948 -19.7733 -20.8896 -19.597 
-3.1015 0 -3.098 -1.4985 -5.366 -3.519 -4.114 -1.7695 -2.674 -1.4985 -3.8665 -4.473 -1.4985 -5.4415 -3.519 -2.186 -3.2955 -3.098 -1.934 -3.5905 -4.2915 -3.115 -3.1495 -3.4225 -3.468 0 
-3.1015 -3.098 -4.514 -6.1955 -7.31 -7.8145 -4.4525 -3.8225 -3.998 -4.915 -8.0605 -5.756 -6.2635 -6.9455 -5.3195 -4.348001 -5.404 -4.746 -5.709 -8.285001 -6.6435 -5.528501 -6.9615 -3.628 -3.468 
-5.563 -4.514 -8.834001 -7.5885 -10.7495 -8.0185 -5.323501 -4.971001 -7.634501 -8.7285 -9.676001 -11.2524 -7.384001 -8.3455 -6.742 -5.9165 -6.521 -8.336 -9.574 -9.5325 -9.723001 -9.818001 -7.008 -3.628 
-7.2425 -8.834001 -9.7995 -11.273 -10.9535 -8.9595 -6.9135 -8.722501 -10.749 -11.2896 -15.1724 -12.3729 -8.562501 -9.191501 -8.2605 -7.321 -10.1385 -12.4808 -10.623 -13.0116 -14.0353 -9.901501 -7.008 
-11.7443 -9.7995 -13.6588 -11.477 -11.8945 -10.6475 -10.374 -11.9922 -13.3101 -16.786 -16.2929 -13.5514 -9.450001 -10.724 -10.009 -10.5855 -14.4167 -13.5298 -14.1021 -17.3239 -14.1188 -9.901501 
-1.4985 -9.922001 -4.58 -5.345 -2.5685 -3.8405 -5.7175 -1.934 -1.4985 -3.5125 -1.756 -6.187 -1.7565 -1.4985 -4.7575 -3.436 -1.4985 -4.606 -1.7565 -4.076 -3.982 -5.089 -2.264 -1.4985 -3.4975 -5.5025 
-7.7655 -8.713 -9.779501 -6.862 -7.703 -9.371 -7.1155 -2.6125 -4.7015 -4.7915 -7.6105 -7.03 -2.4195 -5.355 -7.8585 -4.213 -5.385 -5.2745 -5.536 -8.131001 -7.6675 -6.072001 -2.9195 -4.3125 -7.814 
-9.221001 -10.0775 -10.054 -10.054 -10.041 -9.941501 -7.582 -5.4205 -5.841 -8.128 -8.3855 -7.4215 -5.7685 -7.886001 -8.7485 -7.611001 -5.475 -8.976001 -9.2945 -9.663501 -8.801001 -6.7675 -6.103 -8.068501 
-10.543 -10.063 -10.0695 -10.0595 -10.063 -10.04 -10.054 -7.055 -8.766001 -8.665 -8.723001 -9.036501 -8.068001 -8.776501 -10.0645 -7.6455 -9.071 -10.0715 -10.072 -10.0735 -9.184501 -8.9945 -8.823501 
-10.0695 -10.0755 -10.075 -10.0685 -10.0685 -10.0715 -10.073 -9.6925 -8.7795 -9.068501 -9.620501 -10.058 -9.292001 -10.064 -10.07 -9.950001 -10.071 -10.077 -10.0775 -10.079 -9.998501 -10.061 
-2.5045 -3.8825 -5.366 -3.519 -2.186 -4.62 -1.934 -3.895 0 -2.872 -5.4415 -3.519 0 -2.3615 -3.4225 -4.39 0 -2.9705 -2.186 -3.2955 -3.098 -1.934 -1.4985 -4.5735 -4.2915 0 
-5.282001 -7.777 -7.31 -5.3195 -5.6655 -6.601501 -5.1555 -3.895 -2.872 -8.8405 -6.9455 -3.519 -2.3615 -7.035 -4.7525 -4.39 -2.9705 -3.89 -4.348001 -5.404 -4.746 -2.6125 -5.271 -7.190001 -4.2915 
-9.6569 -10.757 -8.668501 -8.815001 -7.658 -9.766001 -5.1555 -6.346001 -8.8405 -10.5239 -6.9455 -5.9615 -7.035 -8.139 -4.7525 -6.769001 -3.89 -5.7615 -5.9165 -6.521 -5.431 -6.335 -8.141001 -7.190001 
-12.6369 -12.1155 -12.2936 -11.0429 -11.1903 -9.766001 -7.277501 -12.5617 -10.5239 -10.5239 -9.3365 -10.702 -8.139 -8.139 -7.4555 -7.9245 -5.7615 -7.809 -7.321 -7.1185 -9.2895 -8.845501 -8.141001 
-13.9954 -15.7406 -14.5215 -14.5752 -11.1903 -12.0866 -13.6498 -14.2451 -10.5239 -12.9149 -14.3906 -11.806 -8.139 -11.1834 -8.363 -10.7575 -7.809 -8.55 -7.851 -11.4164 -10.135 -8.845501 
