-4.759 
n/a 
n/a 
n/a 
n/a 
-4.759 
n/a 
n/a 
n/a 
n/a 
-4.759 
n/a 
n/a 
n/a 
n/a 
-4.759 
n/a 
n/a 
n/a 
n/a 
-2.9805 -3.966 -3.091 -4.235 -2.5045 -3.091 -4.6655 
-5.9475 -5.7645 -5.1065 -6.7725 -5.0075 -6.248 
-6.5305 -7.6315 -7.321 -8.227 -8.543 
-8.246501 -8.68 -8.77 -12.0119 
-9.208 -10.7214 -12.6767 
-2.9805 -3.966 -1.4985 -4.706 -4.253 
-5.9475 -5.435 -6.447001 -9.065001 
-6.954 -10.2645 -11.4398 
-12.1409 -15.2573 
-17.1337 
-2.9805 -3.966 -3.091 -4.235 -2.186 -4.7405 -3.7515 
-5.9475 -5.7645 -5.1065 -5.9235 -6.882501 -6.614501 
-6.5305 -7.6315 -6.838 -9.7095 -9.9455 
-8.246501 -10.485 -10.7448 -13.4525 
-11.2766 -14.3918 -14.4878 
-1.934 -4.253 -3.4795 -2.9805 -3.966 -3.091 -4.235 
-6.014 -7.027 -6.1615 -5.9475 -5.7645 -5.1065 
-7.626501 -8.703501 -9.146501 -6.5305 -7.6315 
-9.2685 -11.8451 -9.745501 -8.246501 
-12.4935 -12.4441 -11.5211 
