-4.759 
n/a 
n/a 
n/a 
n/a 
-4.759 
n/a 
n/a 
n/a 
n/a 
-4.759 
n/a 
n/a 
n/a 
n/a 
-4.759 
n/a 
n/a 
n/a 
n/a 
-6.6005 0 -8.184501 0 -10.9655 -1.756 -7.773 -2.4945 -1.4985 -3.699 -4.167 0 
-6.6005 -8.184501 -8.184501 -10.9655 -12.7215 -9.752001 -10.862 -3.9315 -5.264 -7.2945 -4.167 
-15.8204 -8.184501 -20.216 -12.7215 -20.7175 -12.9702 -12.299 -7.0825 -8.4175 -7.2945 
-15.8204 -20.216 -21.972 -20.7175 -23.9357 -14.4072 -15.45 -10.389 -8.4175 
-27.8519 -21.972 -29.968 -23.9357 -25.3727 -17.5582 -18.7565 -10.389 
-4.4525 -4.167 -1.7565 -12.16972 0 -10.536 0 -12.16972 -1.756 -10.509 -4.122 0 
-9.586 -5.5915 -14.87542 -12.16972 -10.536 -10.536 -12.16972 -13.92572 -12.1495 -15.2755 -4.122 
-10.7355 -19.67502 -14.87542 -22.70572 -10.536 -23.17112 -13.92572 -24.66322 -18.339 -16.0495 
-24.81902 -19.67502 -25.41142 -22.70572 -23.17112 -24.92712 -24.66322 -30.50872 -18.339 
-24.81902 -30.21102 -25.41142 -35.34084 -24.92712 -35.66462 -30.50872 -30.50872 
-6.522501 -5.1 0 -4.903 0 -5.14 -1.756 -5.433 -2.4945 -1.4985 -3.699 -4.167 0 
-10.451 -5.1 -4.903 -4.903 -5.14 -6.9055 -7.24 -8.445 -3.9315 -5.264 -7.2945 -4.167 
-10.451 -10.5865 -4.903 -7.031 -6.9055 -8.4175 -9.273001 -9.896501 -7.0825 -8.4175 -7.2945 
-15.9375 -10.5865 -7.031 -8.769 -8.4175 -9.9665 -10.674 -13.1107 -10.389 -8.4175 
-15.9375 -13.1647 -8.769 -9.479501 -9.9665 -11.5047 -13.8882 -16.4172 -10.389 
-10.245 0 -6.9935 0 -9.320001 -1.756 -10.4705 -2.4945 -1.4985 -3.699 -4.167 0 
-10.245 -6.9935 -6.9935 -9.320001 -11.7074 -13.2351 -12.965 -3.9315 -5.264 -7.2945 -4.167 
-17.3191 -6.9935 -17.1669 -11.7074 -23.1865 -15.7296 -14.402 -7.0825 -8.4175 -7.2945 
-17.3191 -17.1669 -19.5543 -23.1865 -25.681 -17.1666 -17.553 -10.389 -8.4175 
-27.4925 -19.5543 -31.0334 -25.681 -27.118 -20.3176 -20.8595 -10.389 
