-4.759 
n/a 
n/a 
n/a 
n/a 
-4.759 
n/a 
n/a 
n/a 
n/a 
-4.759 
n/a 
n/a 
n/a 
n/a 
-4.759 
n/a 
n/a 
n/a 
n/a 
-3.9685 -4.6605 -2.229 -3.594 -5.955 -2.8645 -5.162 -2.3335 -2.4265 -2.186 -2.6165 -4.023 -1.7695 -4.7615 -2.5685 -2.872 -3.331 -1.7695 -4.7615 -3.098 -1.4985 -3.699 -1.756 -2.6165 -1.4985 -6.101 -3.681 -4.7715 -2.4265 -2.186 -4.023 -1.7695 -3.7045 -3.098 -1.4985 -3.699 -3.681 0 
-8.2235 -6.919 -5.7155 -8.385 -8.3935 -8.3765 -8.7825 -3.913 -3.292 -3.5105 -5.4395 -4.5555 -5.1835 -6.775001 -5.1725 -6.1335 -3.669 -5.1835 -8.663 -4.514 -5.264 -5.4425 -4.2965 -4.2225 -7.684 -7.954 -8.0485 -6.2455 -3.292 -4.89 -4.5555 -4.8855 -7.026 -4.514 -5.264 -5.8595 -3.681 
-9.978001 -11.0559 -10.543 -10.298 -14.1761 -12.6496 -9.998 -4.5215 -4.443 -5.650001 -5.886 -7.507501 -7.112 -10.634 -9.2445 -6.608 -7.137 -8.977 -9.437 -7.9285 -7.2285 -7.637001 -5.512 -9.972501 -8.939501 -12.4719 -9.213 -7.0905 -5.3715 -5.223001 -7.507 -7.896 -8.0485 -7.9285 -6.905 -5.8595 
-15.0595 -15.8834 -12.456 -16.5148 -18.4492 -13.8651 -10.6671 -5.5735 -5.8955 -6 -8.927501 -9.4975 -11.1152 -14.706 -9.522 -10.228 -11.0605 -9.834001 -12.9493 -9.7405 -9.4025 -8.789001 -10.503 -11.3068 -13.5094 -13.6364 -10.2095 -9.7415 -5.503 -8.1455 -10.5975 -8.5655 -11.7764 -9.433001 -6.905 
-19.887 -17.7964 -18.6728 -20.7879 -19.6647 -14.5342 -11.7191 -7.013 -6.05 -9.0225 -11.0019 -13.6185 -15.1872 -14.9835 -13.341 -14.1515 -11.9175 -13.3803 -14.7613 -12.1319 -10.5865 -13.8572 -12.0997 -15.8767 -14.6739 -14.6329 -12.9403 -9.803 -8.290001 -11.3694 -11.267 -12.4514 -13.2809 -9.433001 
-3.9685 -4.6225 -2.8645 -3.3715 -3.594 -5.552 0 -2.847 -3.331 -1.7695 -3.5795 -3.6835 -3.9205 -2.915 -3.222 -1.8085 -3.7285 -4.6875 0 -2.4265 -3.3875 -3.5795 -3.098 -3.699 -4.6875 0 -2.356 -2.3615 -3.918 -2.4265 -3.9285 0 
-6.199 -6.778001 -5.473001 -7.244 -8.863 -5.552 -2.847 -5.056 -3.669 -4.6205 -7.107 -8.737501 -7.229501 -5.802 -4.144 -4.2045 -7.2945 -4.6875 -2.4265 -4.889 -5.379 -6.2695 -6.6315 -6.0235 -4.6875 -2.356 -4.2185 -6.5955 -6.4545 -6.3555 -3.9285 
-8.713 -9.712001 -9.182501 -13.3704 -8.863 -8.436 -5.056 -5.2305 -6.3035 -7.966001 -12.6002 -12.5219 -9.2875 -6.555501 -5.684 -7.7815 -7.2945 -7.1975 -4.889 -6.972 -7.828 -9.876 -8.9725 -6.0235 -7.2955 -4.2185 -8.3135 -8.947001 -10.27 -6.3555 
-11.7636 -13.4603 -15.5953 -13.3704 -11.9724 -11.1382 -5.2305 -7.567 -9.718 -13.7348 -16.3846 -14.5799 -10.486 -7.68 -9.9835 -7.7815 -9.771 -9.2305 -6.972 -9.209001 -12.1717 -12.2928 -8.9725 -9.038 -9.2445 -8.3135 -10.292 -13.0005 -10.27 
-15.5119 -19.8731 -15.5953 -16.4798 -14.6746 -11.3127 -7.567 -11.4115 -15.6136 -17.5192 -18.4426 -15.7784 -11.6105 -12.5299 -9.9835 -10.328 -11.7988 -11.6047 -9.209001 -14.5191 -14.5885 -12.2928 -11.7376 -10.6605 -13.3679 -10.292 -14.5213 -13.0005 
-3.9685 -5.0335 -2.229 -3.6645 -1.7565 -5.587 -2.7415 -5.339 -2.264 -1.4985 -4.1175 -1.7565 0 -2.5685 -2.3335 -3.6385 -4.4895 -3.331 -2.6165 -2.489 -3.9285 -1.756 -3.098 -1.4985 -4.023 -3.2645 -2.489 -3.9285 0 
-7.632501 -7.893001 -5.999001 -4.613 -7.889 -8.816501 -6.5345 -8.5035 -2.9195 -4.6915 -4.7545 -1.7565 -2.5685 -4.623 -5.818501 -6.9905 -9.137 -5.2605 -3.82 -4.7915 -6.03 -4.806 -4.514 -4.971 -7.371 -3.7195 -4.7915 -3.9285 
-10.9388 -11.882 -6.9275 -11.2049 -11.4293 -12.8637 -9.4785 -9.1295 -4.9245 -4.851 -4.7545 -3.938 -4.623 -8.083 -8.498501 -12.0602 -11.0547 -5.642 -6.098001 -6.8695 -7.544 -6.1955 -7.51 -10.31 -7.8325 -5.837 -4.7915 
-14.9278 -12.8105 -13.6616 -14.7452 -15.4765 -15.8077 -10.0935 -10.5645 -4.9575 -4.851 -6.864501 -5.9665 -8.083 -10.0955 -13.7868 -13.9779 -11.4362 -7.506001 -8.238001 -9.6245 -9.547 -8.978001 -13.1784 -10.7275 -9.4115 -5.837 
-15.8563 -19.5446 -17.2019 -18.7924 -18.4205 -16.4227 -11.5285 -10.5825 -4.9575 -6.936 -8.781501 -9.053 -10.0955 -15.4946 -15.7045 -14.3594 -13.3002 -9.92 -10.316 -10.3305 -12.4231 -14.867 -13.5959 -12.3065 -9.4115 
-3.9685 -1.7565 -4.8395 -1.7695 -4.571 -1.7695 -2.7455 -3.6385 -3.5795 -4.1085 -1.7695 -4.7715 -4.7615 0 
-7.1215 -7.5445 -6.873501 -7.697001 -7.4505 -5.2305 -6.9715 -8.419001 -8.022 -4.428 -6.73 -9.599501 -4.7615 
-13.2865 -8.6775 -13.7474 -10.7595 -11.4829 -9.561001 -12.3746 -13.1615 -10.389 -8.9385 -10.322 -9.599501 
-14.4195 -16.7018 -16.8099 -14.7919 -15.8134 -15.9597 -17.1171 -15.5285 -14.8995 -12.6095 -10.322 
-22.4438 -19.7643 -20.8423 -19.1224 -22.2121 -20.7022 -19.4841 -20.039 -18.5705 -12.6095 
