-4.759 
n/a 
n/a 
n/a 
n/a 
-4.759 
n/a 
n/a 
n/a 
n/a 
-4.759 
n/a 
n/a 
n/a 
n/a 
-4.759 
n/a 
n/a 
n/a 
n/a 
-2.3335 -4.9825 -3.543 -5.2125 -3.875 -3.959 -3.074 -2.356 -3.922 0 
-7.466001 -6.213 -5.2555 -9.6555 -7.163 -6.743 -5.756001 -7.0655 -3.922 
-8.606501 -6.2775 -9.703001 -12.9435 -10.341 -9.302 -10.0445 -7.0655 
-8.675501 -10.476 -12.991 -16.1215 -12.9 -13.6227 -10.0445 
-13.3636 -13.764 -16.169 -18.6805 -17.2207 -13.6227 
-1.4985 -4.9825 -3.543 -5.2125 -2.186 -2.645 -3.1575 -4.1925 -1.7565 -1.4985 -2.8965 -7.3545 0 
-6.368501 -6.213 -5.2555 -6.98 -4.528 -3.72 -8.408501 -6.502 -2.4195 -3.928 -8.309 -7.3545 
-7.7075 -6.2775 -6.9965 -9.333 -5.2425 -9.5625 -10.9314 -7.16 -4.976501 -9.818001 -8.309 
-7.761001 -7.7245 -9.346001 -9.5555 -11.368 -12.407 -11.5894 -9.8105 -10.8815 -9.818001 
-8.706501 -9.98 -9.5605 -15.8482 -14.2125 -13.065 -14.2399 -15.7667 -10.8815 
-2.3335 -4.9825 -3.543 -5.2125 -11.0905 -3.59 -3.135 -1.7565 -2.645 -3.5215 
-7.466001 -6.213 -5.2555 -17.563 -14.6805 -6.8085 -3.9195 -4.8395 -5.657001 
-8.606501 -6.2775 -18.1432 -21.153 -17.899 -7.436 -7.856 -7.665501 
-8.675501 -19.7954 -21.7332 -24.3715 -18.5265 -11.8571 -10.6132 
-22.683 -23.3854 -24.9517 -24.999 -22.9476 -14.6143 
-3.1435 -4.9825 -3.543 -5.2125 -4.8635 -3.4915 -3.93 -3.1575 -3.3715 -3.982 -3.959 
-7.185 -6.213 -5.2555 -9.3475 -7.814 -5.5535 -4.9745 -5.996 -6.549001 -5.6075 
-8.4095 -6.2775 -9.351501 -12.5002 -8.849001 -6.1855 -7.8615 -8.6855 -6.948 
-8.476 -10.064 -12.5034 -13.5352 -9.0775 -8.864 -9.889501 -9.006001 
-12.6985 -13.2419 -13.5384 -13.7637 -11.9718 -11.0072 -10.038 
