-4.759 
n/a 
n/a 
n/a 
n/a 
-4.759 
n/a 
n/a 
n/a 
n/a 
-4.759 
n/a 
n/a 
n/a 
n/a 
-4.759 
n/a 
n/a 
n/a 
n/a 
-6.173 0 -3.355 -5.988 0 -4.709 -1.756 -10.473 -2.4945 -3.0365 
-6.173 -3.355 -10.4675 -5.988 -4.709 -6.2945 -7.8065 -9.946 -4.952001 
-9.670501 -10.4675 -10.4675 -9.153501 -6.2945 -9.7185 -11.0665 -12.8738 
-10.7595 -10.4675 -13.9956 -10.082 -9.351001 -13.8101 -14.0764 
-10.7595 -13.9956 -14.9241 -13.1385 -13.8241 -16.2944 
-3.147 -3.0365 -2.4945 -4.4545 -4.2085 0 -4.202 -4.2085 0 -4.7515 -4.134 0 -6.0005 -4.2085 -1.756 -4.709 -4.7505 0 
-5.7475 -3.688 -7.927001 -6.083 -4.2085 -4.202 -7.226 -4.2085 -4.7515 -7.6185 -4.134 -6.0005 -7.237 -5.729001 -6.6195 -7.8545 -4.7505 
-6.2635 -9.036 -9.595501 -6.083 -7.5795 -7.226 -7.226 -8.0845 -7.6185 -7.6185 -10.1345 -7.237 -8.362 -8.377501 -8.819 -7.8545 
-11.8931 -10.9897 -9.595501 -9.3415 -9.657001 -7.226 -11.9272 -11.3497 -7.6185 -13.9232 -11.8188 -8.362 -11.2237 -9.275001 -8.819 
-13.8468 -10.9897 -12.9188 -11.4544 -9.657001 -11.9272 -15.1924 -11.3497 -13.9232 -15.6075 -12.9438 -11.2237 -12.1212 -9.275001 
-2.3615 -3.892 -2.186 -5.102 -2.3345 -4.4545 -4.9545 0 -10.4745 0 -5.988 0 -6.006001 -4.9545 -1.756 -5.8805 0 
-5.6425 -5.6735 -5.785 -5.3215 -6.7775 -6.606501 -4.9545 -8.328501 -8.328501 -5.988 -5.988 -6.006001 -7.2615 -5.808 -7.025 -5.8805 
-6.7385 -7.959001 -5.8495 -9.7725 -9.332001 -6.606501 -9.938001 -8.328501 -10.238 -5.988 -9.647501 -7.2615 -8.255501 -8.48 -7.025 
-8.6615 -7.9905 -10.3535 -12.5124 -9.332001 -11.9622 -9.938001 -10.238 -10.238 -9.647501 -10.056 -8.255501 -10.4425 -8.48 
-8.690001 -12.6673 -13.0934 -12.5124 -15.0119 -11.9622 -10.7375 -10.238 -14.2165 -10.056 -10.53 -10.4425 -10.4425 
-3.147 -1.4985 -3.5015 -2.8645 -4.417 -4.9545 0 -4.0455 -4.7505 0 -5.9925 -4.7505 0 -4.934 -4.9545 -1.756 -5.8805 -3.074 0 
-4.88 -4.737 -6.312 -8.584 -8.317501 -4.9545 -4.0455 -9.251 -4.7505 -5.9925 -9.342501 -4.7505 -4.934 -9.9835 -5.808 -7.025 -9.0605 -3.074 
-7.3685 -7.071 -12.4243 -12.8483 -8.317501 -8.3025 -9.251 -9.251 -10.254 -9.342501 -9.342501 -10.0965 -9.9835 -10.614 -8.48 -9.9505 -9.0605 
-9.403 -13.4001 -16.6886 -12.8483 -12.0945 -14.04 -9.251 -14.9583 -13.7578 -9.342501 -14.7959 -15.3478 -10.614 -13.286 -11.6679 -9.9505 
-15.8167 -17.6644 -16.6886 -16.6253 -17.832 -14.04 -14.9583 -18.4621 -13.7578 -14.7959 -20.0472 -15.9783 -13.286 -16.4739 -11.6679 
