-4.759 
n/a 
n/a 
n/a 
n/a 
-4.759 
n/a 
n/a 
n/a 
n/a 
-4.759 
n/a 
n/a 
n/a 
n/a 
-4.759 
n/a 
n/a 
n/a 
n/a 
-4.029 -1.7565 -5.2355 -1.4985 -3.5485 
-5.1 -6.982 -6.77 -5.0185 
-8.7495 -8.064 -10.2925 
-9.758501 -11.7097 
-13.4534 
-8.244 -12.16972 -10.536 -6.2655 -9.721001 
-20.71832 -22.70572 -17.1625 -16.7217 
-31.25432 -29.33222 -27.6187 
-37.88082 -39.78842 
-48.33702 
-8.244 -12.16972 -12.16972 -8.276501 -9.721001 -2.802 
-20.71832 -24.33944 -20.44622 -18.3737 -12.7558 
-32.88804 -32.61594 -30.54342 -21.4085 
-41.16454 -42.71314 -33.57822 
-51.26174 -45.74794 
-12.16972 -12.16972 -12.16972 -8.276501 -12.16972 -2.229 
-24.33944 -24.33944 -20.44622 -20.82242 -14.39872 
-36.50916 -32.61594 -32.99214 -23.05142 
-44.78566 -45.16186 -35.22114 
-57.33158 -47.39086 
