-4.759 
n/a 
n/a 
n/a 
n/a 
-4.759 
n/a 
n/a 
n/a 
n/a 
-4.759 
n/a 
n/a 
n/a 
n/a 
-4.759 
n/a 
n/a 
n/a 
n/a 
-3.433 0 -2.4265 -4.2735 -4.518 -4.0925 -3.976 -2.7835 -5.192 -1.756 -3.689 -3.9115 -1.7565 -4.959 -5.31 0 
-3.433 -2.4265 -6.146501 -7.6595 -10.1555 -8.692501 -6.7415 -8.198501 -6.452001 -5.167 -6.839 -5.1855 -5.9675 -7.9095 -5.31 
-4.4115 -6.146501 -9.212001 -13.495 -14.8973 -12.0608 -12.4359 -10.1035 -9.161501 -8.057 -9.080501 -8.5915 -9.2685 -7.9095 
-8.467 -9.212001 -15.4347 -18.2368 -18.2656 -17.7552 -14.3409 -12.813 -12.2629 -10.1675 -12.4467 -12.1647 -9.2685 
-11.6439 -15.4347 -20.1765 -21.6051 -23.96 -19.6602 -17.0504 -15.9144 -14.3734 -13.7105 -16.0199 -12.1647 
-3.433 -7.847001 -2.4285 -2.6165 -3.723 -10.2885 -2.674 -3.535 -5.31 -8.061501 -1.7695 -2.3615 -2.4265 -4.098 -4.236 -1.4985 -4.644 -4.9105 
-12.425 -10.411 -4.3195 -6.8625 -14.9503 -13.1381 -6.3905 -6.425 -12.6235 -8.061001 -3.736 -5.3335 -5.228 -8.118 -6.0635 -6.095 -7.0695 
-14.989 -12.302 -8.913 -18.5394 -17.7999 -16.8546 -10.1185 -13.7068 -12.9773 -10.062 -6.718 -8.218 -9.2185 -10.2185 -11.113 -7.967501 
-16.88 -16.8955 -20.6623 -21.389 -21.5164 -20.5826 -18.0857 -14.4052 -15.1533 -12.0175 -9.691 -12.4921 -11.4268 -15.268 -12.9855 
-21.4735 -28.6448 -23.5119 -25.1055 -25.2444 -28.5498 -18.0987 -16.5812 -17.0713 -15.2977 -14.0841 -14.7004 -16.4763 -17.1405 
-2.3615 -2.186 -3.851 -1.7695 -1.4985 -4.0395 -1.7565 -1.4985 -4.959 -5.1595 -2.9705 -3.4515 -1.934 -4.379 -1.4985 -4.593 -2.4285 -7.163 -3.458 -3.277 
-3.5005 -5.0955 -4.0015 -2.7955 -4.995 -4.862 -2.4195 -6.127 -7.851501 -7.0665 -5.9325 -4.7655 -6.3375 -5.528 -5.855 -6.367001 -9.5235 -8.7565 -5.3735 
-5.921 -5.314 -4.5775 -6.375 -5.3155 -5.2685 -6.842 -8.7915 -9.698501 -9.5275 -6.0325 -9.0775 -7.281 -8.185 -7.368001 -14.4526 -11.1946 -10.2755 
-5.9725 -5.7875 -7.759501 -6.745501 -5.661 -8.851001 -9.525001 -10.5745 -12.1081 -9.564 -10.0125 -9.595 -9.4585 -10.5234 -16.0294 -16.1237 -12.7136 
-6.2335 -8.830001 -7.839 -7.009 -9.342001 -12.0188 -11.3644 -12.9841 -12.1446 -13.6 -10.518 -11.7725 -12.0277 -19.1848 -17.7005 -17.6427 
-3.436 -4.1735 -3.723 -4.959 -3.301 -2.4285 -3.869 -2.674 -3.383 -3.9555 -1.7695 -4.2615 0 
-7.9025 -7.623 -8.3815 -9.729 -5.518 -5.690001 -7.6435 -5.6065 -5.706 -6.122 -4.7355 -4.2615 
-11.9922 -13.2029 -13.7917 -12.0788 -5.8755 -8.726501 -11.0098 -8.2365 -7.51 -8.9575 -4.7355 
-17.5721 -18.6131 -16.1415 -12.4363 -8.752 -12.1136 -13.6398 -10.3093 -10.1145 -8.9575 
-22.9823 -20.9629 -16.499 -15.3128 -12.1471 -14.7436 -15.7126 -12.9138 -10.1145 
