-4.759 
n/a 
n/a 
n/a 
n/a 
-4.759 
n/a 
n/a 
n/a 
n/a 
-4.759 
n/a 
n/a 
n/a 
n/a 
-4.759 
n/a 
n/a 
n/a 
n/a 
-1.4985 -4.241 -4.431 -3.2615 -3.225 -2.7415 -2.6165 -6.4935 
-5.311501 -6.247 -6.817 -6.8285 -6.235001 -4.266 -8.495501 
-7.328501 -8.577001 -11.3856 -9.43 -8.064 -9.028501 
-9.8645 -13.5976 -13.9871 -11.5154 -13.0873 
-14.9859 -16.1991 -16.0725 -16.5387 
-2.5045 -3.498 -1.7565 -3.225 -4.241 -3.9075 -4.434 -1.934 -4.264 0 
-5.620501 -4.005 -5.4535 -7.644501 -7.832 -8.584001 -5.81 -6.6865 -4.264 
-5.7345 -6.5185 -10.1225 -11.8863 -12.7299 -9.3255 -7.629 -6.6865 
-8.745501 -11.4721 -14.3643 -16.7842 -13.4714 -10.1275 -7.629 
-13.7511 -15.7139 -19.2622 -17.5257 -14.2734 -10.1275 
-3.225 -2.5045 -1.4985 -3.498 -1.7565 -1.4985 -3.158 0 -1.4985 -5.003 -4.461 -1.934 -4.264 0 
-5.2615 -3.1915 -4.0295 -4.005 -2.4195 -4.178 -3.158 -1.4985 -6.6555 -10.504 -5.663001 -6.6865 -4.264 
-6.467 -4.454 -4.188 -4.3765 -4.4755 -4.178 -4.725 -6.6555 -12.8537 -11.706 -8.0935 -6.6865 
-8.125501 -4.526 -4.4925 -5.59 -4.4755 -5.6325 -9.818001 -12.8537 -14.0557 -14.1365 -8.0935 
-8.154 -4.823 -5.6415 -5.59 -5.9145 -10.8633 -16.1302 -14.0557 -16.4862 -14.1365 
-2.5685 -1.4985 -3.7535 -3.152 -4.434 -1.934 -4.264 -1.934 -1.4985 -3.158 -3.225 0 
-3.7015 -4.9135 -7.3665 -7.58 -5.81 -6.6865 -5.762001 -2.6125 -4.178 -5.5645 -3.225 
-7.3865 -7.986501 -11.9747 -8.7725 -7.629 -8.257501 -6.414001 -5.265 -6.5275 -5.5645 
-11.1707 -12.6639 -13.1672 -10.6585 -8.8925 -8.704 -9.713501 -7.2915 -6.5275 
-15.8481 -13.8564 -15.0532 -11.922 -9.863 -12.4821 -11.8636 -7.2915 
