-4.759 
n/a 
n/a 
n/a 
n/a 
-4.759 
n/a 
n/a 
n/a 
n/a 
-4.759 
n/a 
n/a 
n/a 
n/a 
-4.759 
n/a 
n/a 
n/a 
n/a 
-2.4265 -2.8645 -3.062 -6.142 -3.469 -1.756 -2.4265 -2.186 -4.7925 -1.934 -1.7695 -3.54 -3.9035 
-4.1435 -6.733 -8.7095 -8.7655 -5.1025 -3.949 -3.292 -5.544001 -6.33 -4.0395 -5.1675 -6.125501 
-8.16 -12.4295 -13.053 -10.3765 -6.9895 -4.7355 -6.797 -6.954 -7.7085 -8.011001 -8.1485 
-14.3893 -17.1124 -14.4457 -13.0188 -7.798 -8.3505 -8.153 -8.1675 -8.5315 -9.221001 
-18.6742 -18.4517 -16.7162 -13.6658 -10.5525 -9.186501 -9.4705 -8.936501 -9.5695 
-3.062 -6.116 -4.653 -3.8875 -2.8645 0 -3.1125 -6.3195 -3.222 -3.54 -3.9035 0 
-9.3575 -8.762 -9.108001 -6.768001 -2.8645 -3.1125 -8.201 -7.920501 -5.6115 -6.125501 -3.9035 
-12.0491 -13.3766 -12.2191 -6.768001 -3.5345 -8.201 -9.485001 -9.2755 -6.75 -6.125501 
-16.6637 -16.4877 -12.2191 -7.5435 -8.9745 -9.485001 -10.9246 -10.2335 -6.75 
-19.7748 -16.4877 -12.9946 -13.3877 -9.792 -10.9246 -11.8826 -10.2335 
-1.4985 -6.0515 -1.7565 -8.292 -2.186 -8.7425 -3.222 -3.54 -3.9035 0 
-6.751 -8.223001 -12.666 -12.058 -9.4525 -9.291 -5.6115 -6.125501 -3.9035 
-8.4575 -19.6259 -15.7379 -19.6515 -9.779501 -10.3755 -6.75 -6.125501 
-19.9336 -22.4348 -23.327 -19.9785 -10.738 -11.514 -6.75 
-22.7425 -30.0239 -23.654 -20.937 -11.8765 -11.514 
-2.3615 -3.8875 -3.949 -2.186 -3.062 -6.142 -1.756 -4.7925 -3.222 -3.54 -3.9035 
-6.797501 -8.470501 -5.811 -6.2135 -8.7095 -7.247 -6.509 -5.2095 -5.6115 -6.125501 
-12.1967 -10.214 -8.623 -12.0825 -10.75 -11.9855 -7.199 -6.088 -6.75 
-13.9402 -13.026 -14.8858 -14.0644 -15.9437 -12.7653 -8.2135 -7.0455 
-16.7522 -19.2888 -16.8677 -19.2047 -16.4627 -13.7798 -9.2995 
