-4.759 
n/a 
n/a 
n/a 
n/a 
-4.759 
n/a 
n/a 
n/a 
n/a 
-4.759 
n/a 
n/a 
n/a 
n/a 
-4.759 
n/a 
n/a 
n/a 
n/a 
-3.539 -9.9565 -6.0655 -2.8645 -4.8165 -2.3335 -2.4265 -2.8645 -9.8815 -12.16972 -2.9705 -2.7415 -4.005 -4.6805 -4.891 
-13.2175 -13.523 -7.972 -6.2305 -5.8995 -3.913 -4.1435 -14.349 -22.08722 -15.14022 -4.512 -5.236 -8.9135 -10.784 
-17.0806 -15.6593 -11.5124 -7.047 -7.1 -5.2035 -15.9648 -26.55472 -25.05772 -16.68172 -6.4255 -11.1217 -15.4388 
-19.2169 -19.1997 -12.3289 -8.008 -8.6215 -17.3162 -28.17052 -29.52522 -26.59922 -18.59522 -13.018 -17.647 
-22.7573 -20.0162 -13.2899 -9.145 -20.8966 -29.52192 -31.14102 -31.06672 -28.51272 -25.18772 -19.5433 
-3.539 -3.0575 -1.8085 -3.5015 -9.6925 -2.186 -4.6295 -2.5195 -1.4985 -4.969 -1.756 -3.9595 -1.7695 -2.985 -3.4985 -2.3345 -6.6585 -3.5435 0 
-5.5085 -5.5755 -4.642 -14.189 -12.2895 -6.302501 -7.174001 -3.1695 -5.927 -6.75 -5.8875 -4.9785 -4.281 -6.239 -5.9425 -9.566501 -9.505501 -3.5435 
-8.537001 -8.842001 -16.5491 -16.786 -16.406 -8.882001 -7.738501 -7.7005 -7.895 -10.1675 -6.5655 -7.541 -7.8415 -8.3205 -13.6697 -12.4371 -9.505501 
-11.9325 -20.9153 -19.1461 -20.9025 -18.9855 -9.478001 -12.5811 -9.93 -11.5011 -10.299 -8.552 -11.5823 -9.8865 -16.1519 -16.5403 -12.4371 
-24.0058 -23.5123 -23.2626 -23.482 -19.5815 -14.3674 -14.8106 -13.5361 -11.6326 -12.5863 -12.7959 -13.6273 -17.8119 -19.0225 -16.5403 
-3.539 -3.0575 0 -6.899 -3.5435 -4.5715 -2.3335 -2.4265 -4.9385 -1.4985 -9.6925 -2.9705 -2.7415 -3.325 -1.4985 -3.4985 -1.7565 -6.144 
-5.5085 -3.0575 -6.899 -8.7615 -7.923 -5.932 -3.913 -7.352 -5.916501 -12.2848 -13.074 -4.512 -5.7585 -3.898 -4.798 -4.622 -7.7095 
-5.5085 -10.7665 -8.7615 -13.328 -9.000001 -7.4265 -8.509501 -7.8485 -17.2508 -15.6663 -14.6155 -7.397501 -6.248 -5.8625 -5.425 -9.76 
-14.3241 -12.629 -13.328 -14.405 -10.3225 -12.614 -8.923 -19.3448 -20.6323 -17.2078 -17.501 -7.936 -7.6545 -5.8915 -10.2175 
-16.1866 -17.1955 -14.405 -15.7275 -15.51 -13.0275 -20.5055 -22.7263 -22.1738 -20.0933 -18.0395 -8.824501 -7.687 -10.316 
-3.705 -9.9565 -3.5435 -3.251 -4.9385 -1.4985 -5.3745 -4.891 -9.914001 0 
-13.136 -12.629 -6.0535 -7.030001 -5.916501 -6.2355 -7.061501 -16.0698 -9.914001 
-16.0243 -15.326 -9.68 -7.6615 -11.2015 -7.2945 -19.6325 -16.0698 
-18.7213 -18.9525 -10.5049 -13.0741 -12.2605 -20.3987 -19.6325 
-22.3478 -19.7774 -15.9175 -14.1331 -25.3647 -20.3987 
