-4.759 
n/a 
n/a 
n/a 
n/a 
-4.759 
n/a 
n/a 
n/a 
n/a 
-4.759 
n/a 
n/a 
n/a 
n/a 
-4.759 
n/a 
n/a 
n/a 
n/a 
-9.962501 -2.7415 -3.535 -4.031 -2.0935 -4.489 -3.539 
-12.8574 -7.8525 -5.8145 -4.8935 -7.0865 -9.571501 
-17.9684 -9.311501 -6.2975 -10.233 -12.4302 
-19.4274 -9.6925 -11.9666 -15.9913 
-19.8084 -15.3444 -17.7249 
-2.9805 -5.441 -6.1825 -2.3335 -4.922 -2.4945 -1.4985 -4.031 -2.0935 -1.4985 -4.489 -2.229 -5.186 0 
-7.360001 -8.964001 -8.6815 -6.6945 -6.4595 -3.9315 -4.771 -4.8935 -2.9725 -7.546 -6.536 -6.919 -5.186 
-9.863001 -11.647 -13.1739 -7.5745 -7.663001 -6.614 -5.3855 -5.596 -9.109 -9.2205 -11.8792 -6.919 
-12.545 -16.1394 -14.0539 -8.7065 -10.0995 -7.535 -5.895 -12.1987 -10.8607 -14.6897 -11.8792 
-17.0374 -17.0194 -15.1859 -11.365 -10.6275 -8.024501 -12.6165 -13.9504 -16.3299 -14.6897 
-2.9805 -5.441 -3.793 -2.3335 -4.922 -3.152 -1.4985 -4.031 -2.0935 -4.489 -2.229 -4.3725 
-7.360001 -8.1955 -6.753 -6.6945 -6.4385 -4.764 -4.771 -4.8935 -7.0865 -6.536 -6.6005 
-10.757 -10.7025 -11.5766 -7.694 -7.981501 -7.5335 -5.3855 -10.233 -8.287001 -10.368 
-13.264 -15.5261 -12.5761 -9.026 -10.4765 -8.066501 -10.7175 -10.427 -10.523 
-18.0876 -16.5256 -13.9081 -11.5558 -11.0095 -13.4473 -10.9115 -12.663 
-2.9805 -4.6505 -2.3335 -1.4985 -4.031 -2.0935 -4.489 -2.229 -3.6885 -2.7415 -1.4985 -4.922 
-5.933001 -5.5595 -3.3515 -4.771 -4.8935 -7.0865 -6.536 -6.024 -5.6045 -4.063 -5.496 
-6.4575 -6.154 -6.27 -5.3855 -10.233 -8.287001 -10.6215 -7.662 -6.7865 -8.248001 
-7.064 -8.151501 -6.9425 -10.7175 -10.427 -12.5605 -12.2595 -8.966001 -10.419 
-8.973001 -8.605 -12.3191 -10.9115 -14.7005 -14.1985 -13.5635 -12.7561 
